* Measurement data measured by REW V5.20.13
* Source: EXCL: Microphone(High Definition Audio Device), MICROPHONE (마스), R, volume: 1.000
* Format: 256k Log Swept Sine, 1 sweep at -12.0 dBFS with no timing reference
* Dated: 2023. 4. 11 오후 10:50:36
* REW Settings:
*  C-weighting compensation: Off
*  Target level: 75.0 dB
* Note: 
* Measurement: R
* Smoothing: 1/24 octave
* Frequency Step: 1/48 octave
* Start Frequency: 20.300 Hz
*
* Freq(Hz)	SPL(dB)	Phase(degrees)
20.299999	101.842	170.8105
20.600000	101.832	170.6317
20.900000	101.813	170.3172
21.200001	101.793	170.0262
21.400000	101.780	169.8334
21.799999	101.753	169.4158
22.000000	101.738	169.1819
22.400000	101.706	168.6722
22.700001	101.680	168.2638
23.000000	101.653	167.8382
23.299999	101.627	167.3983
23.600000	101.602	166.9466
24.000000	101.572	166.3341
24.299999	101.552	165.8771
24.700001	101.529	165.2844
25.000000	101.514	164.8567
25.400000	101.501	164.3043
25.799999	101.493	163.7582
26.200001	101.486	163.2085
26.500000	101.479	162.7975
26.900000	101.462	162.2661
27.200001	101.445	161.8936
27.600000	101.419	161.4428
28.000000	101.392	161.0412
28.500000	101.362	160.5756
29.000000	101.336	160.1008
29.500000	101.309	159.5887
30.000000	101.276	159.0456
30.400000	101.246	158.6048
30.700001	101.221	158.2766
31.100000	101.188	157.8454
31.500000	101.154	157.4213
32.000000	101.112	156.9012
32.500000	101.072	156.3934
33.000000	101.038	155.8943
33.500000	101.010	155.3945
34.000000	100.986	154.8884
34.500000	100.960	154.3832
35.000000	100.933	153.8924
35.500000	100.904	153.4222
36.000000	100.877	152.9675
36.500000	100.849	152.5216
37.000000	100.820	152.0812
37.500000	100.790	151.6455
38.200001	100.743	151.0381
38.700001	100.708	150.6039
39.500000	100.648	149.9130
40.000000	100.609	149.4895
40.599998	100.563	148.9976
41.200001	100.518	148.5262
41.799999	100.477	148.0638
42.500000	100.431	147.5230
43.099998	100.391	147.0791
43.700001	100.353	146.6753
44.400002	100.317	146.2179
45.000000	100.289	145.7801
45.500000	100.262	145.3810
46.200001	100.213	144.8305
46.799999	100.166	144.4106
47.500000	100.118	143.9635
48.200001	100.076	143.5192
48.700001	100.050	143.1963
49.400002	100.015	142.7372
50.000000	99.988	142.3276
50.799999	99.950	141.7565
51.500000	99.912	141.2660
52.200001	99.872	140.8028
53.000000	99.825	140.2853
53.799999	99.774	139.7825
54.500000	99.728	139.3725
55.200001	99.684	138.9705
56.000000	99.635	138.5001
57.000000	99.576	137.9251
58.000000	99.523	137.3387
59.000000	99.467	136.7331
60.000000	99.407	136.1583
60.799999	99.360	135.7191
61.500000	99.320	135.3487
62.200001	99.283	134.9830
63.000000	99.240	134.5569
64.000000	99.184	134.0145
65.000000	99.124	133.4816
66.000000	99.062	132.9972
67.000000	99.010	132.5434
68.000000	98.963	132.0543
69.000000	98.914	131.5385
70.000000	98.862	131.0293
71.000000	98.809	130.5415
72.000000	98.755	130.0836
73.000000	98.703	129.6537
74.000000	98.655	129.2350
75.000000	98.610	128.8055
76.199997	98.556	128.2543
77.500000	98.487	127.6705
78.800003	98.421	127.1410
80.000000	98.363	126.6266
81.199997	98.300	126.1196
82.500000	98.232	125.5929
83.800003	98.166	125.0682
85.000000	98.107	124.5830
86.199997	98.053	124.0894
87.500000	97.997	123.5315
88.500000	97.955	123.1292
90.000000	97.905	122.5444
91.199997	97.864	122.0753
92.500000	97.819	121.6080
93.800003	97.773	121.1552
95.000000	97.727	120.7450
96.199997	97.680	120.3570
97.500000	97.634	119.9104
98.800003	97.586	119.4208
100.000000	97.539	118.9898
101.500000	97.485	118.4783
103.000000	97.431	117.9431
104.400002	97.375	117.4623
106.000000	97.314	116.9436
107.500000	97.265	116.4626
109.000000	97.221	115.9670
110.599998	97.172	115.4467
112.000000	97.126	115.0078
113.800003	97.066	114.4232
115.000000	97.028	114.0227
117.199997	96.986	113.2656
118.000000	96.977	112.9495
120.599998	96.912	111.9478
122.000000	96.860	111.6428
124.099998	96.792	111.2436
125.000000	96.765	111.0331
126.500000	96.723	110.6119
128.000000	96.686	110.1463
131.500000	96.615	109.1021
132.000000	96.604	108.9687
134.000000	96.555	108.4439
136.000000	96.504	107.9021
138.000000	96.465	107.3192
140.000000	96.432	106.6684
143.000000	96.372	105.7389
145.000000	96.329	105.1475
147.500000	96.276	104.3810
150.000000	96.223	103.6769
152.500000	96.179	103.0473
155.000000	96.135	102.3991
157.500000	96.084	101.7325
160.000000	96.035	101.0589
162.500000	95.988	100.3691
165.000000	95.941	99.7087
167.500000	95.898	99.0636
170.000000	95.854	98.3974
172.500000	95.809	97.7287
175.000000	95.761	97.0637
177.500000	95.712	96.4406
180.000000	95.672	95.8193
182.500000	95.632	95.1601
185.000000	95.582	94.5170
187.500000	95.530	93.9086
190.000000	95.485	93.3050
192.500000	95.450	92.6898
195.000000	95.417	92.0965
197.500000	95.377	91.5340
200.000000	95.334	90.9781
203.000000	95.288	90.2682
206.000000	95.249	89.5949
209.000000	95.208	88.9977
212.000000	95.158	88.3960
214.000000	95.121	87.9748
218.000000	95.064	87.1599
220.000000	95.047	86.7513
224.000000	95.023	85.9315
227.000000	95.003	85.2702
230.000000	94.979	84.5402
233.000000	94.950	83.8108
236.000000	94.914	83.1541
240.000000	94.856	82.3108
243.000000	94.811	81.6573
247.000000	94.748	80.8631
250.000000	94.706	80.3223
254.000000	94.656	79.5966
258.000000	94.612	78.8764
262.000000	94.579	78.1950
265.000000	94.553	77.6777
269.000000	94.519	76.9185
272.000000	94.496	76.3000
276.000000	94.463	75.4656
280.000000	94.426	74.6716
285.000000	94.381	73.7042
290.000000	94.338	72.7242
295.000000	94.285	71.7932
300.000000	94.221	70.9231
304.000000	94.180	70.2334
307.000000	94.158	69.7114
311.000000	94.123	68.9986
315.000000	94.078	68.3168
320.000000	94.025	67.5621
325.000000	93.974	66.7775
330.000000	93.926	66.0216
335.000000	93.876	65.3427
340.000000	93.823	64.6196
345.000000	93.775	63.9192
350.000000	93.728	63.2823
355.000000	93.681	62.6605
360.000000	93.633	62.0191
365.000000	93.580	61.3731
370.000000	93.523	60.7666
375.000000	93.469	60.2241
382.000000	93.402	59.5324
387.000000	93.349	59.0550
395.000000	93.262	58.3500
400.000000	93.221	57.9115
406.000000	93.178	57.3411
412.000000	93.134	56.8101
418.000000	93.095	56.3200
425.000000	93.060	55.7511
431.000000	93.032	55.2684
437.000000	93.001	54.7607
444.000000	92.964	54.1752
450.000000	92.929	53.6854
455.000000	92.902	53.2570
462.000000	92.869	52.6609
468.000000	92.840	52.2467
475.000000	92.803	51.8291
482.000000	92.770	51.4208
487.000000	92.751	51.1390
494.000000	92.729	50.7095
500.000000	92.712	50.3391
508.000000	92.689	49.8475
515.000000	92.665	49.4063
522.000000	92.639	49.0381
530.000000	92.611	48.7091
538.000000	92.577	48.3334
545.000000	92.554	47.9519
552.000000	92.538	47.6194
560.000000	92.517	47.3536
570.000000	92.494	47.0554
580.000000	92.477	46.7906
590.000000	92.461	46.5565
600.000000	92.443	46.3213
608.000000	92.431	46.1209
615.000000	92.428	45.9882
622.000000	92.431	45.8923
630.000000	92.438	45.7984
640.000000	92.439	45.7075
650.000000	92.437	45.6209
660.000000	92.448	45.5838
670.000000	92.467	45.5528
680.000000	92.482	45.5103
690.000000	92.508	45.4861
700.000000	92.545	45.4774
710.000000	92.583	45.4849
720.000000	92.625	45.4928
730.000000	92.675	45.5016
740.000000	92.733	45.5383
750.000000	92.798	45.5712
762.000000	92.884	45.6371
775.000000	92.988	45.7218
788.000000	93.085	45.7617
800.000000	93.186	45.7759
812.000000	93.304	45.6943
825.000000	93.450	45.5477
838.000000	93.607	45.3765
850.000000	93.750	45.2018
862.000000	93.893	44.9638
875.000000	94.056	44.5864
885.000000	94.190	44.2290
900.000000	94.390	43.5743
912.000000	94.544	42.9485
925.000000	94.711	42.2292
938.000000	94.875	41.4250
950.000000	95.013	40.5523
962.000000	95.141	39.5946
975.000000	95.270	38.5521
988.000000	95.384	37.4800
1000.000000	95.473	36.4580
1015.000000	95.569	35.1936
1030.000000	95.648	33.9878
1044.000000	95.707	32.8928
1060.000000	95.767	31.6667
1075.000000	95.816	30.5883
1090.000000	95.856	29.6095
1106.000000	95.897	28.6056
1120.000000	95.934	27.7384
1138.000000	95.979	26.7238
1150.000000	96.009	26.1003
1172.000000	96.063	24.9703
1180.000000	96.080	24.5645
1206.000000	96.135	23.3138
1220.000000	96.161	22.6678
1241.000000	96.203	21.7605
1250.000000	96.223	21.3890
1265.000000	96.259	20.7813
1280.000000	96.293	20.1859
1315.000000	96.366	18.9067
1320.000000	96.378	18.7328
1340.000000	96.421	18.0259
1360.000000	96.456	17.3552
1380.000000	96.493	16.7289
1400.000000	96.536	16.1340
1430.000000	96.606	15.2960
1450.000000	96.660	14.7674
1475.000000	96.728	14.1259
1500.000000	96.796	13.5083
1525.000000	96.874	12.9239
1550.000000	96.955	12.3596
1575.000000	97.039	11.8084
1600.000000	97.125	11.2715
1625.000000	97.216	10.7364
1650.000000	97.314	10.2278
1675.000000	97.411	9.7088
1700.000000	97.512	9.1859
1725.000000	97.621	8.6716
1750.000000	97.731	8.1651
1775.000000	97.845	7.6525
1800.000000	97.964	7.1145
1825.000000	98.086	6.5232
1850.000000	98.214	5.9202
1875.000000	98.343	5.3146
1900.000000	98.472	4.6829
1925.000000	98.607	3.9963
1950.000000	98.745	3.2707
1975.000000	98.883	2.5263
2000.000000	99.022	1.7351
2030.000000	99.189	0.7153
2060.000000	99.359	-0.3693
2090.000000	99.528	-1.5099
2120.000000	99.693	-2.7253
2140.000000	99.801	-3.5774
2180.000000	100.011	-5.3923
2200.000000	100.112	-6.3510
2240.000000	100.301	-8.3499
2270.000000	100.429	-9.9159
2300.000000	100.546	-11.5473
2330.000000	100.651	-13.2371
2360.000000	100.744	-14.9595
2400.000000	100.845	-17.3146
2430.000000	100.902	-19.1183
2470.000000	100.954	-21.5220
2500.000000	100.975	-23.3082
2540.000000	100.978	-25.6479
2580.000000	100.958	-27.9112
2620.000000	100.919	-30.0997
2650.000000	100.877	-31.6853
2690.000000	100.807	-33.7264
2720.000000	100.746	-35.1973
2760.000000	100.653	-37.0705
2800.000000	100.549	-38.8406
2850.000000	100.403	-40.9088
2900.000000	100.245	-42.7959
2950.000000	100.078	-44.4923
3000.000000	99.907	-46.0126
3040.000000	99.774	-47.1252
3070.000000	99.676	-47.9011
3110.000000	99.549	-48.8565
3150.000000	99.427	-49.7358
3200.000000	99.281	-50.7409
3250.000000	99.142	-51.6514
3300.000000	99.012	-52.5055
3350.000000	98.890	-53.3210
3400.000000	98.776	-54.1029
3450.000000	98.670	-54.8776
3500.000000	98.570	-55.6601
3550.000000	98.469	-56.4467
3600.000000	98.361	-57.2342
3650.000000	98.238	-58.0255
3700.000000	98.098	-58.7759
3750.000000	97.933	-59.4333
3820.000000	97.651	-60.0485
3870.000000	97.418	-60.1431
3950.000000	97.024	-59.4191
4000.000000	96.808	-58.3637
4060.000000	96.620	-56.5906
4120.000000	96.535	-54.4579
4180.000000	96.561	-52.2011
4250.000000	96.729	-49.6873
4310.000000	96.985	-47.8117
4370.000000	97.327	-46.3749
4440.000000	97.812	-45.4751
4500.000000	98.276	-45.5213
4550.000000	98.675	-46.2033
4620.000000	99.207	-48.1851
4680.000000	99.598	-50.7908
4750.000000	99.936	-54.7035
4820.000000	100.108	-59.2450
4870.000000	100.117	-62.6514
4940.000000	99.975	-67.3305
5000.000000	99.724	-71.0118
5080.000000	99.244	-75.1560
5150.000000	98.729	-77.9278
5220.000000	98.167	-79.8887
5300.000000	97.504	-81.1917
5380.000000	96.852	-81.6188
5450.000000	96.307	-81.3841
5520.000000	95.797	-80.6661
5600.000000	95.265	-79.3574
5700.000000	94.681	-77.1118
5800.000000	94.188	-74.3262
5900.000000	93.791	-71.0837
6000.000000	93.501	-67.4661
6080.000000	93.351	-64.3605
6150.000000	93.285	-61.5431
6220.000000	93.284	-58.6856
6300.000000	93.371	-55.4204
6400.000000	93.617	-51.5142
6500.000000	94.019	-48.1022
6600.000000	94.558	-45.5208
6700.000000	95.190	-44.1304
6800.000000	95.841	-44.2107
6900.000000	96.417	-45.7309
7000.000000	96.833	-48.2220
7100.000000	97.054	-50.8952
7200.000000	97.126	-53.0680
7300.000000	97.133	-54.4642
7400.000000	97.156	-55.1701
7500.000000	97.257	-55.4970
7620.000000	97.516	-56.0077
7750.000000	97.917	-57.5461
7880.000000	98.257	-60.7126
8000.000000	98.393	-65.1009
8120.000000	98.269	-70.2992
8250.000000	97.802	-75.7030
8380.000000	97.050	-79.7949
8500.000000	96.205	-81.9521
8620.000000	95.314	-82.5573
8750.000000	94.373	-81.7402
8850.000000	93.701	-80.2901
9000.000000	92.816	-77.1655
9120.000000	92.227	-74.1187
9250.000000	91.710	-70.4759
9380.000000	91.319	-66.6567
9500.000000	91.065	-63.1509
9620.000000	90.904	-59.7950
9750.000000	90.825	-56.4720
9880.000000	90.832	-53.6271
10000.000000	90.893	-51.5400
10150.000000	91.005	-49.8279
10300.000000	91.095	-49.2441
10440.000000	91.096	-49.6508
10600.000000	90.926	-50.9014
10750.000000	90.559	-52.2939
10900.000000	89.988	-53.2612
11060.000000	89.201	-53.2584
11200.000000	88.435	-52.1994
11380.000000	87.441	-49.7270
11500.000000	86.789	-47.7567
11720.000000	85.490	-44.0153
11800.000000	84.921	-42.3710
12060.000000	82.538	-31.8826
12200.000000	81.151	-20.7891
12410.000000	79.927	1.9667
12500.000000	79.961	12.5222
12650.000000	80.759	29.0586
12800.000000	82.183	42.7034
13150.000000	86.150	59.9360
13200.000000	86.674	60.8128
13400.000000	88.485	61.4068
13600.000000	89.801	59.2220
13800.000000	90.718	56.4631
14000.000000	91.423	54.2261
14300.000000	92.424	51.4624
14500.000000	93.125	48.6475
14750.000000	93.819	42.3685
15000.000000	93.906	33.5991
15250.000000	93.193	26.4149
15500.000000	92.190	24.0306
15750.000000	91.357	23.4664
16000.000000	90.305	26.4646
16250.000000	89.941	35.2695
16500.000000	90.570	40.1966
16750.000000	90.996	41.9204
17000.000000	91.688	44.4153
17250.000000	92.911	44.3509
17500.000000	94.187	38.0816
17750.000000	94.754	25.2155
18000.000000	94.162	10.9721
18250.000000	92.590	1.7949
18500.000000	90.639	-0.7366
18750.000000	88.854	1.3424
19000.000000	87.483	5.7185
19250.000000	86.538	10.8819
19500.000000	85.943	15.8362
19750.000000	85.638	19.7094
20000.000000	85.529	21.6509
