* Measurement data measured by REW V5.20.13
* Source: EXCL: Microphone(High Definition Audio Device), MICROPHONE (마스), R, volume: 1.000
* Format: 256k Log Swept Sine, 1 sweep at -12.0 dBFS with no timing reference
* Dated: 2023. 4. 11 오후 10:53:17
* REW Settings:
*  C-weighting compensation: Off
*  Target level: 75.0 dB
* Note: 
* Measurement: R_Foam
* Smoothing: 1/24 octave
* Frequency Step: 1/48 octave
* Start Frequency: 20.300 Hz
*
* Freq(Hz)	SPL(dB)	Phase(degrees)
20.299999	101.917	172.6017
20.600000	101.912	172.3785
20.900000	101.899	171.9860
21.200001	101.881	171.6272
21.400000	101.867	171.4016
21.799999	101.836	170.9492
22.000000	101.819	170.7117
22.400000	101.785	170.2129
22.700001	101.759	169.8187
23.000000	101.733	169.4057
23.299999	101.709	168.9741
23.600000	101.687	168.5252
24.000000	101.661	167.9044
24.299999	101.643	167.4300
24.700001	101.620	166.7998
25.000000	101.604	166.3396
25.400000	101.585	165.7519
25.799999	101.569	165.1958
26.200001	101.556	164.6654
26.500000	101.547	164.2802
26.900000	101.533	163.7818
27.200001	101.519	163.4211
27.600000	101.499	162.9619
28.000000	101.477	162.5284
28.500000	101.448	162.0126
29.000000	101.419	161.5034
29.500000	101.386	160.9849
30.000000	101.350	160.4586
30.400000	101.319	160.0403
30.700001	101.295	159.7311
31.100000	101.264	159.3228
31.500000	101.234	158.9122
32.000000	101.198	158.3840
32.500000	101.163	157.8349
33.000000	101.127	157.2789
33.500000	101.092	156.7396
34.000000	101.060	156.2347
34.500000	101.031	155.7605
35.000000	101.005	155.2981
35.500000	100.982	154.8314
36.000000	100.957	154.3617
36.500000	100.931	153.9010
37.000000	100.903	153.4550
37.500000	100.874	153.0168
38.200001	100.830	152.4019
38.700001	100.795	151.9654
39.500000	100.737	151.2858
40.000000	100.702	150.8671
40.599998	100.661	150.3645
41.200001	100.620	149.8652
41.799999	100.582	149.3693
42.500000	100.539	148.7880
43.099998	100.502	148.2975
43.700001	100.464	147.8313
44.400002	100.422	147.3105
45.000000	100.386	146.8671
45.500000	100.353	146.5080
46.200001	100.306	146.0444
46.799999	100.270	145.6659
47.500000	100.235	145.1825
48.200001	100.196	144.6500
48.700001	100.164	144.2764
49.400002	100.120	143.7893
50.000000	100.086	143.3791
50.799999	100.043	142.8163
51.500000	100.004	142.3414
52.200001	99.966	141.8943
53.000000	99.926	141.3850
53.799999	99.880	140.8914
54.500000	99.838	140.4998
55.200001	99.799	140.1239
56.000000	99.756	139.6767
57.000000	99.700	139.0941
58.000000	99.639	138.4987
59.000000	99.573	137.9176
60.000000	99.509	137.3737
60.799999	99.465	136.9371
61.500000	99.431	136.5361
62.200001	99.395	136.1267
63.000000	99.353	135.6739
64.000000	99.299	135.1445
65.000000	99.244	134.6607
66.000000	99.194	134.2146
67.000000	99.151	133.7323
68.000000	99.102	133.1867
69.000000	99.045	132.6330
70.000000	98.985	132.1063
71.000000	98.928	131.6161
72.000000	98.878	131.1530
73.000000	98.834	130.6926
74.000000	98.791	130.2368
75.000000	98.746	129.7970
76.199997	98.690	129.2939
77.500000	98.626	128.7321
78.800003	98.553	128.1858
80.000000	98.491	127.7206
81.199997	98.439	127.2231
82.500000	98.387	126.6414
83.800003	98.332	126.0623
85.000000	98.280	125.5629
86.199997	98.229	125.1028
87.500000	98.175	124.6375
88.500000	98.138	124.2797
90.000000	98.083	123.6844
91.199997	98.032	123.1986
92.500000	97.978	122.7201
93.800003	97.928	122.2531
95.000000	97.883	121.8215
96.199997	97.839	121.3893
97.500000	97.789	120.9229
98.800003	97.742	120.4575
100.000000	97.697	120.0248
101.500000	97.643	119.5017
103.000000	97.591	118.9896
104.400002	97.544	118.4985
106.000000	97.487	117.9174
107.500000	97.433	117.4137
109.000000	97.390	116.9410
110.599998	97.353	116.4121
112.000000	97.319	115.9303
113.800003	97.267	115.3410
115.000000	97.230	114.9805
117.199997	97.166	114.3237
118.000000	97.144	114.0632
120.599998	97.068	113.2053
122.000000	97.027	112.7607
124.099998	96.969	112.1459
125.000000	96.948	111.8854
126.500000	96.913	111.4422
128.000000	96.881	111.0018
131.500000	96.812	109.9338
132.000000	96.800	109.7823
134.000000	96.747	109.2139
136.000000	96.696	108.6698
138.000000	96.648	108.0832
140.000000	96.603	107.4922
143.000000	96.543	106.6069
145.000000	96.504	106.0642
147.500000	96.458	105.3537
150.000000	96.400	104.5894
152.500000	96.340	103.8782
155.000000	96.293	103.2527
157.500000	96.254	102.6390
160.000000	96.207	101.9607
162.500000	96.155	101.2924
165.000000	96.113	100.6128
167.500000	96.070	99.8889
170.000000	96.019	99.1934
172.500000	95.975	98.5638
175.000000	95.940	97.9298
177.500000	95.902	97.3129
180.000000	95.861	96.7222
182.500000	95.818	96.0935
185.000000	95.773	95.4466
187.500000	95.735	94.8241
190.000000	95.705	94.2228
192.500000	95.674	93.6374
195.000000	95.636	93.0721
197.500000	95.599	92.4926
200.000000	95.560	91.8654
203.000000	95.513	91.1217
206.000000	95.472	90.4164
209.000000	95.430	89.7299
212.000000	95.393	89.0429
214.000000	95.372	88.5640
218.000000	95.329	87.6407
220.000000	95.305	87.1927
224.000000	95.252	86.3041
227.000000	95.219	85.6491
230.000000	95.182	84.9706
233.000000	95.139	84.3129
236.000000	95.098	83.6737
240.000000	95.039	82.8616
243.000000	95.000	82.2683
247.000000	94.953	81.4509
250.000000	94.916	80.8704
254.000000	94.863	80.1068
258.000000	94.807	79.3067
262.000000	94.759	78.4946
265.000000	94.727	77.9124
269.000000	94.683	77.1772
272.000000	94.651	76.6300
276.000000	94.612	75.8830
280.000000	94.570	75.1346
285.000000	94.514	74.2258
290.000000	94.454	73.4208
295.000000	94.407	72.6150
300.000000	94.367	71.7915
304.000000	94.331	71.1640
307.000000	94.297	70.7040
311.000000	94.247	70.0820
315.000000	94.208	69.4383
320.000000	94.165	68.6600
325.000000	94.127	67.9407
330.000000	94.081	67.1972
335.000000	94.033	66.4813
340.000000	93.995	65.8146
345.000000	93.956	65.1653
350.000000	93.906	64.5802
355.000000	93.855	63.9985
360.000000	93.815	63.3743
365.000000	93.779	62.7327
370.000000	93.735	62.1278
375.000000	93.690	61.5681
382.000000	93.630	60.8003
387.000000	93.584	60.2800
395.000000	93.513	59.4715
400.000000	93.470	58.9528
406.000000	93.419	58.3873
412.000000	93.367	57.8763
418.000000	93.323	57.3343
425.000000	93.277	56.6800
431.000000	93.240	56.1779
437.000000	93.206	55.6652
444.000000	93.168	55.0714
450.000000	93.132	54.6036
455.000000	93.097	54.2382
462.000000	93.049	53.7827
468.000000	93.012	53.4093
475.000000	92.974	52.9543
482.000000	92.940	52.4967
487.000000	92.917	52.1930
494.000000	92.888	51.8073
500.000000	92.864	51.4937
508.000000	92.826	51.0499
515.000000	92.787	50.7079
522.000000	92.758	50.4416
530.000000	92.734	50.1623
538.000000	92.709	49.8771
545.000000	92.690	49.6420
552.000000	92.672	49.4143
560.000000	92.656	49.1680
570.000000	92.653	48.8794
580.000000	92.646	48.6041
590.000000	92.629	48.3818
600.000000	92.611	48.2465
608.000000	92.603	48.1757
615.000000	92.599	48.1030
622.000000	92.598	48.0074
630.000000	92.607	47.8943
640.000000	92.624	47.7850
650.000000	92.638	47.7562
660.000000	92.658	47.7545
670.000000	92.673	47.6965
680.000000	92.693	47.6570
690.000000	92.720	47.6488
700.000000	92.746	47.6867
710.000000	92.791	47.7612
720.000000	92.843	47.7927
730.000000	92.895	47.7897
740.000000	92.947	47.8017
750.000000	93.002	47.8837
762.000000	93.087	48.0445
775.000000	93.190	48.0817
788.000000	93.305	48.1034
800.000000	93.421	48.1093
812.000000	93.544	48.0522
825.000000	93.676	47.9939
838.000000	93.817	47.8847
850.000000	93.963	47.6970
862.000000	94.117	47.4493
875.000000	94.289	47.1213
885.000000	94.418	46.7871
900.000000	94.615	46.1634
912.000000	94.777	45.5642
925.000000	94.943	44.8102
938.000000	95.103	44.0109
950.000000	95.242	43.2150
962.000000	95.366	42.3321
975.000000	95.489	41.3123
988.000000	95.598	40.2836
1000.000000	95.687	39.3387
1015.000000	95.786	38.1622
1030.000000	95.867	36.9893
1044.000000	95.925	35.9128
1060.000000	95.980	34.7797
1075.000000	96.023	33.8069
1090.000000	96.062	32.8734
1106.000000	96.104	31.9009
1120.000000	96.142	31.0740
1138.000000	96.196	30.0694
1150.000000	96.230	29.4608
1172.000000	96.281	28.4404
1180.000000	96.297	28.0790
1206.000000	96.356	26.9540
1220.000000	96.390	26.3804
1241.000000	96.437	25.5438
1250.000000	96.458	25.2079
1265.000000	96.495	24.6779
1280.000000	96.530	24.1494
1315.000000	96.618	22.9321
1320.000000	96.630	22.7688
1340.000000	96.673	22.1460
1360.000000	96.712	21.5598
1380.000000	96.758	20.9829
1400.000000	96.811	20.4089
1430.000000	96.897	19.6803
1450.000000	96.953	19.2556
1475.000000	97.030	18.6843
1500.000000	97.115	18.1086
1525.000000	97.196	17.5658
1550.000000	97.280	17.0479
1575.000000	97.367	16.5653
1600.000000	97.461	16.1040
1625.000000	97.560	15.6543
1650.000000	97.666	15.1870
1675.000000	97.775	14.7086
1700.000000	97.883	14.2412
1725.000000	97.994	13.7764
1750.000000	98.112	13.2981
1775.000000	98.234	12.8282
1800.000000	98.359	12.3384
1825.000000	98.488	11.8034
1850.000000	98.620	11.2406
1875.000000	98.755	10.6495
1900.000000	98.893	10.0306
1925.000000	99.036	9.3886
1950.000000	99.182	8.7034
1975.000000	99.326	7.9841
2000.000000	99.469	7.2287
2030.000000	99.644	6.2639
2060.000000	99.820	5.2172
2090.000000	99.994	4.0905
2120.000000	100.164	2.9017
2140.000000	100.275	2.0682
2180.000000	100.491	0.2874
2200.000000	100.593	-0.6475
2240.000000	100.784	-2.6061
2270.000000	100.914	-4.1527
2300.000000	101.033	-5.7564
2330.000000	101.138	-7.4059
2360.000000	101.228	-9.0977
2400.000000	101.326	-11.3983
2430.000000	101.382	-13.1336
2470.000000	101.433	-15.4422
2500.000000	101.454	-17.1585
2540.000000	101.458	-19.4094
2580.000000	101.439	-21.5947
2620.000000	101.401	-23.6880
2650.000000	101.361	-25.1952
2690.000000	101.293	-27.1296
2720.000000	101.233	-28.5194
2760.000000	101.141	-30.2778
2800.000000	101.039	-31.9188
2850.000000	100.900	-33.8063
2900.000000	100.752	-35.5204
2950.000000	100.602	-37.0642
3000.000000	100.450	-38.4343
3040.000000	100.331	-39.4242
3070.000000	100.244	-40.1064
3110.000000	100.133	-40.9458
3150.000000	100.028	-41.7181
3200.000000	99.903	-42.5967
3250.000000	99.787	-43.4045
3300.000000	99.679	-44.1707
3350.000000	99.580	-44.8976
3400.000000	99.492	-45.6148
3450.000000	99.411	-46.3372
3500.000000	99.336	-47.0817
3550.000000	99.258	-47.8595
3600.000000	99.172	-48.6582
3650.000000	99.069	-49.4735
3700.000000	98.945	-50.2638
3750.000000	98.792	-50.9709
3820.000000	98.523	-51.6580
3870.000000	98.294	-51.7756
3950.000000	97.907	-51.0653
4000.000000	97.688	-50.0108
4060.000000	97.496	-48.1920
4120.000000	97.409	-45.9794
4180.000000	97.440	-43.6291
4250.000000	97.622	-40.9617
4310.000000	97.892	-38.9626
4370.000000	98.251	-37.4438
4440.000000	98.762	-36.4764
4500.000000	99.249	-36.4986
4550.000000	99.664	-37.1953
4620.000000	100.213	-39.2274
4680.000000	100.613	-41.8804
4750.000000	100.951	-45.8415
4820.000000	101.114	-50.3989
4870.000000	101.115	-53.7734
4940.000000	100.958	-58.3251
5000.000000	100.696	-61.8213
5080.000000	100.215	-65.6409
5150.000000	99.715	-68.1108
5220.000000	99.180	-69.7801
5300.000000	98.561	-70.7791
5380.000000	97.965	-70.9471
5450.000000	97.479	-70.5275
5520.000000	97.032	-69.6678
5600.000000	96.576	-68.2533
5700.000000	96.099	-65.9566
5800.000000	95.731	-63.2214
5900.000000	95.477	-60.1943
6000.000000	95.342	-57.0077
6080.000000	95.322	-54.4369
6150.000000	95.374	-52.2638
6220.000000	95.491	-50.2464
6300.000000	95.703	-48.2284
6400.000000	96.070	-46.3729
6500.000000	96.514	-45.5818
6600.000000	96.963	-46.1306
6700.000000	97.310	-48.0520
6800.000000	97.464	-50.8947
6900.000000	97.396	-53.8035
7000.000000	97.147	-55.8923
7100.000000	96.808	-56.6938
7200.000000	96.488	-56.2937
7300.000000	96.256	-55.0656
7400.000000	96.142	-53.4373
7500.000000	96.155	-51.7868
7620.000000	96.322	-50.2337
7750.000000	96.615	-49.5882
7880.000000	96.847	-50.2680
8000.000000	96.929	-51.9115
8120.000000	96.844	-54.0551
8250.000000	96.553	-56.2486
8380.000000	96.094	-57.6959
8500.000000	95.579	-58.0901
8620.000000	95.030	-57.5386
8750.000000	94.445	-55.9874
8850.000000	94.030	-54.2328
9000.000000	93.500	-50.9130
9120.000000	93.167	-47.8399
9250.000000	92.906	-44.2643
9380.000000	92.758	-40.6044
9500.000000	92.721	-37.3081
9620.000000	92.775	-34.2200
9750.000000	92.926	-31.2597
9880.000000	93.162	-28.8802
10000.000000	93.433	-27.3588
10150.000000	93.795	-26.5443
10300.000000	94.116	-27.0553
10440.000000	94.307	-28.6473
10600.000000	94.319	-31.3359
10750.000000	94.103	-34.0353
10900.000000	93.693	-36.2836
11060.000000	93.112	-37.8336
11200.000000	92.550	-38.5563
11380.000000	91.792	-39.2354
11500.000000	91.220	-39.8630
11720.000000	89.784	-40.6268
11800.000000	89.084	-40.0167
12060.000000	86.354	-30.0046
12200.000000	85.082	-18.8872
12410.000000	84.511	1.2736
12500.000000	84.855	9.3130
12650.000000	85.915	19.6980
12800.000000	87.116	25.4299
13150.000000	88.903	26.4375
13200.000000	89.025	26.0778
13400.000000	89.314	24.8322
13600.000000	89.438	23.9078
13800.000000	89.473	22.6743
14000.000000	89.347	20.8340
14300.000000	88.685	18.1806
14500.000000	87.956	17.6427
14750.000000	86.850	18.9625
15000.000000	85.626	22.7932
15250.000000	84.427	29.8934
15500.000000	83.740	39.6213
15750.000000	83.564	47.3929
16000.000000	83.175	55.9682
16250.000000	83.477	68.5472
16500.000000	84.495	76.2164
16750.000000	85.123	80.5624
17000.000000	85.856	86.1187
17250.000000	87.013	90.8272
17500.000000	88.461	92.4564
17750.000000	89.857	89.5981
18000.000000	90.799	82.3084
18250.000000	91.043	72.9313
18500.000000	90.644	64.8054
18750.000000	89.893	59.6166
19000.000000	89.101	56.8470
19250.000000	88.408	55.0493
19500.000000	87.779	53.0042
19750.000000	87.181	50.4644
20000.000000	86.780	48.6911
