* Measurement data measured by REW V5.20.13
* Source: EXCL: Microphone(High Definition Audio Device), MICROPHONE (마스), R, volume: 1.000
* Format: 256k Log Swept Sine, 1 sweep at -12.0 dBFS with no timing reference
* Dated: 2023. 4. 11 오후 10:49:15
* REW Settings:
*  C-weighting compensation: Off
*  Target level: 75.0 dB
* Note: 
* Measurement: L
* Smoothing: 1/24 octave
* Frequency Step: 1/48 octave
* Start Frequency: 20.300 Hz
*
* Freq(Hz)	SPL(dB)	Phase(degrees)
20.299999	101.051	-5.6583
20.600000	101.042	-5.8698
20.900000	101.023	-6.2391
21.200001	101.000	-6.5700
21.400000	100.984	-6.7772
21.799999	100.952	-7.1969
22.000000	100.935	-7.4222
22.400000	100.903	-7.9062
22.700001	100.879	-8.2965
23.000000	100.856	-8.7093
23.299999	100.835	-9.1417
23.600000	100.817	-9.5909
24.000000	100.797	-10.2096
24.299999	100.785	-10.6804
24.700001	100.771	-11.3038
25.000000	100.763	-11.7583
25.400000	100.754	-12.3371
25.799999	100.748	-12.8811
26.200001	100.745	-13.3928
26.500000	100.743	-13.7589
26.900000	100.737	-14.2266
27.200001	100.730	-14.5634
27.600000	100.718	-14.9945
28.000000	100.701	-15.4054
28.500000	100.675	-15.8928
29.000000	100.643	-16.3571
29.500000	100.608	-16.8084
30.000000	100.570	-17.2605
30.400000	100.541	-17.6312
30.700001	100.519	-17.9175
31.100000	100.490	-18.3137
31.500000	100.462	-18.7283
32.000000	100.427	-19.2716
32.500000	100.392	-19.8320
33.000000	100.359	-20.3892
33.500000	100.330	-20.9274
34.000000	100.307	-21.4441
34.500000	100.286	-21.9445
35.000000	100.266	-22.4259
35.500000	100.247	-22.8773
36.000000	100.229	-23.2969
36.500000	100.214	-23.7032
37.000000	100.198	-24.1212
37.500000	100.178	-24.5537
38.200001	100.135	-25.1371
38.700001	100.101	-25.5147
39.500000	100.052	-26.1119
40.000000	100.024	-26.5315
40.599998	99.986	-27.0794
41.200001	99.941	-27.6220
41.799999	99.897	-28.1261
42.500000	99.853	-28.6854
43.099998	99.822	-29.1635
43.700001	99.791	-29.6295
44.400002	99.757	-30.1374
45.000000	99.731	-30.5521
45.500000	99.709	-30.8999
46.200001	99.675	-31.3924
46.799999	99.641	-31.8008
47.500000	99.599	-32.2444
48.200001	99.561	-32.6706
48.700001	99.536	-32.9831
49.400002	99.501	-33.4430
50.000000	99.471	-33.8461
50.799999	99.431	-34.3741
51.500000	99.400	-34.8362
52.200001	99.369	-35.3099
53.000000	99.331	-35.8352
53.799999	99.293	-36.3194
54.500000	99.263	-36.7406
55.200001	99.232	-37.1805
56.000000	99.192	-37.6908
57.000000	99.137	-38.3159
58.000000	99.079	-38.9017
59.000000	99.024	-39.4691
60.000000	98.968	-40.0499
60.799999	98.923	-40.4829
61.500000	98.888	-40.8410
62.200001	98.858	-41.2105
63.000000	98.824	-41.6546
64.000000	98.777	-42.2131
65.000000	98.727	-42.7640
66.000000	98.674	-43.2909
67.000000	98.622	-43.7704
68.000000	98.577	-44.2412
69.000000	98.531	-44.7262
70.000000	98.484	-45.2082
71.000000	98.434	-45.6729
72.000000	98.384	-46.1097
73.000000	98.337	-46.5350
74.000000	98.294	-46.9794
75.000000	98.249	-47.4770
76.199997	98.183	-48.0586
77.500000	98.118	-48.5991
78.800003	98.063	-49.1413
80.000000	98.016	-49.6700
81.199997	97.962	-50.1890
82.500000	97.905	-50.6878
83.800003	97.850	-51.2140
85.000000	97.793	-51.6906
86.199997	97.737	-52.1690
87.500000	97.670	-52.6688
88.500000	97.625	-52.9648
90.000000	97.590	-53.5047
91.199997	97.558	-54.0417
92.500000	97.516	-54.5944
93.800003	97.471	-55.0905
95.000000	97.430	-55.5089
96.199997	97.389	-55.9288
97.500000	97.342	-56.3746
98.800003	97.297	-56.8154
100.000000	97.260	-57.2319
101.500000	97.213	-57.7786
103.000000	97.162	-58.3071
104.400002	97.115	-58.7811
106.000000	97.065	-59.3400
107.500000	97.017	-59.8746
109.000000	96.969	-60.3473
110.599998	96.924	-60.7893
112.000000	96.886	-61.1825
113.800003	96.828	-61.7374
115.000000	96.785	-62.1531
117.199997	96.718	-63.0347
118.000000	96.696	-63.4012
120.599998	96.602	-64.2982
122.000000	96.576	-64.4610
124.099998	96.563	-64.8024
125.000000	96.552	-65.0222
126.500000	96.522	-65.4519
128.000000	96.489	-65.9309
131.500000	96.414	-67.1798
132.000000	96.403	-67.3423
134.000000	96.361	-67.9447
136.000000	96.318	-68.5257
138.000000	96.275	-69.0954
140.000000	96.236	-69.6601
143.000000	96.181	-70.5288
145.000000	96.138	-71.1014
147.500000	96.078	-71.8125
150.000000	96.015	-72.5146
152.500000	95.961	-73.1805
155.000000	95.916	-73.8736
157.500000	95.865	-74.5475
160.000000	95.821	-75.2302
162.500000	95.785	-75.9868
165.000000	95.745	-76.6964
167.500000	95.701	-77.3195
170.000000	95.656	-77.9501
172.500000	95.610	-78.6376
175.000000	95.561	-79.2930
177.500000	95.511	-79.8881
180.000000	95.461	-80.5067
182.500000	95.414	-81.1757
185.000000	95.370	-81.8228
187.500000	95.328	-82.3828
190.000000	95.293	-82.9321
192.500000	95.259	-83.5315
195.000000	95.226	-84.1422
197.500000	95.193	-84.7408
200.000000	95.155	-85.3154
203.000000	95.109	-85.9958
206.000000	95.062	-86.6654
209.000000	95.015	-87.2844
212.000000	94.972	-87.8614
214.000000	94.946	-88.2643
218.000000	94.900	-89.1356
220.000000	94.877	-89.5738
224.000000	94.827	-90.3688
227.000000	94.797	-90.9452
230.000000	94.778	-91.5647
233.000000	94.755	-92.1991
236.000000	94.718	-92.8265
240.000000	94.668	-93.6737
243.000000	94.639	-94.3170
247.000000	94.599	-95.1716
250.000000	94.565	-95.8221
254.000000	94.522	-96.6750
258.000000	94.468	-97.5096
262.000000	94.415	-98.3190
265.000000	94.379	-98.9098
269.000000	94.331	-99.6758
272.000000	94.302	-100.2330
276.000000	94.267	-100.9839
280.000000	94.229	-101.7421
285.000000	94.171	-102.6455
290.000000	94.108	-103.5746
295.000000	94.051	-104.4730
300.000000	94.002	-105.3073
304.000000	93.966	-105.9417
307.000000	93.933	-106.4187
311.000000	93.886	-107.0511
315.000000	93.842	-107.6465
320.000000	93.792	-108.3714
325.000000	93.741	-109.0333
330.000000	93.682	-109.7288
335.000000	93.629	-110.5049
340.000000	93.581	-111.1834
345.000000	93.533	-111.8017
350.000000	93.485	-112.4497
355.000000	93.434	-113.0482
360.000000	93.372	-113.5376
365.000000	93.315	-113.9850
370.000000	93.267	-114.4500
375.000000	93.228	-114.9100
382.000000	93.184	-115.4270
387.000000	93.161	-115.7457
395.000000	93.147	-116.4661
400.000000	93.151	-117.0356
406.000000	93.151	-117.8013
412.000000	93.129	-118.5985
418.000000	93.096	-119.3619
425.000000	93.051	-120.1649
431.000000	93.008	-120.7873
437.000000	92.963	-121.4025
444.000000	92.913	-122.0934
450.000000	92.874	-122.5757
455.000000	92.845	-122.9450
462.000000	92.802	-123.4628
468.000000	92.762	-123.9195
475.000000	92.726	-124.4421
482.000000	92.697	-124.9033
487.000000	92.671	-125.2247
494.000000	92.632	-125.6702
500.000000	92.602	-126.0083
508.000000	92.568	-126.4896
515.000000	92.547	-126.8800
522.000000	92.527	-127.2071
530.000000	92.504	-127.5953
538.000000	92.478	-128.0210
545.000000	92.447	-128.3500
552.000000	92.418	-128.6316
560.000000	92.399	-128.8763
570.000000	92.377	-129.1838
580.000000	92.356	-129.5757
590.000000	92.340	-129.8188
600.000000	92.330	-129.9449
608.000000	92.329	-130.0416
615.000000	92.332	-130.1387
622.000000	92.333	-130.2411
630.000000	92.325	-130.3429
640.000000	92.322	-130.4294
650.000000	92.335	-130.4730
660.000000	92.356	-130.5424
670.000000	92.382	-130.5935
680.000000	92.410	-130.6430
690.000000	92.438	-130.6707
700.000000	92.480	-130.6165
710.000000	92.539	-130.5888
720.000000	92.599	-130.5489
730.000000	92.658	-130.5234
740.000000	92.723	-130.4990
750.000000	92.796	-130.4621
762.000000	92.891	-130.4677
775.000000	93.012	-130.4637
788.000000	93.138	-130.4335
800.000000	93.261	-130.5166
812.000000	93.400	-130.6759
825.000000	93.567	-130.8476
838.000000	93.729	-131.1147
850.000000	93.887	-131.4346
862.000000	94.049	-131.8250
875.000000	94.221	-132.3478
885.000000	94.354	-132.8548
900.000000	94.551	-133.7175
912.000000	94.702	-134.5174
925.000000	94.858	-135.4837
938.000000	95.005	-136.5360
950.000000	95.133	-137.5538
962.000000	95.246	-138.5787
975.000000	95.352	-139.6908
988.000000	95.444	-140.7995
1000.000000	95.519	-141.8107
1015.000000	95.594	-143.0617
1030.000000	95.654	-144.2849
1044.000000	95.704	-145.3555
1060.000000	95.752	-146.4968
1075.000000	95.787	-147.5098
1090.000000	95.819	-148.4585
1106.000000	95.857	-149.3978
1120.000000	95.894	-150.1857
1138.000000	95.942	-151.1606
1150.000000	95.971	-151.7912
1172.000000	96.026	-152.8995
1180.000000	96.045	-153.2977
1206.000000	96.110	-154.5394
1220.000000	96.146	-155.1795
1241.000000	96.197	-156.1237
1250.000000	96.219	-156.5121
1265.000000	96.253	-157.1415
1280.000000	96.288	-157.7467
1315.000000	96.370	-159.0461
1320.000000	96.380	-159.2238
1340.000000	96.422	-159.9182
1360.000000	96.464	-160.6038
1380.000000	96.510	-161.2631
1400.000000	96.562	-161.8931
1430.000000	96.640	-162.7775
1450.000000	96.689	-163.3362
1475.000000	96.758	-164.0280
1500.000000	96.835	-164.6499
1525.000000	96.914	-165.2416
1550.000000	96.997	-165.8405
1575.000000	97.083	-166.4084
1600.000000	97.175	-166.9486
1625.000000	97.272	-167.4754
1650.000000	97.369	-168.0059
1675.000000	97.472	-168.5372
1700.000000	97.581	-169.0493
1725.000000	97.694	-169.5865
1750.000000	97.810	-170.1486
1775.000000	97.930	-170.7083
1800.000000	98.049	-171.2816
1825.000000	98.175	-171.8883
1850.000000	98.310	-172.5004
1875.000000	98.451	-173.1375
1900.000000	98.592	-173.8203
1925.000000	98.732	-174.5569
1950.000000	98.874	-175.3367
1975.000000	99.020	-176.1457
2000.000000	99.166	-176.9829
2030.000000	99.343	-178.0576
2060.000000	99.518	-179.2089
2090.000000	99.692	179.5724
2120.000000	99.862	178.2678
2140.000000	99.973	177.3525
2180.000000	100.189	175.4330
2200.000000	100.291	174.4256
2240.000000	100.480	172.3044
2270.000000	100.610	170.6375
2300.000000	100.728	168.9112
2330.000000	100.830	167.1351
2360.000000	100.918	165.3143
2400.000000	101.015	162.8520
2430.000000	101.072	161.0029
2470.000000	101.123	158.5174
2500.000000	101.143	156.6422
2540.000000	101.147	154.1644
2580.000000	101.125	151.7425
2620.000000	101.078	149.4000
2650.000000	101.028	147.6981
2690.000000	100.944	145.5227
2720.000000	100.868	143.9655
2760.000000	100.754	141.9717
2800.000000	100.629	140.1060
2850.000000	100.460	137.9786
2900.000000	100.282	136.0622
2950.000000	100.100	134.3297
3000.000000	99.919	132.7732
3040.000000	99.777	131.6418
3070.000000	99.673	130.8549
3110.000000	99.540	129.8806
3150.000000	99.410	128.9806
3200.000000	99.256	127.9238
3250.000000	99.109	126.9204
3300.000000	98.968	125.9732
3350.000000	98.831	125.0704
3400.000000	98.700	124.1773
3450.000000	98.571	123.2667
3500.000000	98.439	122.3641
3550.000000	98.297	121.4803
3600.000000	98.139	120.6299
3650.000000	97.955	119.8616
3700.000000	97.742	119.2375
3750.000000	97.502	118.8608
3820.000000	97.134	118.9843
3870.000000	96.871	119.6518
3950.000000	96.525	121.6782
4000.000000	96.397	123.3793
4060.000000	96.350	125.6043
4120.000000	96.413	127.7898
4180.000000	96.575	129.7778
4250.000000	96.871	131.7219
4310.000000	97.200	132.9588
4370.000000	97.581	133.6753
4440.000000	98.074	133.7390
4500.000000	98.519	133.0386
4550.000000	98.886	131.8792
4620.000000	99.362	129.3567
4680.000000	99.699	126.4021
4750.000000	99.970	122.1837
4820.000000	100.071	117.4479
4870.000000	100.026	113.9871
4940.000000	99.809	109.3589
5000.000000	99.501	105.8324
5080.000000	98.961	102.0221
5150.000000	98.417	99.6090
5220.000000	97.847	98.0251
5300.000000	97.202	97.1122
5380.000000	96.592	97.0065
5450.000000	96.097	97.4348
5520.000000	95.645	98.2542
5600.000000	95.183	99.6009
5700.000000	94.696	101.7800
5800.000000	94.326	104.3508
5900.000000	94.078	107.1111
6000.000000	93.950	109.8867
6080.000000	93.935	111.9671
6150.000000	93.979	113.5768
6220.000000	94.066	114.9245
6300.000000	94.202	116.0742
6400.000000	94.393	116.8359
6500.000000	94.563	116.8586
6600.000000	94.664	116.3417
6700.000000	94.675	115.6016
6800.000000	94.608	114.9695
6900.000000	94.502	114.6476
7000.000000	94.393	114.7539
7100.000000	94.298	115.2490
7200.000000	94.236	115.9894
7300.000000	94.211	116.8793
7400.000000	94.228	117.8801
7500.000000	94.306	118.9315
7620.000000	94.513	119.9600
7750.000000	94.855	120.1963
7880.000000	95.148	118.9878
8000.000000	95.262	116.6707
8120.000000	95.175	113.8204
8250.000000	94.853	110.9651
8380.000000	94.346	109.0033
8500.000000	93.788	108.2563
8620.000000	93.209	108.5325
8750.000000	92.602	109.7926
8850.000000	92.175	111.2762
9000.000000	91.631	114.0941
9120.000000	91.286	116.7008
9250.000000	91.007	119.6888
9380.000000	90.830	122.6450
9500.000000	90.750	125.1947
9620.000000	90.740	127.4442
9750.000000	90.793	129.4063
9880.000000	90.891	130.7501
10000.000000	90.997	131.3378
10150.000000	91.098	131.0888
10300.000000	91.087	129.8184
10440.000000	90.913	127.9969
10600.000000	90.466	125.9227
10750.000000	89.845	124.9105
10900.000000	89.150	124.9778
11060.000000	88.385	125.8549
11200.000000	87.701	127.2480
11380.000000	86.855	129.6565
11500.000000	86.324	131.2953
11720.000000	85.279	133.5310
11800.000000	84.802	134.2097
12060.000000	82.592	139.8071
12200.000000	81.082	147.6982
12410.000000	79.192	166.9055
12500.000000	78.821	176.7958
12650.000000	78.990	-166.6947
12800.000000	79.952	-152.3053
13150.000000	83.251	-132.1488
13200.000000	83.744	-130.6307
13400.000000	85.605	-128.1017
13600.000000	86.838	-131.0193
13800.000000	87.302	-134.7182
14000.000000	87.467	-135.8015
14300.000000	87.902	-135.1884
14500.000000	88.233	-135.6330
14750.000000	88.435	-137.1352
15000.000000	88.415	-138.2077
15250.000000	88.373	-138.8857
15500.000000	88.261	-140.1912
15750.000000	87.899	-141.1010
16000.000000	87.292	-139.5645
16250.000000	86.781	-134.3518
16500.000000	86.856	-126.9482
16750.000000	87.676	-120.1788
17000.000000	89.131	-116.3951
17250.000000	90.912	-118.2712
17500.000000	92.336	-128.3395
17750.000000	92.635	-144.6100
18000.000000	91.584	-159.1077
18250.000000	89.672	-166.1069
18500.000000	87.643	-166.3547
18750.000000	85.985	-162.8414
19000.000000	84.824	-157.8309
19250.000000	84.092	-152.7115
19500.000000	83.663	-148.4096
19750.000000	83.454	-145.5574
20000.000000	83.380	-144.3236
