* Measurement data measured by REW V5.20.13
* Source: EXCL: Microphone(High Definition Audio Device), MICROPHONE (마스), R, volume: 1.000
* Format: 256k Log Swept Sine, 1 sweep at -12.0 dBFS with no timing reference
* Dated: 2023. 4. 11 오후 10:55:14
* REW Settings:
*  C-weighting compensation: Off
*  Target level: 75.0 dB
* Note: 
* Measurement: L_Foam
* Smoothing: 1/24 octave
* Frequency Step: 1/48 octave
* Start Frequency: 20.300 Hz
*
* Freq(Hz)	SPL(dB)	Phase(degrees)
20.299999	100.867	-3.1270
20.600000	100.861	-3.3181
20.900000	100.846	-3.6561
21.200001	100.831	-3.9739
21.400000	100.821	-4.1871
21.799999	100.799	-4.6526
22.000000	100.786	-4.9139
22.400000	100.756	-5.4812
22.700001	100.729	-5.9270
23.000000	100.700	-6.3756
23.299999	100.673	-6.8196
23.600000	100.650	-7.2592
24.000000	100.627	-7.8453
24.299999	100.617	-8.2922
24.700001	100.609	-8.9014
25.000000	100.606	-9.3640
25.400000	100.602	-9.9754
25.799999	100.599	-10.5624
26.200001	100.595	-11.1111
26.500000	100.592	-11.4946
26.900000	100.586	-11.9724
27.200001	100.580	-12.3114
27.600000	100.569	-12.7465
28.000000	100.556	-13.1697
28.500000	100.533	-13.6838
29.000000	100.502	-14.1717
29.500000	100.467	-14.6290
30.000000	100.434	-15.0750
30.400000	100.409	-15.4490
30.700001	100.391	-15.7503
31.100000	100.366	-16.1816
31.500000	100.337	-16.6343
32.000000	100.297	-17.1981
32.500000	100.258	-17.7329
33.000000	100.227	-18.2458
33.500000	100.207	-18.7663
34.000000	100.193	-19.3121
34.500000	100.176	-19.8652
35.000000	100.155	-20.3890
35.500000	100.133	-20.8598
36.000000	100.114	-21.2889
36.500000	100.098	-21.7057
37.000000	100.080	-22.1282
37.500000	100.057	-22.5475
38.200001	100.016	-23.0985
38.700001	99.985	-23.4727
39.500000	99.934	-24.0976
40.000000	99.900	-24.5110
40.599998	99.857	-25.0077
41.200001	99.814	-25.4947
41.799999	99.776	-25.9817
42.500000	99.736	-26.5512
43.099998	99.708	-27.0333
43.700001	99.684	-27.5195
44.400002	99.656	-28.0947
45.000000	99.628	-28.5623
45.500000	99.604	-28.9152
46.200001	99.574	-29.3776
46.799999	99.551	-29.7821
47.500000	99.521	-30.2630
48.200001	99.489	-30.7308
48.700001	99.466	-31.0668
49.400002	99.433	-31.5574
50.000000	99.399	-31.9735
50.799999	99.353	-32.4771
51.500000	99.320	-32.8960
52.200001	99.291	-33.3331
53.000000	99.258	-33.8414
53.799999	99.225	-34.3482
54.500000	99.195	-34.8002
55.200001	99.161	-35.2441
56.000000	99.124	-35.7416
57.000000	99.072	-36.3874
58.000000	99.007	-36.9707
59.000000	98.950	-37.4740
60.000000	98.898	-38.0082
60.799999	98.856	-38.4449
61.500000	98.823	-38.8341
62.200001	98.788	-39.2314
63.000000	98.747	-39.6652
64.000000	98.701	-40.1768
65.000000	98.658	-40.7006
66.000000	98.615	-41.2180
67.000000	98.571	-41.7099
68.000000	98.528	-42.1916
69.000000	98.483	-42.6743
70.000000	98.434	-43.1378
71.000000	98.385	-43.5838
72.000000	98.338	-44.0444
73.000000	98.288	-44.4969
74.000000	98.242	-44.9255
75.000000	98.202	-45.3711
76.199997	98.154	-45.9431
77.500000	98.095	-46.5617
78.800003	98.035	-47.1238
80.000000	97.983	-47.6276
81.199997	97.933	-48.1393
82.500000	97.878	-48.6772
83.800003	97.828	-49.2056
85.000000	97.780	-49.6899
86.199997	97.732	-50.1417
87.500000	97.684	-50.6150
88.500000	97.650	-50.9903
90.000000	97.597	-51.6118
91.199997	97.548	-52.1014
92.500000	97.500	-52.5876
93.800003	97.457	-53.0792
95.000000	97.416	-53.5297
96.199997	97.372	-53.9391
97.500000	97.328	-54.3453
98.800003	97.288	-54.7858
100.000000	97.248	-55.2239
101.500000	97.196	-55.7676
103.000000	97.146	-56.3229
104.400002	97.097	-56.8153
106.000000	97.045	-57.3116
107.500000	97.003	-57.7657
109.000000	96.963	-58.2327
110.599998	96.919	-58.7405
112.000000	96.882	-59.1949
113.800003	96.833	-59.7989
115.000000	96.799	-60.1927
117.199997	96.736	-60.8960
118.000000	96.714	-61.1422
120.599998	96.647	-61.9298
122.000000	96.613	-62.3238
124.099998	96.564	-62.8799
125.000000	96.542	-63.1208
126.500000	96.502	-63.5294
128.000000	96.463	-63.9580
131.500000	96.382	-65.0784
132.000000	96.372	-65.2335
134.000000	96.341	-65.8447
136.000000	96.303	-66.4270
138.000000	96.256	-66.9652
140.000000	96.203	-67.5004
143.000000	96.133	-68.2938
145.000000	96.097	-68.8390
147.500000	96.051	-69.5291
150.000000	96.000	-70.1990
152.500000	95.948	-70.8675
155.000000	95.899	-71.5079
157.500000	95.858	-72.1396
160.000000	95.819	-72.8006
162.500000	95.780	-73.4595
165.000000	95.742	-74.1159
167.500000	95.704	-74.7613
170.000000	95.658	-75.3929
172.500000	95.610	-75.9781
175.000000	95.565	-76.5880
177.500000	95.517	-77.1774
180.000000	95.479	-77.7311
182.500000	95.445	-78.3229
185.000000	95.406	-78.9295
187.500000	95.364	-79.5174
190.000000	95.324	-80.0790
192.500000	95.289	-80.6527
195.000000	95.256	-81.2344
197.500000	95.226	-81.8225
200.000000	95.193	-82.4178
203.000000	95.153	-83.1207
206.000000	95.112	-83.7815
209.000000	95.077	-84.4069
212.000000	95.042	-85.0706
214.000000	95.017	-85.5282
218.000000	94.959	-86.4146
220.000000	94.929	-86.8182
224.000000	94.881	-87.6233
227.000000	94.845	-88.2521
230.000000	94.805	-88.8382
233.000000	94.770	-89.4167
236.000000	94.739	-90.0462
240.000000	94.694	-90.9078
243.000000	94.657	-91.4993
247.000000	94.605	-92.2310
250.000000	94.570	-92.7891
254.000000	94.520	-93.5411
258.000000	94.462	-94.2572
262.000000	94.408	-94.9406
265.000000	94.379	-95.4729
269.000000	94.337	-96.2082
272.000000	94.301	-96.7645
276.000000	94.254	-97.4657
280.000000	94.212	-98.1557
285.000000	94.155	-99.0507
290.000000	94.104	-99.8127
295.000000	94.058	-100.5849
300.000000	94.014	-101.3152
304.000000	93.980	-101.9159
307.000000	93.953	-102.3402
311.000000	93.915	-102.8977
315.000000	93.881	-103.4706
320.000000	93.839	-104.2132
325.000000	93.797	-104.8676
330.000000	93.753	-105.4837
335.000000	93.696	-106.1560
340.000000	93.647	-106.7957
345.000000	93.613	-107.3995
350.000000	93.574	-107.9812
355.000000	93.532	-108.5386
360.000000	93.484	-109.1090
365.000000	93.435	-109.7078
370.000000	93.390	-110.2959
375.000000	93.348	-110.8640
382.000000	93.283	-111.5538
387.000000	93.239	-111.9661
395.000000	93.175	-112.7047
400.000000	93.138	-113.1619
406.000000	93.094	-113.6949
412.000000	93.050	-114.1926
418.000000	93.003	-114.6366
425.000000	92.949	-115.1240
431.000000	92.903	-115.6178
437.000000	92.856	-116.0845
444.000000	92.815	-116.5287
450.000000	92.789	-116.8833
455.000000	92.767	-117.1631
462.000000	92.731	-117.5560
468.000000	92.698	-117.9385
475.000000	92.661	-118.4044
482.000000	92.627	-118.8056
487.000000	92.607	-119.0478
494.000000	92.580	-119.3399
500.000000	92.557	-119.5631
508.000000	92.527	-119.8558
515.000000	92.497	-120.1277
522.000000	92.463	-120.3848
530.000000	92.442	-120.6251
538.000000	92.433	-120.8993
545.000000	92.410	-121.1283
552.000000	92.389	-121.3396
560.000000	92.383	-121.5554
570.000000	92.373	-121.7421
580.000000	92.343	-121.8152
590.000000	92.324	-121.9338
600.000000	92.317	-122.0846
608.000000	92.311	-122.1156
615.000000	92.305	-122.0984
622.000000	92.301	-122.0648
630.000000	92.306	-122.0167
640.000000	92.325	-121.9665
650.000000	92.343	-121.9407
660.000000	92.362	-121.8547
670.000000	92.388	-121.7563
680.000000	92.418	-121.6507
690.000000	92.456	-121.5286
700.000000	92.494	-121.3807
710.000000	92.543	-121.1584
720.000000	92.598	-120.9872
730.000000	92.658	-120.8214
740.000000	92.726	-120.6433
750.000000	92.803	-120.5035
762.000000	92.905	-120.3677
775.000000	93.026	-120.1824
788.000000	93.160	-120.0646
800.000000	93.288	-120.0008
812.000000	93.424	-119.9733
825.000000	93.579	-120.0438
838.000000	93.744	-120.1413
850.000000	93.903	-120.2822
862.000000	94.065	-120.4826
875.000000	94.247	-120.8365
885.000000	94.383	-121.2416
900.000000	94.582	-121.9495
912.000000	94.736	-122.5833
925.000000	94.891	-123.3688
938.000000	95.034	-124.2141
950.000000	95.161	-125.0261
962.000000	95.278	-125.8710
975.000000	95.383	-126.8076
988.000000	95.472	-127.7541
1000.000000	95.542	-128.6233
1015.000000	95.617	-129.6718
1030.000000	95.683	-130.6475
1044.000000	95.733	-131.5112
1060.000000	95.779	-132.4223
1075.000000	95.815	-133.2052
1090.000000	95.857	-133.9319
1106.000000	95.906	-134.6640
1120.000000	95.944	-135.2878
1138.000000	95.992	-136.0211
1150.000000	96.024	-136.4714
1172.000000	96.080	-137.2923
1180.000000	96.100	-137.5815
1206.000000	96.169	-138.4327
1220.000000	96.206	-138.8621
1241.000000	96.259	-139.4842
1250.000000	96.282	-139.7509
1265.000000	96.320	-140.1805
1280.000000	96.358	-140.5721
1315.000000	96.452	-141.4212
1320.000000	96.465	-141.5381
1340.000000	96.510	-142.0057
1360.000000	96.555	-142.4391
1380.000000	96.603	-142.8347
1400.000000	96.656	-143.1719
1430.000000	96.742	-143.6523
1450.000000	96.806	-143.9471
1475.000000	96.886	-144.2868
1500.000000	96.963	-144.5851
1525.000000	97.046	-144.8593
1550.000000	97.136	-145.1208
1575.000000	97.229	-145.3861
1600.000000	97.323	-145.6405
1625.000000	97.424	-145.8620
1650.000000	97.530	-146.0722
1675.000000	97.644	-146.2926
1700.000000	97.762	-146.5104
1725.000000	97.880	-146.7366
1750.000000	97.999	-146.9871
1775.000000	98.124	-147.2469
1800.000000	98.255	-147.5098
1825.000000	98.391	-147.8016
1850.000000	98.531	-148.1254
1875.000000	98.673	-148.4870
1900.000000	98.815	-148.8796
1925.000000	98.960	-149.2929
1950.000000	99.111	-149.7381
1975.000000	99.264	-150.2419
2000.000000	99.414	-150.8000
2030.000000	99.593	-151.5226
2060.000000	99.775	-152.3266
2090.000000	99.955	-153.2020
2120.000000	100.129	-154.1522
2140.000000	100.242	-154.8363
2180.000000	100.462	-156.3046
2200.000000	100.567	-157.0855
2240.000000	100.763	-158.7446
2270.000000	100.894	-160.0728
2300.000000	101.012	-161.4567
2330.000000	101.117	-162.8825
2360.000000	101.208	-164.3409
2400.000000	101.304	-166.3306
2430.000000	101.356	-167.8435
2470.000000	101.403	-169.8499
2500.000000	101.420	-171.3356
2540.000000	101.421	-173.2803
2580.000000	101.399	-175.1620
2620.000000	101.356	-176.9754
2650.000000	101.309	-178.2822
2690.000000	101.231	-179.9307
2720.000000	101.161	178.9068
2760.000000	101.056	177.4633
2800.000000	100.938	176.1557
2850.000000	100.777	174.6961
2900.000000	100.608	173.4308
2950.000000	100.439	172.3561
3000.000000	100.272	171.4549
3040.000000	100.139	170.8461
3070.000000	100.043	170.4439
3110.000000	99.921	169.9698
3150.000000	99.805	169.5589
3200.000000	99.666	169.1200
3250.000000	99.536	168.7398
3300.000000	99.414	168.3806
3350.000000	99.295	168.0491
3400.000000	99.177	167.7350
3450.000000	99.062	167.4221
3500.000000	98.945	167.0990
3550.000000	98.817	166.7763
3600.000000	98.669	166.4792
3650.000000	98.495	166.2676
3700.000000	98.291	166.2142
3750.000000	98.058	166.4269
3820.000000	97.702	167.3855
3870.000000	97.452	168.6509
3950.000000	97.131	171.6468
4000.000000	97.019	173.9542
4060.000000	96.989	176.8910
4120.000000	97.071	179.7839
4180.000000	97.251	-177.5040
4250.000000	97.574	-174.6948
4310.000000	97.933	-172.7092
4370.000000	98.353	-171.2483
4440.000000	98.902	-170.3998
4500.000000	99.397	-170.5406
4550.000000	99.802	-171.3136
4620.000000	100.315	-173.3975
4680.000000	100.666	-176.0265
4750.000000	100.927	-179.8340
4820.000000	100.998	175.9633
4870.000000	100.930	172.9748
4940.000000	100.683	169.1445
5000.000000	100.358	166.4011
5080.000000	99.814	163.6981
5150.000000	99.283	162.2591
5220.000000	98.738	161.6224
5300.000000	98.131	161.7399
5380.000000	97.566	162.6042
5450.000000	97.119	163.8626
5520.000000	96.724	165.4875
5600.000000	96.340	167.6779
5700.000000	95.964	170.7508
5800.000000	95.711	173.9994
5900.000000	95.578	177.2374
6000.000000	95.560	-179.7550
6080.000000	95.616	-177.6808
6150.000000	95.709	-176.2115
6220.000000	95.827	-175.1489
6300.000000	95.963	-174.4885
6400.000000	96.086	-174.4700
6500.000000	96.101	-175.1004
6600.000000	95.973	-175.9384
6700.000000	95.706	-176.4975
6800.000000	95.351	-176.4298
6900.000000	94.976	-175.6368
7000.000000	94.629	-174.1962
7100.000000	94.321	-172.2858
7200.000000	94.053	-170.0777
7300.000000	93.821	-167.6509
7400.000000	93.624	-165.0253
7500.000000	93.475	-162.2047
7620.000000	93.400	-158.6875
7750.000000	93.451	-155.1702
7880.000000	93.516	-152.4437
8000.000000	93.520	-150.7233
8120.000000	93.432	-149.4716
8250.000000	93.217	-148.1138
8380.000000	92.899	-146.2961
8500.000000	92.559	-144.0179
8620.000000	92.212	-141.1508
8750.000000	91.857	-137.4579
8850.000000	91.620	-134.2936
9000.000000	91.344	-129.1978
9120.000000	91.204	-124.9273
9250.000000	91.142	-120.2496
9380.000000	91.173	-115.6915
9500.000000	91.279	-111.7226
9620.000000	91.456	-108.0979
9750.000000	91.713	-104.6999
9880.000000	92.019	-102.0052
10000.000000	92.319	-100.2581
10150.000000	92.669	-99.1822
10300.000000	92.918	-99.3063
10440.000000	92.993	-100.2543
10600.000000	92.845	-101.6149
10750.000000	92.513	-102.3312
10900.000000	92.105	-102.3961
11060.000000	91.624	-102.1431
11200.000000	91.168	-101.7715
11380.000000	90.536	-101.4853
11500.000000	90.045	-101.7049
11720.000000	88.756	-102.5160
11800.000000	88.102	-102.3119
12060.000000	85.339	-95.2109
12200.000000	83.774	-85.9929
12410.000000	82.201	-67.1870
12500.000000	81.990	-58.7772
12650.000000	82.185	-46.3756
12800.000000	82.708	-37.2103
13150.000000	83.560	-24.5747
13200.000000	83.643	-23.0341
13400.000000	84.034	-17.9866
13600.000000	84.170	-15.7279
13800.000000	83.796	-13.0376
14000.000000	83.330	-7.9473
14300.000000	82.932	0.1438
14500.000000	82.612	4.7961
14750.000000	82.010	11.4323
15000.000000	81.423	19.9251
15250.000000	81.111	28.6198
15500.000000	80.904	35.7426
15750.000000	80.493	42.4529
16000.000000	79.832	51.3116
16250.000000	79.264	63.5897
16500.000000	79.220	77.6338
16750.000000	79.711	91.1224
17000.000000	80.583	103.1878
17250.000000	81.773	113.5542
17500.000000	83.256	121.7442
17750.000000	84.928	126.8828
18000.000000	86.559	127.9671
18250.000000	87.847	124.7143
18500.000000	88.551	118.4742
18750.000000	88.639	111.8773
19000.000000	88.288	106.8757
19250.000000	87.717	103.5859
19500.000000	87.041	101.1284
19750.000000	86.334	98.9755
20000.000000	85.853	97.6657
