* Measurement data measured by REW V5.20.13
* Source: EXCL: Mic in at rear panel (Pink)(Realtek(R) Audio), MICROPHONE (마스), L, volume: 1.000
* Format: 256k Log Swept Sine, 1 sweep at -12.0 dBFS with no timing reference
* Dated: 2022. 12. 31 오후 12:28:42
* REW Settings:
*  C-weighting compensation: Off
*  Target level: 75.0 dB
* Note: 
* Measurement: 12월 31
* Smoothing: 1/24 octave
* Frequency Step: 1/48 octave
* Start Frequency: 20.300 Hz
*
* Freq(Hz)	SPL(dB)	Phase(degrees)
20.299999	98.525	176.9272
20.600000	98.527	176.8368
20.900000	98.529	176.6680
21.200001	98.525	176.4852
21.400000	98.519	176.3511
21.799999	98.497	176.0516
22.000000	98.482	175.8908
22.400000	98.443	175.5695
22.700001	98.411	175.3424
23.000000	98.379	175.1298
23.299999	98.350	174.9256
23.600000	98.325	174.7251
24.000000	98.297	174.4621
24.299999	98.281	174.2740
24.700001	98.266	174.0445
25.000000	98.260	173.8893
25.400000	98.261	173.6947
25.799999	98.269	173.4930
26.200001	98.282	173.2691
26.500000	98.291	173.0894
26.900000	98.296	172.8503
27.200001	98.296	172.6844
27.600000	98.289	172.4895
28.000000	98.280	172.3207
28.500000	98.263	172.1372
29.000000	98.241	171.9901
29.500000	98.218	171.8885
30.000000	98.199	171.8078
30.400000	98.190	171.7194
30.700001	98.184	171.6224
31.100000	98.175	171.4484
31.500000	98.162	171.2390
32.000000	98.138	170.9675
32.500000	98.112	170.7159
33.000000	98.092	170.4812
33.500000	98.079	170.2417
34.000000	98.068	169.9927
34.500000	98.056	169.7564
35.000000	98.044	169.5536
35.500000	98.037	169.3774
36.000000	98.035	169.2011
36.500000	98.034	169.0058
37.000000	98.031	168.7890
37.500000	98.023	168.5570
38.200001	98.003	168.2234
38.700001	97.982	167.9924
39.500000	97.944	167.6495
40.000000	97.922	167.4370
40.599998	97.897	167.1614
41.200001	97.872	166.8579
41.799999	97.847	166.5364
42.500000	97.815	166.1515
43.099998	97.788	165.8251
43.700001	97.760	165.5134
44.400002	97.727	165.1707
45.000000	97.697	164.8869
45.500000	97.670	164.6563
46.200001	97.628	164.3493
46.799999	97.590	164.0981
47.500000	97.543	163.8064
48.200001	97.494	163.5226
48.700001	97.457	163.3307
49.400002	97.407	163.0728
50.000000	97.364	162.8566
50.799999	97.305	162.5868
51.500000	97.255	162.3793
52.200001	97.208	162.1908
53.000000	97.155	161.9869
53.799999	97.096	161.8007
54.500000	97.039	161.6646
55.200001	96.979	161.5547
56.000000	96.910	161.4435
57.000000	96.819	161.3080
58.000000	96.723	161.1890
59.000000	96.629	161.0841
60.000000	96.537	160.9917
60.799999	96.468	160.9365
61.500000	96.412	160.9079
62.200001	96.360	160.8988
63.000000	96.302	160.9084
64.000000	96.231	160.9362
65.000000	96.157	160.9833
66.000000	96.078	161.0620
67.000000	95.995	161.1499
68.000000	95.908	161.2375
69.000000	95.823	161.3255
70.000000	95.743	161.4021
71.000000	95.670	161.4768
72.000000	95.606	161.5668
73.000000	95.552	161.6694
74.000000	95.504	161.7698
75.000000	95.456	161.8700
76.199997	95.394	162.0199
77.500000	95.328	162.2102
78.800003	95.260	162.4150
80.000000	95.201	162.6052
81.199997	95.145	162.7670
82.500000	95.085	162.9399
83.800003	95.029	163.1238
85.000000	94.979	163.2799
86.199997	94.927	163.4354
87.500000	94.873	163.6362
88.500000	94.837	163.8044
90.000000	94.792	164.0287
91.199997	94.760	164.1822
92.500000	94.725	164.3394
93.800003	94.689	164.4987
95.000000	94.654	164.6467
96.199997	94.615	164.7817
97.500000	94.568	164.9263
98.800003	94.519	165.0684
100.000000	94.474	165.1895
101.500000	94.421	165.3307
103.000000	94.373	165.4783
104.400002	94.332	165.6266
106.000000	94.285	165.8256
107.500000	94.240	166.0468
109.000000	94.199	166.2946
110.599998	94.160	166.5567
112.000000	94.129	166.7596
113.800003	94.089	166.9851
115.000000	94.060	167.1324
117.199997	94.006	167.4346
118.000000	93.987	167.5539
120.599998	93.928	167.9737
122.000000	93.898	168.2166
124.099998	93.852	168.5767
125.000000	93.831	168.7251
126.500000	93.797	168.9724
128.000000	93.768	169.2189
131.500000	93.721	169.7868
132.000000	93.716	169.8740
134.000000	93.698	170.2419
136.000000	93.680	170.6048
138.000000	93.658	170.9364
140.000000	93.632	171.2535
143.000000	93.594	171.7375
145.000000	93.574	172.0553
147.500000	93.552	172.4273
150.000000	93.534	172.7792
152.500000	93.526	173.0795
155.000000	93.528	173.3463
157.500000	93.538	173.6179
160.000000	93.541	173.9709
162.500000	93.528	174.3942
165.000000	93.497	174.7666
167.500000	93.467	175.0102
170.000000	93.456	175.1587
172.500000	93.458	175.3157
175.000000	93.449	175.5189
177.500000	93.426	175.7036
180.000000	93.401	175.8569
182.500000	93.385	176.0613
185.000000	93.373	176.3402
187.500000	93.354	176.6599
190.000000	93.335	176.9882
192.500000	93.322	177.3062
195.000000	93.317	177.5854
197.500000	93.312	177.8488
200.000000	93.307	178.1603
203.000000	93.298	178.6159
206.000000	93.284	179.0744
209.000000	93.275	179.4569
212.000000	93.272	179.7860
214.000000	93.277	179.9901
218.000000	93.300	-179.6036
220.000000	93.315	-179.3799
224.000000	93.338	-178.9554
227.000000	93.347	-178.7221
230.000000	93.352	-178.5281
233.000000	93.357	-178.3578
236.000000	93.369	-178.2274
240.000000	93.394	-178.0812
243.000000	93.414	-177.9758
247.000000	93.433	-177.7764
250.000000	93.441	-177.5124
254.000000	93.435	-177.0704
258.000000	93.408	-176.7735
262.000000	93.381	-176.6378
265.000000	93.368	-176.4909
269.000000	93.359	-176.2135
272.000000	93.359	-176.0169
276.000000	93.371	-175.7585
280.000000	93.382	-175.4227
285.000000	93.388	-174.9414
290.000000	93.401	-174.4653
295.000000	93.432	-173.9932
300.000000	93.466	-173.4728
304.000000	93.480	-173.0472
307.000000	93.486	-172.7609
311.000000	93.500	-172.4384
315.000000	93.531	-172.1222
320.000000	93.581	-171.6835
325.000000	93.638	-171.2952
330.000000	93.715	-170.8658
335.000000	93.796	-170.3630
340.000000	93.867	-169.9760
345.000000	93.939	-169.7259
350.000000	94.009	-169.5101
355.000000	94.075	-169.2855
360.000000	94.140	-169.0812
365.000000	94.205	-168.9641
370.000000	94.273	-168.9389
375.000000	94.342	-168.9682
382.000000	94.441	-169.1033
387.000000	94.512	-169.2213
395.000000	94.611	-169.3963
400.000000	94.659	-169.5497
406.000000	94.700	-169.8588
412.000000	94.739	-170.2872
418.000000	94.778	-170.6653
425.000000	94.794	-170.9903
431.000000	94.788	-171.2933
437.000000	94.789	-171.5756
444.000000	94.780	-171.8270
450.000000	94.760	-172.0679
455.000000	94.739	-172.2719
462.000000	94.703	-172.5406
468.000000	94.672	-172.7266
475.000000	94.640	-172.8465
482.000000	94.609	-172.8288
487.000000	94.578	-172.7164
494.000000	94.518	-172.5898
500.000000	94.484	-172.5648
508.000000	94.478	-172.4410
515.000000	94.481	-172.2318
522.000000	94.486	-172.0578
530.000000	94.497	-171.8893
538.000000	94.500	-171.6780
545.000000	94.492	-171.5856
552.000000	94.486	-171.6207
560.000000	94.484	-171.6917
570.000000	94.479	-171.8165
580.000000	94.484	-171.9982
590.000000	94.491	-172.0161
600.000000	94.444	-172.0488
608.000000	94.386	-172.1664
615.000000	94.331	-172.2054
622.000000	94.278	-172.1341
630.000000	94.218	-171.9445
640.000000	94.131	-171.6617
650.000000	94.053	-171.3076
660.000000	94.008	-170.7379
670.000000	93.982	-169.9388
680.000000	93.947	-169.1257
690.000000	93.910	-168.5134
700.000000	93.897	-168.0160
710.000000	93.935	-167.5548
720.000000	94.003	-167.2026
730.000000	94.059	-166.9326
740.000000	94.103	-166.7208
750.000000	94.148	-166.5643
762.000000	94.193	-166.5278
775.000000	94.226	-166.7043
788.000000	94.233	-166.9653
800.000000	94.211	-167.2285
812.000000	94.156	-167.3976
825.000000	94.079	-167.5238
838.000000	94.003	-167.5252
850.000000	93.924	-167.3181
862.000000	93.837	-166.9806
875.000000	93.751	-166.5599
885.000000	93.695	-166.2266
900.000000	93.607	-165.5464
912.000000	93.539	-164.9172
925.000000	93.462	-164.2010
938.000000	93.410	-163.5296
950.000000	93.398	-162.9522
962.000000	93.389	-162.3178
975.000000	93.375	-161.5143
988.000000	93.367	-160.6260
1000.000000	93.367	-159.8286
1015.000000	93.381	-158.8521
1030.000000	93.417	-157.9043
1044.000000	93.479	-157.1144
1060.000000	93.558	-156.4265
1075.000000	93.626	-155.9277
1090.000000	93.713	-155.4835
1106.000000	93.824	-155.2614
1120.000000	93.910	-155.3084
1138.000000	93.985	-155.3707
1150.000000	94.025	-155.3617
1172.000000	94.082	-155.3348
1180.000000	94.092	-155.3409
1206.000000	94.156	-155.3347
1220.000000	94.185	-155.2785
1241.000000	94.188	-155.1486
1250.000000	94.180	-155.0717
1265.000000	94.163	-154.9557
1280.000000	94.145	-154.8231
1315.000000	94.082	-154.4490
1320.000000	94.074	-154.3955
1340.000000	94.040	-154.1013
1360.000000	93.978	-153.5594
1380.000000	93.919	-152.8335
1400.000000	93.901	-151.9985
1430.000000	93.914	-150.8364
1450.000000	93.954	-150.0772
1475.000000	94.073	-149.2679
1500.000000	94.189	-148.6155
1525.000000	94.283	-148.0033
1550.000000	94.371	-147.6256
1575.000000	94.458	-147.3171
1600.000000	94.549	-146.8661
1625.000000	94.603	-146.3758
1650.000000	94.618	-146.0242
1675.000000	94.647	-145.7967
1700.000000	94.683	-145.6105
1725.000000	94.712	-145.2880
1750.000000	94.747	-144.7477
1775.000000	94.798	-144.2260
1800.000000	94.847	-143.7565
1825.000000	94.908	-143.2789
1850.000000	94.954	-142.8412
1875.000000	94.980	-142.4780
1900.000000	95.007	-142.1664
1925.000000	95.008	-142.0370
1950.000000	95.000	-141.8268
1975.000000	94.994	-141.3492
2000.000000	94.971	-140.8282
2030.000000	94.949	-140.2200
2060.000000	94.949	-139.2704
2090.000000	94.962	-138.1260
2120.000000	94.946	-137.1523
2140.000000	94.934	-136.6080
2180.000000	94.964	-135.3801
2200.000000	95.013	-134.6461
2240.000000	95.156	-133.3669
2270.000000	95.253	-132.6462
2300.000000	95.351	-131.8780
2330.000000	95.482	-131.1124
2360.000000	95.623	-130.3683
2400.000000	95.798	-129.1565
2430.000000	95.944	-128.1829
2470.000000	96.176	-127.1276
2500.000000	96.356	-126.4711
2540.000000	96.606	-125.6415
2580.000000	96.879	-124.9705
2620.000000	97.145	-124.7088
2650.000000	97.348	-124.7581
2690.000000	97.615	-124.8990
2720.000000	97.800	-124.9938
2760.000000	98.045	-125.3126
2800.000000	98.318	-125.6555
2850.000000	98.665	-126.1881
2900.000000	98.983	-126.8738
2950.000000	99.287	-127.9609
3000.000000	99.608	-129.5963
3040.000000	99.817	-131.1405
3070.000000	99.942	-132.2851
3110.000000	100.071	-133.7680
3150.000000	100.162	-135.4080
3200.000000	100.225	-137.6044
3250.000000	100.238	-139.6561
3300.000000	100.225	-141.5958
3350.000000	100.185	-143.4327
3400.000000	100.104	-145.0447
3450.000000	99.996	-146.4038
3500.000000	99.893	-147.5379
3550.000000	99.794	-148.6298
3600.000000	99.671	-149.5399
3650.000000	99.535	-150.1402
3700.000000	99.388	-150.7467
3750.000000	99.247	-151.3755
3820.000000	99.049	-151.8055
3870.000000	98.905	-152.0358
3950.000000	98.649	-152.3367
4000.000000	98.493	-152.2064
4060.000000	98.336	-151.7855
4120.000000	98.202	-151.3273
4180.000000	98.092	-150.7601
4250.000000	97.999	-150.0501
4310.000000	97.926	-149.5850
4370.000000	97.843	-149.1461
4440.000000	97.756	-148.6077
4500.000000	97.670	-148.1196
4550.000000	97.587	-147.6960
4620.000000	97.477	-147.0997
4680.000000	97.395	-146.4861
4750.000000	97.304	-145.6602
4820.000000	97.243	-144.8496
4870.000000	97.211	-144.2089
4940.000000	97.166	-143.1516
5000.000000	97.135	-142.1760
5080.000000	97.105	-140.9553
5150.000000	97.099	-139.9417
5220.000000	97.112	-138.8516
5300.000000	97.133	-137.5915
5380.000000	97.173	-136.1642
5450.000000	97.233	-134.8674
5520.000000	97.325	-133.5379
5600.000000	97.474	-131.8707
5700.000000	97.747	-129.7828
5800.000000	98.105	-127.8518
5900.000000	98.586	-126.0957
6000.000000	99.228	-125.0840
6080.000000	99.831	-124.8888
6150.000000	100.411	-125.3505
6220.000000	101.015	-126.6618
6300.000000	101.675	-129.3071
6400.000000	102.356	-134.2465
6500.000000	102.793	-140.5375
6600.000000	102.933	-147.2986
6700.000000	102.811	-153.7321
6800.000000	102.504	-159.0124
6900.000000	102.094	-162.9037
7000.000000	101.671	-165.5833
7100.000000	101.309	-167.4866
7200.000000	101.026	-168.7825
7300.000000	100.841	-169.6026
7400.000000	100.721	-170.3129
7500.000000	100.671	-171.1199
7620.000000	100.728	-172.3890
7750.000000	100.894	-174.4614
7880.000000	101.060	-177.4090
8000.000000	101.188	178.8749
8120.000000	101.256	174.1926
8250.000000	101.172	168.0810
8380.000000	100.863	161.1009
8500.000000	100.342	154.4558
8620.000000	99.568	148.3986
8750.000000	98.490	143.2206
8850.000000	97.570	140.3329
9000.000000	96.153	137.7454
9120.000000	95.048	136.9845
9250.000000	93.924	137.1219
9380.000000	92.877	138.0333
9500.000000	91.979	139.4184
9620.000000	91.152	141.2174
9750.000000	90.336	143.5179
9880.000000	89.623	146.1302
10000.000000	89.061	148.8273
10150.000000	88.462	152.3082
10300.000000	87.948	155.6808
10440.000000	87.554	158.7764
10600.000000	87.226	162.0634
10750.000000	86.998	164.8026
10900.000000	86.808	167.3119
11060.000000	86.631	169.7583
11200.000000	86.499	171.8110
11380.000000	86.445	174.4107
11500.000000	86.523	175.9204
11720.000000	86.814	177.4235
11800.000000	86.925	177.3358
12060.000000	87.086	174.6969
12200.000000	86.949	172.6482
12410.000000	86.409	170.3558
12500.000000	86.081	169.9848
12650.000000	85.491	170.4672
12800.000000	84.938	172.4428
13150.000000	84.363	-178.8119
13200.000000	84.399	-177.3199
13400.000000	84.868	-171.5367
13600.000000	85.844	-166.9514
13800.000000	87.272	-164.5350
14000.000000	89.059	-165.2535
14300.000000	92.090	-174.6775
14500.000000	93.814	170.8676
14750.000000	94.776	144.4516
15000.000000	94.010	116.7670
15250.000000	91.958	96.0325
15500.000000	89.406	83.7661
15750.000000	86.965	77.4547
16000.000000	84.860	74.9856
16250.000000	83.170	74.9459
16500.000000	81.961	76.3794
16750.000000	81.246	78.4918
17000.000000	81.002	80.3588
17250.000000	81.223	81.3533
17500.000000	81.950	80.7897
17750.000000	83.215	77.5601
18000.000000	84.934	69.5060
18250.000000	86.687	50.9223
18500.000000	87.597	-7.5352
18750.000000	86.805	23.8419
19000.000000	83.806	69.1826
19250.000000	78.266	-39.1455
19500.000000	70.389	57.8047
19750.000000	60.902	16.3867
20000.000000	50.810	-12.0625
