* Measurement data measured by REW V5.20.13
* Source: EXCL: Mic in at rear panel (Pink)(Realtek(R) Audio), MICROPHONE (마스), L, volume: 1.000
* Format: 256k Log Swept Sine, 1 sweep at -12.0 dBFS with no timing reference
* Dated: 2022. 12. 30 오후 6:41:12
* REW Settings:
*  C-weighting compensation: Off
*  Target level: 75.0 dB
* Note: 
* Measurement: 67
* Smoothing: 1/24 octave
* Frequency Step: 1/48 octave
* Start Frequency: 20.300 Hz
*
* Freq(Hz)	SPL(dB)	Phase(degrees)
20.299999	74.354	165.9659
20.600000	74.359	165.8023
20.900000	74.337	165.6821
21.200001	74.258	166.1144
21.400000	74.224	166.8026
21.799999	74.308	168.5881
22.000000	74.444	169.2639
22.400000	74.819	169.1543
22.700001	75.034	167.5363
23.000000	75.070	165.0193
23.299999	74.888	162.4946
23.600000	74.520	160.7868
24.000000	73.888	160.6829
24.299999	73.493	162.1709
24.700001	73.278	165.0698
25.000000	73.353	166.8076
25.400000	73.613	167.6237
25.799999	73.864	166.8247
26.200001	74.035	165.0601
26.500000	74.118	163.3462
26.900000	74.170	160.5543
27.200001	74.139	158.0684
27.600000	73.955	154.4479
28.000000	73.562	151.2023
28.500000	72.822	149.2307
29.000000	72.088	150.6664
29.500000	71.764	154.5707
30.000000	72.014	158.3452
30.400000	72.468	159.8705
30.700001	72.844	159.9203
31.100000	73.281	158.7279
31.500000	73.572	156.5774
32.000000	73.685	153.6013
32.500000	73.575	151.5331
33.000000	73.414	150.9366
33.500000	73.355	151.1771
34.000000	73.356	151.2052
34.500000	73.286	150.9417
35.000000	73.085	151.3487
35.500000	72.903	153.1281
36.000000	72.935	155.5109
36.500000	73.166	156.9476
37.000000	73.375	156.6741
37.500000	73.389	155.3808
38.200001	73.100	154.0977
38.700001	72.845	154.0693
39.500000	72.550	154.0508
40.000000	72.359	153.7396
40.599998	72.119	153.7556
41.200001	72.042	154.1670
41.799999	72.160	153.6692
42.500000	72.250	151.3815
43.099998	72.145	149.6799
43.700001	72.068	149.3755
44.400002	72.223	149.4567
45.000000	72.414	148.5351
45.500000	72.463	147.3957
46.200001	72.375	146.4184
46.799999	72.271	146.2866
47.500000	72.147	146.1876
48.200001	71.939	146.0790
48.700001	71.745	146.3103
49.400002	71.504	147.1257
50.000000	71.392	147.7704
50.799999	71.329	147.7422
51.500000	71.249	147.0382
52.200001	71.142	146.3537
53.000000	71.061	145.7670
53.799999	71.020	145.0920
54.500000	70.967	144.5041
55.200001	70.888	144.0966
56.000000	70.779	143.9350
57.000000	70.659	143.9029
58.000000	70.497	143.2563
59.000000	70.165	142.8464
60.000000	69.882	143.5511
60.799999	69.801	143.9535
61.500000	69.762	143.8351
62.200001	69.688	143.5534
63.000000	69.555	143.5862
64.000000	69.436	144.4795
65.000000	69.441	145.1033
66.000000	69.364	144.9751
67.000000	69.188	145.1731
68.000000	69.054	145.4409
69.000000	68.925	145.3635
70.000000	68.797	145.3922
71.000000	68.738	145.4962
72.000000	68.712	145.3583
73.000000	68.661	145.2280
74.000000	68.594	145.2224
75.000000	68.484	145.2856
76.199997	68.316	145.8007
77.500000	68.178	146.4390
78.800003	68.043	146.9564
80.000000	67.969	147.4540
81.199997	67.928	147.4108
82.500000	67.796	147.2665
83.800003	67.702	147.6970
85.000000	67.680	147.6265
86.199997	67.593	147.4189
87.500000	67.524	147.7585
88.500000	67.518	147.8666
90.000000	67.423	148.0318
91.199997	67.364	148.7424
92.500000	67.333	149.0441
93.800003	67.182	149.2241
95.000000	67.027	150.0268
96.199997	66.969	150.8378
97.500000	66.954	151.1559
98.800003	66.960	151.1517
100.000000	66.964	150.7444
101.500000	66.861	150.4462
103.000000	66.774	151.3047
104.400002	66.788	152.1260
106.000000	66.734	152.6603
107.500000	66.652	153.2956
109.000000	66.591	153.4009
110.599998	66.459	153.0569
112.000000	66.311	153.0279
113.800003	66.143	153.5248
115.000000	66.070	154.1266
117.199997	65.973	155.0203
118.000000	65.924	155.2954
120.599998	65.778	156.6878
122.000000	65.784	157.3505
124.099998	65.822	157.8075
125.000000	65.845	157.8943
126.500000	65.885	157.7961
128.000000	65.870	157.5146
131.500000	65.650	158.3895
132.000000	65.628	158.6311
134.000000	65.549	159.4014
136.000000	65.507	160.0779
138.000000	65.553	160.2673
140.000000	65.539	160.1415
143.000000	65.407	161.1700
145.000000	65.364	162.0062
147.500000	65.262	162.6769
150.000000	65.205	163.5615
152.500000	65.233	164.2537
155.000000	65.282	164.5033
157.500000	65.257	164.6904
160.000000	65.194	165.1941
162.500000	65.150	165.8937
165.000000	65.140	166.5331
167.500000	65.124	167.0952
170.000000	65.107	167.5950
172.500000	65.091	167.9141
175.000000	65.078	168.3095
177.500000	65.069	168.7574
180.000000	65.003	169.0355
182.500000	64.906	169.5198
185.000000	64.910	170.0865
187.500000	64.996	170.4361
190.000000	65.046	170.6830
192.500000	65.018	171.3014
195.000000	64.984	172.0257
197.500000	64.932	172.4837
200.000000	64.872	172.8410
203.000000	64.800	173.2604
206.000000	64.769	173.7486
209.000000	64.793	173.9844
212.000000	64.822	174.2368
214.000000	64.847	174.6195
218.000000	64.901	175.1956
220.000000	64.893	175.4409
224.000000	64.883	176.1942
227.000000	64.858	176.5195
230.000000	64.802	176.7247
233.000000	64.812	177.2860
236.000000	64.901	177.9926
240.000000	64.976	178.6619
243.000000	64.982	178.8974
247.000000	64.989	179.2915
250.000000	64.947	179.3078
254.000000	64.889	179.2533
258.000000	64.980	179.4495
262.000000	64.978	179.7103
265.000000	64.923	179.9292
269.000000	64.924	-179.6543
272.000000	64.931	-179.3077
276.000000	64.916	-178.8570
280.000000	64.908	-178.5248
285.000000	64.912	-177.9832
290.000000	64.930	-177.0971
295.000000	64.958	-176.5626
300.000000	64.939	-176.3123
304.000000	64.935	-175.8535
307.000000	64.961	-175.4520
311.000000	64.998	-174.9785
315.000000	65.039	-174.5697
320.000000	65.080	-174.2652
325.000000	65.107	-173.8715
330.000000	65.155	-173.0682
335.000000	65.227	-172.5985
340.000000	65.277	-172.6121
345.000000	65.352	-172.4373
350.000000	65.412	-172.0952
355.000000	65.494	-171.9038
360.000000	65.593	-171.9741
365.000000	65.657	-171.8688
370.000000	65.707	-171.5119
375.000000	65.761	-171.1621
382.000000	65.830	-171.2973
387.000000	65.891	-171.4675
395.000000	66.016	-171.6156
400.000000	66.042	-171.5406
406.000000	66.033	-171.5738
412.000000	66.075	-171.9540
418.000000	66.134	-172.2948
425.000000	66.138	-172.7136
431.000000	66.138	-172.8186
437.000000	66.116	-172.8698
444.000000	66.089	-173.3765
450.000000	66.082	-173.6730
455.000000	66.073	-173.5367
462.000000	66.028	-173.5477
468.000000	65.972	-173.6555
475.000000	65.932	-173.6781
482.000000	65.904	-173.6171
487.000000	65.872	-173.5393
494.000000	65.811	-173.4474
500.000000	65.770	-173.3580
508.000000	65.749	-173.1116
515.000000	65.731	-172.7508
522.000000	65.716	-172.4015
530.000000	65.688	-172.2896
538.000000	65.659	-172.0509
545.000000	65.639	-171.7816
552.000000	65.635	-171.5355
560.000000	65.671	-171.1647
570.000000	65.674	-171.1048
580.000000	65.653	-171.4357
590.000000	65.617	-171.4357
600.000000	65.547	-171.3386
608.000000	65.496	-171.1379
615.000000	65.471	-170.8944
622.000000	65.442	-170.5971
630.000000	65.368	-170.3958
640.000000	65.268	-170.5220
650.000000	65.178	-170.1212
660.000000	65.091	-169.1030
670.000000	65.079	-167.9916
680.000000	65.072	-167.0442
690.000000	65.041	-166.1168
700.000000	65.012	-165.4933
710.000000	65.028	-165.0928
720.000000	65.088	-164.6559
730.000000	65.177	-164.1429
740.000000	65.285	-163.7360
750.000000	65.342	-163.6751
762.000000	65.370	-163.5760
775.000000	65.388	-163.5119
788.000000	65.399	-163.7817
800.000000	65.424	-164.1402
812.000000	65.402	-164.3710
825.000000	65.330	-164.4145
838.000000	65.227	-164.2188
850.000000	65.171	-163.9244
862.000000	65.094	-163.4792
875.000000	64.998	-163.0610
885.000000	64.929	-162.7612
900.000000	64.822	-162.0012
912.000000	64.742	-161.0610
925.000000	64.635	-160.1495
938.000000	64.561	-159.4825
950.000000	64.531	-158.7631
962.000000	64.497	-158.0376
975.000000	64.442	-157.2083
988.000000	64.366	-155.9270
1000.000000	64.307	-154.6424
1015.000000	64.325	-153.6483
1030.000000	64.407	-152.8176
1044.000000	64.495	-152.0534
1060.000000	64.520	-150.7645
1075.000000	64.531	-149.6300
1090.000000	64.602	-149.0365
1106.000000	64.734	-148.3502
1120.000000	64.835	-147.6861
1138.000000	64.934	-147.1463
1150.000000	64.967	-146.9882
1172.000000	64.982	-146.5444
1180.000000	64.998	-146.2407
1206.000000	65.084	-145.1096
1220.000000	65.125	-144.4607
1241.000000	65.158	-143.5609
1250.000000	65.170	-143.1809
1265.000000	65.202	-142.6157
1280.000000	65.254	-142.1812
1315.000000	65.339	-141.3152
1320.000000	65.340	-141.1799
1340.000000	65.341	-140.5131
1360.000000	65.349	-139.6376
1380.000000	65.370	-138.5904
1400.000000	65.419	-137.4072
1430.000000	65.514	-135.6833
1450.000000	65.614	-134.6055
1475.000000	65.778	-133.3083
1500.000000	65.937	-132.2164
1525.000000	66.086	-131.3609
1550.000000	66.244	-130.4252
1575.000000	66.412	-129.2546
1600.000000	66.517	-128.1844
1625.000000	66.630	-127.4570
1650.000000	66.777	-126.7199
1675.000000	66.918	-125.9272
1700.000000	67.033	-125.1197
1725.000000	67.182	-124.0612
1750.000000	67.352	-122.8942
1775.000000	67.537	-121.9908
1800.000000	67.746	-121.1752
1825.000000	67.965	-120.3434
1850.000000	68.179	-119.5170
1875.000000	68.380	-118.8615
1900.000000	68.586	-118.3713
1925.000000	68.796	-117.9946
1950.000000	69.014	-117.6246
1975.000000	69.235	-117.1854
2000.000000	69.463	-116.8079
2030.000000	69.740	-116.6018
2060.000000	70.027	-116.4928
2090.000000	70.321	-116.1848
2120.000000	70.611	-115.9727
2140.000000	70.801	-115.9855
2180.000000	71.183	-116.2060
2200.000000	71.377	-116.3722
2240.000000	71.761	-116.8892
2270.000000	72.030	-117.4236
2300.000000	72.288	-117.9138
2330.000000	72.539	-118.3486
2360.000000	72.780	-118.7661
2400.000000	73.105	-119.5519
2430.000000	73.344	-120.4487
2470.000000	73.650	-121.9056
2500.000000	73.876	-123.1969
2540.000000	74.170	-125.1088
2580.000000	74.445	-127.0496
2620.000000	74.700	-129.2092
2650.000000	74.873	-130.9864
2690.000000	75.061	-133.5166
2720.000000	75.168	-135.5152
2760.000000	75.281	-138.1572
2800.000000	75.350	-140.8711
2850.000000	75.363	-144.2179
2900.000000	75.315	-147.3203
2950.000000	75.249	-150.1717
3000.000000	75.152	-153.1179
3040.000000	75.039	-155.4923
3070.000000	74.934	-157.1791
3110.000000	74.763	-159.2780
3150.000000	74.554	-161.2635
3200.000000	74.252	-163.5202
3250.000000	73.915	-165.4675
3300.000000	73.553	-167.1851
3350.000000	73.175	-168.5013
3400.000000	72.784	-169.5009
3450.000000	72.395	-170.1536
3500.000000	72.030	-170.4026
3550.000000	71.679	-170.3327
3600.000000	71.344	-169.9749
3650.000000	71.044	-169.4521
3700.000000	70.780	-168.7803
3750.000000	70.532	-168.0330
3820.000000	70.231	-166.8401
3870.000000	70.044	-165.8971
3950.000000	69.763	-164.2764
4000.000000	69.611	-163.1501
4060.000000	69.452	-161.8126
4120.000000	69.313	-160.6371
4180.000000	69.184	-159.4479
4250.000000	69.063	-158.0637
4310.000000	68.978	-156.8699
4370.000000	68.883	-155.7467
4440.000000	68.765	-154.4925
4500.000000	68.671	-153.2742
4550.000000	68.596	-152.2600
4620.000000	68.506	-150.8818
4680.000000	68.454	-149.6251
4750.000000	68.427	-148.1570
4820.000000	68.408	-146.7888
4870.000000	68.398	-145.7396
4940.000000	68.387	-144.1512
5000.000000	68.378	-142.8313
5080.000000	68.394	-141.2175
5150.000000	68.437	-139.7204
5220.000000	68.486	-138.2126
5300.000000	68.547	-136.5332
5380.000000	68.649	-134.8606
5450.000000	68.772	-133.3414
5520.000000	68.901	-131.7762
5600.000000	69.087	-129.9040
5700.000000	69.407	-127.5225
5800.000000	69.849	-125.4018
5900.000000	70.388	-123.6085
6000.000000	71.049	-122.3806
6080.000000	71.669	-122.0920
6150.000000	72.258	-122.5114
6220.000000	72.858	-123.7083
6300.000000	73.521	-126.1564
6400.000000	74.219	-130.7357
6500.000000	74.695	-136.5457
6600.000000	74.900	-142.8300
6700.000000	74.835	-148.7401
6800.000000	74.582	-153.7471
6900.000000	74.247	-157.5800
7000.000000	73.906	-160.2808
7100.000000	73.615	-162.1159
7200.000000	73.404	-163.4133
7300.000000	73.281	-164.4538
7400.000000	73.236	-165.4802
7500.000000	73.253	-166.6841
7620.000000	73.337	-168.4051
7750.000000	73.493	-170.9414
7880.000000	73.607	-174.3096
8000.000000	73.651	-178.1333
8120.000000	73.631	177.2594
8250.000000	73.476	171.4914
8380.000000	73.127	165.2110
8500.000000	72.611	159.5117
8620.000000	71.893	154.2959
8750.000000	70.913	149.6943
8850.000000	70.075	147.1452
9000.000000	68.779	144.9495
9120.000000	67.764	144.3585
9250.000000	66.723	144.6458
9380.000000	65.747	145.6268
9500.000000	64.923	146.8748
9620.000000	64.190	148.5765
9750.000000	63.471	150.8727
9880.000000	62.830	153.2752
10000.000000	62.336	155.7289
10150.000000	61.818	159.1228
10300.000000	61.381	162.4344
10440.000000	61.071	165.3440
10600.000000	60.825	168.3670
10750.000000	60.664	170.9750
10900.000000	60.547	173.2982
11060.000000	60.476	175.3725
11200.000000	60.451	177.0915
11380.000000	60.506	179.2629
11500.000000	60.618	-179.6109
11720.000000	60.943	-179.0432
11800.000000	61.062	-179.3445
12060.000000	61.267	177.8438
12200.000000	61.175	175.6424
12410.000000	60.717	172.9823
12500.000000	60.443	172.3858
12650.000000	59.932	172.3885
12800.000000	59.430	173.7329
13150.000000	58.989	-179.1736
13200.000000	59.038	-177.8955
13400.000000	59.533	-173.0768
13600.000000	60.500	-169.3794
13800.000000	61.907	-167.7542
14000.000000	63.710	-169.4984
14300.000000	66.662	178.4320
14500.000000	68.150	162.1393
14750.000000	68.674	134.9572
15000.000000	67.559	109.2458
15250.000000	65.389	91.3148
15500.000000	62.925	80.7119
15750.000000	60.674	74.9213
16000.000000	58.797	72.2547
16250.000000	57.319	71.9463
16500.000000	56.247	73.2641
16750.000000	55.617	75.0998
17000.000000	55.478	76.7294
17250.000000	55.900	77.3961
17500.000000	56.921	76.2123
17750.000000	58.582	72.2009
18000.000000	60.712	62.7715
18250.000000	62.739	44.0966
18500.000000	63.746	14.6731
18750.000000	63.068	-18.0158
19000.000000	60.830	-42.6536
19250.000000	57.967	-57.6800
19500.000000	55.430	-72.5222
19750.000000	53.370	-107.3490
20000.000000	51.663	-163.9451
