* Measurement data measured by REW V5.20.13
* Source: EXCL: Mic in at rear panel (Pink)(Realtek(R) Audio), MICROPHONE (마스), L, volume: 1.000
* Format: 256k Log Swept Sine, 1 sweep at -12.0 dBFS with no timing reference
* Dated: 2022. 12. 31 오후 1:16:41
* REW Settings:
*  C-weighting compensation: Off
*  Target level: 75.0 dB
* Note: 
* Measurement: 12월 31
* Smoothing: 1/24 octave
* Frequency Step: 1/48 octave
* Start Frequency: 20.300 Hz
*
* Freq(Hz)	SPL(dB)	Phase(degrees)
20.299999	79.990	169.9607
20.600000	79.965	169.8321
20.900000	79.914	169.6249
21.200001	79.870	169.4751
21.400000	79.846	169.3718
21.799999	79.807	169.0648
22.000000	79.786	168.8309
22.400000	79.733	168.2057
22.700001	79.674	167.6664
23.000000	79.601	167.1555
23.299999	79.524	166.7338
23.600000	79.454	166.4063
24.000000	79.392	166.0482
24.299999	79.369	165.7463
24.700001	79.355	165.2253
25.000000	79.340	164.7854
25.400000	79.307	164.2855
25.799999	79.278	164.0408
26.200001	79.286	164.0021
26.500000	79.318	163.9602
26.900000	79.370	163.7378
27.200001	79.387	163.4820
27.600000	79.362	163.2641
28.000000	79.313	163.4840
28.500000	79.313	164.2424
29.000000	79.391	164.5928
29.500000	79.376	164.0917
30.000000	79.118	164.0838
30.400000	78.841	165.7356
30.700001	78.747	168.0103
31.100000	78.942	171.2056
31.500000	79.430	172.8659
32.000000	80.025	171.2904
32.500000	80.209	166.9143
33.000000	79.911	162.9051
33.500000	79.370	161.3267
34.000000	78.962	161.7755
34.500000	78.831	162.2540
35.000000	78.804	161.6917
35.500000	78.710	160.6536
36.000000	78.577	160.0130
36.500000	78.503	159.7540
37.000000	78.497	159.3647
37.500000	78.489	158.7537
38.200001	78.437	158.1916
38.700001	78.423	158.1294
39.500000	78.451	157.8678
40.000000	78.436	157.5505
40.599998	78.372	157.3504
41.200001	78.304	157.4022
41.799999	78.253	157.4262
42.500000	78.186	157.2077
43.099998	78.104	156.8818
43.700001	78.005	156.5207
44.400002	77.877	156.1657
45.000000	77.784	155.9993
45.500000	77.739	155.8932
46.200001	77.726	155.5409
46.799999	77.721	154.9467
47.500000	77.678	154.1686
48.200001	77.607	153.6244
48.700001	77.556	153.4167
49.400002	77.496	153.3151
50.000000	77.460	153.3319
50.799999	77.437	153.2545
51.500000	77.400	152.9453
52.200001	77.314	152.6519
53.000000	77.201	152.6316
53.799999	77.123	152.7035
54.500000	77.067	152.6338
55.200001	77.007	152.5137
56.000000	76.941	152.3417
57.000000	76.836	152.0741
58.000000	76.706	152.0954
59.000000	76.612	152.2589
60.000000	76.518	152.1796
60.799999	76.414	152.1165
61.500000	76.323	152.1742
62.200001	76.249	152.2677
63.000000	76.180	152.2796
64.000000	76.086	152.1598
65.000000	75.978	152.1724
66.000000	75.893	152.3184
67.000000	75.816	152.3929
68.000000	75.720	152.5046
69.000000	75.626	152.7586
70.000000	75.553	152.9947
71.000000	75.478	153.0919
72.000000	75.385	153.2127
73.000000	75.298	153.4650
74.000000	75.226	153.7125
75.000000	75.152	153.9464
76.199997	75.069	154.2650
77.500000	74.986	154.5268
78.800003	74.900	154.7473
80.000000	74.824	154.9197
81.199997	74.751	155.0870
82.500000	74.681	155.2911
83.800003	74.620	155.4708
85.000000	74.556	155.6306
86.199997	74.491	155.9102
87.500000	74.444	156.2602
88.500000	74.414	156.4779
90.000000	74.367	156.7953
91.199997	74.335	157.0034
92.500000	74.298	157.1154
93.800003	74.241	157.1219
95.000000	74.172	157.2339
96.199997	74.115	157.4576
97.500000	74.062	157.7162
98.800003	74.007	158.0079
100.000000	73.955	158.3689
101.500000	73.914	158.7748
103.000000	73.866	158.8917
104.400002	73.794	158.9429
106.000000	73.706	159.1297
107.500000	73.639	159.4263
109.000000	73.593	159.7246
110.599998	73.544	159.9334
112.000000	73.495	160.1461
113.800003	73.446	160.4976
115.000000	73.419	160.8133
117.199997	73.369	161.4716
118.000000	73.340	161.7427
120.599998	73.261	162.5367
122.000000	73.215	162.5749
124.099998	73.133	162.6143
125.000000	73.113	162.7024
126.500000	73.098	162.8948
128.000000	73.077	163.2130
131.500000	73.043	164.2323
132.000000	73.038	164.3086
134.000000	72.993	164.5422
136.000000	72.951	164.9933
138.000000	72.949	165.4101
140.000000	72.933	165.6973
143.000000	72.887	166.3377
145.000000	72.884	166.8031
147.500000	72.870	167.1279
150.000000	72.835	167.2847
152.500000	72.806	167.3261
155.000000	72.802	167.6167
157.500000	72.798	168.1195
160.000000	72.766	168.7601
162.500000	72.725	169.2369
165.000000	72.680	169.6426
167.500000	72.673	170.1436
170.000000	72.680	170.5028
172.500000	72.662	170.7634
175.000000	72.622	170.8869
177.500000	72.584	171.0470
180.000000	72.598	171.2750
182.500000	72.622	171.5085
185.000000	72.603	171.8789
187.500000	72.560	172.2771
190.000000	72.526	172.5600
192.500000	72.524	172.7478
195.000000	72.520	172.9628
197.500000	72.504	173.3311
200.000000	72.482	173.7986
203.000000	72.454	174.3883
206.000000	72.437	174.8167
209.000000	72.434	175.0518
212.000000	72.423	175.3672
214.000000	72.413	175.6259
218.000000	72.428	175.9729
220.000000	72.461	176.1375
224.000000	72.497	176.6599
227.000000	72.483	177.0749
230.000000	72.476	177.4133
233.000000	72.494	177.7739
236.000000	72.505	178.0779
240.000000	72.511	178.2644
243.000000	72.524	178.2207
247.000000	72.528	178.2673
250.000000	72.516	178.5527
254.000000	72.489	179.0170
258.000000	72.443	179.3044
262.000000	72.414	179.5297
265.000000	72.410	179.7198
269.000000	72.423	-179.8203
272.000000	72.440	-179.4761
276.000000	72.438	-179.1220
280.000000	72.421	-178.8087
285.000000	72.413	-178.3580
290.000000	72.398	-177.8129
295.000000	72.416	-177.2291
300.000000	72.444	-176.7251
304.000000	72.435	-176.4182
307.000000	72.425	-176.1343
311.000000	72.427	-175.6835
315.000000	72.460	-175.2815
320.000000	72.520	-174.8804
325.000000	72.593	-174.3574
330.000000	72.686	-173.8098
335.000000	72.754	-173.4102
340.000000	72.816	-173.0297
345.000000	72.879	-172.6515
350.000000	72.948	-172.2708
355.000000	73.016	-171.8495
360.000000	73.064	-171.6087
365.000000	73.108	-171.5433
370.000000	73.161	-171.4885
375.000000	73.232	-171.3201
382.000000	73.342	-171.2909
387.000000	73.404	-171.3603
395.000000	73.492	-171.4084
400.000000	73.526	-171.5730
406.000000	73.546	-171.8771
412.000000	73.581	-172.2406
418.000000	73.631	-172.7066
425.000000	73.649	-173.0558
431.000000	73.640	-173.1898
437.000000	73.629	-173.3052
444.000000	73.605	-173.4156
450.000000	73.580	-173.5057
455.000000	73.556	-173.6230
462.000000	73.529	-173.9041
468.000000	73.516	-174.1438
475.000000	73.479	-174.2750
482.000000	73.435	-174.1524
487.000000	73.401	-173.9503
494.000000	73.338	-173.7064
500.000000	73.307	-173.5855
508.000000	73.315	-173.3789
515.000000	73.330	-173.0893
522.000000	73.337	-172.8257
530.000000	73.348	-172.5997
538.000000	73.357	-172.4152
545.000000	73.358	-172.2915
552.000000	73.356	-172.2660
560.000000	73.349	-172.2877
570.000000	73.350	-172.2268
580.000000	73.355	-172.3926
590.000000	73.365	-172.4689
600.000000	73.319	-172.4248
608.000000	73.271	-172.4990
615.000000	73.230	-172.5067
622.000000	73.191	-172.3770
630.000000	73.143	-172.1569
640.000000	73.064	-171.8610
650.000000	72.996	-171.5074
660.000000	72.950	-170.9335
670.000000	72.929	-170.2433
680.000000	72.916	-169.4897
690.000000	72.893	-168.7990
700.000000	72.882	-168.2330
710.000000	72.913	-167.7635
720.000000	72.982	-167.4115
730.000000	73.036	-167.1564
740.000000	73.077	-166.9688
750.000000	73.121	-166.8439
762.000000	73.152	-166.8268
775.000000	73.180	-167.0026
788.000000	73.206	-167.0906
800.000000	73.194	-167.3376
812.000000	73.135	-167.6998
825.000000	73.047	-167.8878
838.000000	72.952	-167.9103
850.000000	72.867	-167.7469
862.000000	72.769	-167.4489
875.000000	72.666	-167.0595
885.000000	72.596	-166.7589
900.000000	72.486	-166.1054
912.000000	72.402	-165.4702
925.000000	72.322	-164.6672
938.000000	72.252	-163.9084
950.000000	72.217	-163.2932
962.000000	72.193	-162.5492
975.000000	72.175	-161.6573
988.000000	72.179	-160.7072
1000.000000	72.182	-159.7767
1015.000000	72.159	-158.7036
1030.000000	72.173	-157.6157
1044.000000	72.222	-156.6647
1060.000000	72.279	-155.7770
1075.000000	72.354	-155.1311
1090.000000	72.457	-154.5731
1106.000000	72.569	-154.2311
1120.000000	72.654	-154.1854
1138.000000	72.741	-154.0608
1150.000000	72.792	-153.8398
1172.000000	72.870	-153.4848
1180.000000	72.888	-153.4055
1206.000000	72.984	-153.1227
1220.000000	73.024	-152.9429
1241.000000	73.047	-152.7021
1250.000000	73.053	-152.5991
1265.000000	73.059	-152.4108
1280.000000	73.061	-152.1748
1315.000000	73.069	-151.7417
1320.000000	73.073	-151.7092
1340.000000	73.086	-151.4639
1360.000000	73.055	-150.8671
1380.000000	73.006	-150.1422
1400.000000	72.988	-149.2893
1430.000000	73.031	-148.0966
1450.000000	73.092	-147.4861
1475.000000	73.223	-146.7543
1500.000000	73.377	-146.0569
1525.000000	73.502	-145.5543
1550.000000	73.597	-145.2533
1575.000000	73.705	-144.9611
1600.000000	73.812	-144.5590
1625.000000	73.866	-144.0602
1650.000000	73.895	-143.7631
1675.000000	73.941	-143.6551
1700.000000	73.988	-143.6078
1725.000000	74.027	-143.2886
1750.000000	74.084	-142.6933
1775.000000	74.157	-142.1504
1800.000000	74.223	-141.7222
1825.000000	74.307	-141.3661
1850.000000	74.383	-141.0937
1875.000000	74.428	-140.9071
1900.000000	74.458	-140.7262
1925.000000	74.466	-140.6640
1950.000000	74.476	-140.4910
1975.000000	74.500	-140.1237
2000.000000	74.514	-139.7756
2030.000000	74.546	-139.4923
2060.000000	74.590	-139.0128
2090.000000	74.626	-138.2981
2120.000000	74.634	-137.6324
2140.000000	74.640	-137.2547
2180.000000	74.682	-136.2816
2200.000000	74.729	-135.6550
2240.000000	74.867	-134.5012
2270.000000	74.957	-133.8533
2300.000000	75.045	-133.2812
2330.000000	75.169	-132.7689
2360.000000	75.301	-132.2413
2400.000000	75.459	-131.3137
2430.000000	75.583	-130.5164
2470.000000	75.774	-129.5591
2500.000000	75.919	-128.8661
2540.000000	76.123	-127.8589
2580.000000	76.362	-126.8755
2620.000000	76.610	-126.3659
2650.000000	76.803	-126.4178
2690.000000	77.050	-126.7308
2720.000000	77.222	-126.9867
2760.000000	77.453	-127.5647
2800.000000	77.693	-128.2564
2850.000000	77.976	-129.1875
2900.000000	78.215	-130.0502
2950.000000	78.442	-131.1324
3000.000000	78.677	-132.6254
3040.000000	78.826	-133.9621
3070.000000	78.921	-134.9443
3110.000000	79.023	-136.2334
3150.000000	79.096	-137.6363
3200.000000	79.135	-139.5293
3250.000000	79.125	-141.3022
3300.000000	79.102	-142.8995
3350.000000	79.062	-144.4119
3400.000000	78.993	-145.8006
3450.000000	78.900	-147.0325
3500.000000	78.808	-148.0621
3550.000000	78.713	-149.0374
3600.000000	78.597	-149.8447
3650.000000	78.470	-150.3078
3700.000000	78.325	-150.7428
3750.000000	78.187	-151.1517
3820.000000	78.021	-151.2960
3870.000000	77.921	-151.3416
3950.000000	77.742	-151.5252
4000.000000	77.630	-151.4791
4060.000000	77.512	-151.2740
4120.000000	77.400	-151.0908
4180.000000	77.299	-150.8254
4250.000000	77.200	-150.3975
4310.000000	77.112	-150.0207
4370.000000	77.023	-149.6168
4440.000000	76.927	-149.1194
4500.000000	76.840	-148.6830
4550.000000	76.757	-148.3039
4620.000000	76.636	-147.7706
4680.000000	76.542	-147.2241
4750.000000	76.442	-146.4925
4820.000000	76.376	-145.7458
4870.000000	76.342	-145.1241
4940.000000	76.295	-144.1000
5000.000000	76.259	-143.1393
5080.000000	76.231	-141.8634
5150.000000	76.249	-140.7843
5220.000000	76.298	-139.7480
5300.000000	76.348	-138.7433
5380.000000	76.397	-137.6818
5450.000000	76.458	-136.7051
5520.000000	76.538	-135.7064
5600.000000	76.650	-134.4108
5700.000000	76.845	-132.7266
5800.000000	77.124	-131.0883
5900.000000	77.531	-129.5543
6000.000000	78.082	-128.7823
6080.000000	78.591	-128.7430
6150.000000	79.072	-129.2321
6220.000000	79.555	-130.4047
6300.000000	80.064	-132.6202
6400.000000	80.590	-136.5016
6500.000000	80.950	-141.3157
6600.000000	81.085	-146.5065
6700.000000	81.033	-151.5608
6800.000000	80.839	-155.7884
6900.000000	80.563	-158.9225
7000.000000	80.292	-161.1545
7100.000000	80.090	-162.8328
7200.000000	79.980	-164.1746
7300.000000	79.957	-165.3784
7400.000000	79.959	-166.8001
7500.000000	79.971	-168.5128
7620.000000	80.020	-170.9015
7750.000000	80.096	-173.8008
7880.000000	80.159	-177.0493
8000.000000	80.221	179.2290
8120.000000	80.237	174.5849
8250.000000	80.092	168.6699
8380.000000	79.728	162.1458
8500.000000	79.185	156.1375
8620.000000	78.434	150.7333
8750.000000	77.437	145.9882
8850.000000	76.595	143.2419
9000.000000	75.282	140.5965
9120.000000	74.238	139.6686
9250.000000	73.162	139.5625
9380.000000	72.153	140.1912
9500.000000	71.287	141.3343
9620.000000	70.496	142.8925
9750.000000	69.723	144.8916
9880.000000	69.025	147.1248
10000.000000	68.453	149.4004
10150.000000	67.813	152.2772
10300.000000	67.228	155.0772
10440.000000	66.746	157.7513
10600.000000	66.262	160.9013
10750.000000	65.856	164.1129
10900.000000	65.518	167.8759
11060.000000	65.311	172.1705
11200.000000	65.282	175.7834
11380.000000	65.516	179.6503
11500.000000	65.828	-178.6973
11720.000000	66.477	-178.2794
11800.000000	66.669	-179.0793
12060.000000	66.893	175.9359
12200.000000	66.694	172.9800
12410.000000	66.013	169.7180
12500.000000	65.622	169.0450
12650.000000	64.931	169.2317
12800.000000	64.295	171.1515
13150.000000	63.508	-179.5141
13200.000000	63.510	-177.8830
13400.000000	63.863	-171.3624
13600.000000	64.793	-165.8363
13800.000000	66.219	-162.6242
14000.000000	67.988	-162.6642
14300.000000	70.972	-170.5097
14500.000000	72.772	177.2704
14750.000000	74.096	153.7851
15000.000000	73.893	126.6466
15250.000000	72.345	104.0663
15500.000000	70.112	89.2185
15750.000000	67.831	80.4838
16000.000000	65.791	76.2076
16250.000000	64.134	75.0449
16500.000000	62.973	75.4406
16750.000000	62.344	76.1810
17000.000000	62.181	76.3229
17250.000000	62.443	75.0584
17500.000000	63.122	71.6380
17750.000000	64.144	65.3202
18000.000000	65.407	53.6887
18250.000000	66.470	29.3181
18500.000000	66.606	-65.4650
18750.000000	65.236	32.3151
19000.000000	61.971	-137.3291
19250.000000	56.407	-152.1719
19500.000000	48.871	-4.2891
19750.000000	41.719	-89.6641
20000.000000	38.622	-67.9727
