* Measurement data measured by REW V5.20.13
* Source: EXCL: Mic in at rear panel (Pink)(Realtek(R) Audio), MICROPHONE (마스), L, volume: 1.000
* Format: 256k Log Swept Sine, 1 sweep at -12.0 dBFS with no timing reference
* Dated: 2022. 12. 31 오후 6:49:14
* REW Settings:
*  C-weighting compensation: Off
*  Target level: 75.0 dB
* Note: 
* Measurement: 12월 31
* Smoothing: 1/24 octave
* Frequency Step: 1/48 octave
* Start Frequency: 20.300 Hz
*
* Freq(Hz)	SPL(dB)	Phase(degrees)
20.299999	86.537	-132.3153
20.600000	86.584	-132.6174
20.900000	86.675	-133.1460
21.200001	86.750	-133.6188
21.400000	86.794	-133.9051
21.799999	86.878	-134.4589
22.000000	86.920	-134.7469
22.400000	87.004	-135.3651
22.700001	87.065	-135.8694
23.000000	87.123	-136.4009
23.299999	87.177	-136.9385
23.600000	87.230	-137.4644
24.000000	87.306	-138.1340
24.299999	87.371	-138.6243
24.700001	87.471	-139.3039
25.000000	87.551	-139.8648
25.400000	87.655	-140.6955
25.799999	87.748	-141.5798
26.200001	87.824	-142.4364
26.500000	87.875	-143.0193
26.900000	87.939	-143.7062
27.200001	87.987	-144.1751
27.600000	88.052	-144.7791
28.000000	88.113	-145.3722
28.500000	88.179	-146.0333
29.000000	88.253	-146.5417
29.500000	88.358	-147.0250
30.000000	88.485	-147.7692
30.400000	88.571	-148.6404
30.700001	88.609	-149.3973
31.100000	88.620	-150.3723
31.500000	88.599	-151.1531
32.000000	88.573	-151.7978
32.500000	88.580	-152.2796
33.000000	88.615	-152.8652
33.500000	88.648	-153.5950
34.000000	88.664	-154.3361
34.500000	88.674	-155.0067
35.000000	88.687	-155.6517
35.500000	88.697	-156.3144
36.000000	88.697	-156.9353
36.500000	88.695	-157.4398
37.000000	88.710	-157.8666
37.500000	88.742	-158.3378
38.200001	88.786	-159.1585
38.700001	88.805	-159.7579
39.500000	88.842	-160.5998
40.000000	88.880	-161.1511
40.599998	88.926	-161.9172
41.200001	88.959	-162.7087
41.799999	88.987	-163.4337
42.500000	89.025	-164.2567
43.099998	89.050	-165.0110
43.700001	89.053	-165.7162
44.400002	89.046	-166.3483
45.000000	89.047	-166.7988
45.500000	89.048	-167.2023
46.200001	89.032	-167.7645
46.799999	89.010	-168.1335
47.500000	89.006	-168.5261
48.200001	89.012	-169.1004
48.700001	89.002	-169.5895
49.400002	88.969	-170.1703
50.000000	88.949	-170.5233
50.799999	88.954	-170.9504
51.500000	88.979	-171.3535
52.200001	89.021	-171.7931
53.000000	89.076	-172.4181
53.799999	89.118	-173.1465
54.500000	89.139	-173.8331
55.200001	89.137	-174.6064
56.000000	89.086	-175.4561
57.000000	88.990	-176.1349
58.000000	88.924	-176.6245
59.000000	88.889	-177.1519
60.000000	88.893	-177.8460
60.799999	88.898	-178.6303
61.500000	88.886	-179.3396
62.200001	88.866	-179.9564
63.000000	88.842	179.4240
64.000000	88.798	178.7558
65.000000	88.746	178.3123
66.000000	88.706	177.8978
67.000000	88.645	177.3675
68.000000	88.562	176.9685
69.000000	88.503	176.6382
70.000000	88.464	176.2049
71.000000	88.433	175.6784
72.000000	88.397	175.1462
73.000000	88.361	174.7425
74.000000	88.337	174.3878
75.000000	88.307	173.9943
76.199997	88.256	173.5485
77.500000	88.191	173.0428
78.800003	88.109	172.5760
80.000000	88.051	172.3266
81.199997	88.041	171.9951
82.500000	88.024	171.3485
83.800003	87.967	170.7952
85.000000	87.907	170.4368
86.199997	87.847	170.1158
87.500000	87.780	169.7652
88.500000	87.728	169.5200
90.000000	87.671	169.1928
91.199997	87.636	168.8724
92.500000	87.596	168.5766
93.800003	87.563	168.3065
95.000000	87.523	168.0048
96.199997	87.469	167.7028
97.500000	87.401	167.3763
98.800003	87.328	167.0901
100.000000	87.270	166.9030
101.500000	87.213	166.6721
103.000000	87.149	166.4508
104.400002	87.084	166.2903
106.000000	87.011	166.0767
107.500000	86.945	165.8491
109.000000	86.891	165.6787
110.599998	86.841	165.6038
112.000000	86.790	165.5745
113.800003	86.688	165.5226
115.000000	86.615	165.3973
117.199997	86.517	164.6301
118.000000	86.486	164.1646
120.599998	86.321	163.8073
122.000000	86.342	164.6409
124.099998	86.414	165.3732
125.000000	86.411	165.5339
126.500000	86.378	165.6336
128.000000	86.333	165.4886
131.500000	86.270	165.0952
132.000000	86.270	165.0982
134.000000	86.260	165.1800
136.000000	86.215	165.3106
138.000000	86.155	165.3643
140.000000	86.101	165.2991
143.000000	86.038	165.2229
145.000000	86.002	165.2272
147.500000	85.960	165.1923
150.000000	85.915	165.0746
152.500000	85.877	165.0208
155.000000	85.861	164.9787
157.500000	85.850	164.9549
160.000000	85.825	165.0373
162.500000	85.782	165.2310
165.000000	85.731	165.3949
167.500000	85.693	165.4391
170.000000	85.682	165.3481
172.500000	85.679	165.2188
175.000000	85.658	165.1511
177.500000	85.627	165.1125
180.000000	85.605	165.0197
182.500000	85.596	164.9524
185.000000	85.590	164.9985
187.500000	85.576	165.1162
190.000000	85.560	165.2030
192.500000	85.554	165.1697
195.000000	85.554	165.0249
197.500000	85.553	164.8572
200.000000	85.550	164.7333
203.000000	85.541	164.6635
206.000000	85.529	164.5863
209.000000	85.513	164.4578
212.000000	85.495	164.2914
214.000000	85.483	164.1631
218.000000	85.474	163.9353
220.000000	85.476	163.8557
224.000000	85.464	163.6799
227.000000	85.440	163.4579
230.000000	85.417	163.2351
233.000000	85.401	163.0264
236.000000	85.386	162.7600
240.000000	85.380	162.3214
243.000000	85.380	161.9589
247.000000	85.362	161.5418
250.000000	85.342	161.4156
254.000000	85.305	161.3835
258.000000	85.241	161.1996
262.000000	85.182	160.7883
265.000000	85.150	160.4600
269.000000	85.099	160.0903
272.000000	85.058	159.8524
276.000000	85.018	159.5143
280.000000	84.979	159.1569
285.000000	84.915	158.7166
290.000000	84.861	158.3411
295.000000	84.807	158.0349
300.000000	84.750	157.7481
304.000000	84.697	157.5306
307.000000	84.647	157.3254
311.000000	84.574	157.0116
315.000000	84.508	156.7384
320.000000	84.433	156.4587
325.000000	84.358	156.1564
330.000000	84.301	155.9485
335.000000	84.236	155.8688
340.000000	84.154	155.7301
345.000000	84.068	155.5159
350.000000	83.972	155.3036
355.000000	83.868	155.1484
360.000000	83.767	155.0756
365.000000	83.664	154.9959
370.000000	83.565	154.9044
375.000000	83.471	154.8498
382.000000	83.345	154.8553
387.000000	83.259	154.8799
395.000000	83.109	154.9651
400.000000	83.012	155.0727
406.000000	82.898	155.1874
412.000000	82.794	155.2181
418.000000	82.704	155.2904
425.000000	82.583	155.5509
431.000000	82.474	155.8115
437.000000	82.385	156.0681
444.000000	82.287	156.3724
450.000000	82.198	156.5991
455.000000	82.120	156.7619
462.000000	82.016	156.9524
468.000000	81.944	157.1233
475.000000	81.867	157.3842
482.000000	81.785	157.7216
487.000000	81.719	158.0257
494.000000	81.612	158.4037
500.000000	81.534	158.6122
508.000000	81.463	158.9171
515.000000	81.408	159.2830
522.000000	81.352	159.6414
530.000000	81.280	160.0516
538.000000	81.200	160.5157
545.000000	81.124	160.8336
552.000000	81.051	161.0389
560.000000	80.966	161.2985
570.000000	80.871	161.6571
580.000000	80.805	162.0128
590.000000	80.756	162.5648
600.000000	80.665	162.9996
608.000000	80.584	163.2312
615.000000	80.512	163.4591
622.000000	80.444	163.7540
630.000000	80.372	164.1434
640.000000	80.279	164.5746
650.000000	80.180	164.9053
660.000000	80.093	165.3115
670.000000	80.010	165.9120
680.000000	79.905	166.5812
690.000000	79.774	167.0900
700.000000	79.644	167.5669
710.000000	79.537	168.1030
720.000000	79.453	168.6540
730.000000	79.349	169.2722
740.000000	79.225	169.9791
750.000000	79.119	170.7781
762.000000	79.020	171.7641
775.000000	78.921	172.7864
788.000000	78.822	173.8730
800.000000	78.738	174.8478
812.000000	78.645	175.8813
825.000000	78.553	177.0437
838.000000	78.493	178.2706
850.000000	78.449	179.4774
862.000000	78.403	-179.3126
875.000000	78.361	-178.0625
885.000000	78.340	-177.1203
900.000000	78.300	-175.6216
912.000000	78.270	-174.4458
925.000000	78.240	-173.2532
938.000000	78.235	-172.0608
950.000000	78.261	-170.9133
962.000000	78.283	-169.7296
975.000000	78.307	-168.4502
988.000000	78.338	-167.1356
1000.000000	78.381	-165.9924
1015.000000	78.472	-164.7264
1030.000000	78.572	-163.5840
1044.000000	78.671	-162.5961
1060.000000	78.770	-161.6458
1075.000000	78.851	-160.8284
1090.000000	78.949	-160.0152
1106.000000	79.072	-159.2999
1120.000000	79.177	-158.8833
1138.000000	79.295	-158.2962
1150.000000	79.379	-157.8194
1172.000000	79.534	-157.0257
1180.000000	79.584	-156.7837
1206.000000	79.784	-156.1103
1220.000000	79.889	-155.7637
1241.000000	80.005	-155.3036
1250.000000	80.042	-155.1187
1265.000000	80.099	-154.8078
1280.000000	80.163	-154.4409
1315.000000	80.330	-153.7074
1320.000000	80.357	-153.6354
1340.000000	80.465	-153.3474
1360.000000	80.545	-152.9774
1380.000000	80.621	-152.6244
1400.000000	80.717	-152.2947
1430.000000	80.837	-152.0268
1450.000000	80.910	-151.8839
1475.000000	81.038	-151.5942
1500.000000	81.147	-151.2466
1525.000000	81.249	-150.8018
1550.000000	81.370	-150.4664
1575.000000	81.502	-150.2058
1600.000000	81.642	-149.8310
1625.000000	81.755	-149.3753
1650.000000	81.843	-149.1192
1675.000000	81.950	-149.1243
1700.000000	82.061	-149.1950
1725.000000	82.169	-149.1848
1750.000000	82.278	-149.0399
1775.000000	82.392	-148.9111
1800.000000	82.494	-148.8081
1825.000000	82.603	-148.7163
1850.000000	82.694	-148.6292
1875.000000	82.763	-148.5863
1900.000000	82.837	-148.5920
1925.000000	82.900	-148.7397
1950.000000	82.980	-148.8441
1975.000000	83.072	-148.8095
2000.000000	83.147	-148.8578
2030.000000	83.244	-149.1278
2060.000000	83.362	-149.2073
2090.000000	83.485	-149.1302
2120.000000	83.589	-149.2549
2140.000000	83.657	-149.4919
2180.000000	83.809	-150.0258
2200.000000	83.893	-150.2561
2240.000000	84.050	-150.8552
2270.000000	84.112	-151.4910
2300.000000	84.160	-152.1067
2330.000000	84.243	-152.7528
2360.000000	84.332	-153.4079
2400.000000	84.400	-154.0845
2430.000000	84.434	-154.4832
2470.000000	84.484	-155.1215
2500.000000	84.510	-155.6271
2540.000000	84.535	-156.1649
2580.000000	84.559	-156.5802
2620.000000	84.574	-157.1114
2650.000000	84.602	-157.6350
2690.000000	84.665	-158.3248
2720.000000	84.710	-158.8450
2760.000000	84.765	-159.7960
2800.000000	84.824	-160.8638
2850.000000	84.868	-162.2334
2900.000000	84.840	-163.5065
2950.000000	84.772	-164.7227
3000.000000	84.723	-165.9412
3040.000000	84.667	-166.8653
3070.000000	84.616	-167.4777
3110.000000	84.537	-168.2263
3150.000000	84.447	-169.0005
3200.000000	84.314	-169.9081
3250.000000	84.173	-170.6728
3300.000000	84.042	-171.4032
3350.000000	83.910	-172.0708
3400.000000	83.769	-172.6475
3450.000000	83.628	-173.1843
3500.000000	83.506	-173.6722
3550.000000	83.386	-174.1817
3600.000000	83.244	-174.5933
3650.000000	83.085	-174.8098
3700.000000	82.903	-175.0409
3750.000000	82.719	-175.2320
3820.000000	82.487	-175.0565
3870.000000	82.335	-174.8778
3950.000000	82.079	-174.6345
4000.000000	81.935	-174.3600
4060.000000	81.785	-173.9894
4120.000000	81.630	-173.6580
4180.000000	81.478	-173.2304
4250.000000	81.302	-172.6349
4310.000000	81.149	-172.1351
4370.000000	80.993	-171.5852
4440.000000	80.821	-170.8374
4500.000000	80.675	-170.1102
4550.000000	80.554	-169.5046
4620.000000	80.390	-168.6993
4680.000000	80.262	-167.9415
4750.000000	80.125	-167.0251
4820.000000	80.000	-166.1041
4870.000000	79.924	-165.2880
4940.000000	79.855	-163.8627
5000.000000	79.850	-162.7017
5080.000000	79.877	-161.7850
5150.000000	79.876	-161.3992
5220.000000	79.842	-160.9676
5300.000000	79.786	-160.4162
5380.000000	79.754	-159.7790
5450.000000	79.748	-159.4023
5520.000000	79.745	-159.2727
5600.000000	79.711	-159.1591
5700.000000	79.608	-158.9716
5800.000000	79.455	-158.4429
5900.000000	79.329	-157.4698
6000.000000	79.279	-156.4918
6080.000000	79.285	-155.5577
6150.000000	79.330	-154.6523
6220.000000	79.419	-153.8904
6300.000000	79.564	-153.3696
6400.000000	79.777	-153.3515
6500.000000	79.975	-154.1753
6600.000000	80.088	-155.6589
6700.000000	80.117	-157.6131
6800.000000	80.056	-159.5587
6900.000000	79.897	-161.2115
7000.000000	79.673	-162.4815
7100.000000	79.417	-163.3643
7200.000000	79.147	-163.6835
7300.000000	78.896	-163.3683
7400.000000	78.652	-162.6448
7500.000000	78.445	-161.5338
7620.000000	78.295	-159.8044
7750.000000	78.266	-157.6509
7880.000000	78.331	-155.3375
8000.000000	78.510	-153.3486
8120.000000	78.807	-151.6998
8250.000000	79.230	-150.4883
8380.000000	79.761	-150.3033
8500.000000	80.335	-151.3354
8620.000000	80.936	-153.6859
8750.000000	81.530	-157.9792
8850.000000	81.894	-162.6745
9000.000000	82.132	-171.6871
9120.000000	81.968	-179.7429
9250.000000	81.419	171.9770
9380.000000	80.539	165.2491
9500.000000	79.547	160.8391
9620.000000	78.501	158.1379
9750.000000	77.405	156.7922
9880.000000	76.431	156.5783
10000.000000	75.665	156.9315
10150.000000	74.820	157.5249
10300.000000	74.008	158.1697
10440.000000	73.266	159.0803
10600.000000	72.483	160.4721
10750.000000	71.816	162.0869
10900.000000	71.197	164.0194
11060.000000	70.583	166.2859
11200.000000	70.086	168.3271
11380.000000	69.541	171.0625
11500.000000	69.244	172.9554
11720.000000	68.778	176.5266
11800.000000	68.628	177.8399
12060.000000	68.226	-178.0423
12200.000000	68.062	-175.7197
12410.000000	67.870	-172.3474
12500.000000	67.804	-170.9834
12650.000000	67.728	-168.7940
12800.000000	67.709	-166.7169
13150.000000	67.879	-162.6150
13200.000000	67.925	-162.0926
13400.000000	68.153	-160.1141
13600.000000	68.461	-158.6042
13800.000000	68.876	-157.5685
14000.000000	69.370	-157.1037
14300.000000	70.295	-156.9191
14500.000000	71.113	-157.4298
14750.000000	72.413	-159.4644
15000.000000	74.001	-164.2312
15250.000000	75.751	-173.2734
15500.000000	77.300	172.1374
15750.000000	78.190	152.2602
16000.000000	78.096	130.8020
16250.000000	77.139	112.5832
16500.000000	75.770	99.3235
16750.000000	74.424	89.8808
17000.000000	73.312	82.5341
17250.000000	72.466	76.0285
17500.000000	71.870	69.5862
17750.000000	71.477	62.7366
18000.000000	71.217	54.8575
18250.000000	71.054	41.7514
18500.000000	70.957	-25.1052
18750.000000	70.558	179.4584
19000.000000	68.695	30.8469
19250.000000	64.072	-155.0391
19500.000000	56.743	75.3945
19750.000000	47.979	-58.0938
20000.000000	40.910	39.2734
