* Measurement data measured by REW V5.20.13
* Source: EXCL: Mic in at rear panel (Pink)(Realtek(R) Audio), MICROPHONE (마스), L, volume: 1.000
* Format: 256k Log Swept Sine, 1 sweep at -12.0 dBFS with no timing reference
* Dated: 2022. 12. 31 오후 12:29:57
* REW Settings:
*  C-weighting compensation: Off
*  Target level: 75.0 dB
* Note: 
* Measurement: 12월 31
* Smoothing: 1/24 octave
* Frequency Step: 1/48 octave
* Start Frequency: 20.300 Hz
*
* Freq(Hz)	SPL(dB)	Phase(degrees)
20.299999	85.038	176.4191
20.600000	85.038	176.3485
20.900000	85.037	176.2108
21.200001	85.029	176.0490
21.400000	85.018	175.9315
21.799999	84.986	175.6879
22.000000	84.966	175.5703
22.400000	84.925	175.3582
22.700001	84.897	175.2117
23.000000	84.875	175.0542
23.299999	84.858	174.8638
23.600000	84.844	174.6342
24.000000	84.824	174.2844
24.299999	84.807	174.0266
24.700001	84.784	173.7420
25.000000	84.771	173.5898
25.400000	84.768	173.4465
25.799999	84.783	173.3033
26.200001	84.807	173.1015
26.500000	84.823	172.9139
26.900000	84.835	172.6579
27.200001	84.838	172.4945
27.600000	84.838	172.3247
28.000000	84.840	172.1672
28.500000	84.836	171.9194
29.000000	84.807	171.6738
29.500000	84.756	171.6033
30.000000	84.718	171.7600
30.400000	84.717	171.9078
30.700001	84.731	171.9285
31.100000	84.753	171.7675
31.500000	84.757	171.4367
32.000000	84.725	170.9880
32.500000	84.673	170.6897
33.000000	84.637	170.5197
33.500000	84.624	170.3206
34.000000	84.615	170.0178
34.500000	84.596	169.6905
35.000000	84.572	169.4287
35.500000	84.556	169.2270
36.000000	84.549	169.0195
36.500000	84.545	168.7766
37.000000	84.535	168.5197
37.500000	84.521	168.2766
38.200001	84.496	167.9739
38.700001	84.477	167.7769
39.500000	84.448	167.4523
40.000000	84.427	167.2265
40.599998	84.398	166.9554
41.200001	84.368	166.7179
41.799999	84.346	166.4864
42.500000	84.329	166.1409
43.099998	84.310	165.7665
43.700001	84.278	165.3802
44.400002	84.228	165.0026
45.000000	84.184	164.7661
45.500000	84.152	164.5926
46.200001	84.109	164.3103
46.799999	84.062	164.0343
47.500000	83.993	163.7778
48.200001	83.928	163.6321
48.700001	83.893	163.5419
49.400002	83.854	163.3512
50.000000	83.819	163.1233
50.799999	83.766	162.8002
51.500000	83.719	162.5596
52.200001	83.679	162.3405
53.000000	83.634	162.0549
53.799999	83.575	161.7841
54.500000	83.513	161.6366
55.200001	83.452	161.5384
56.000000	83.378	161.4342
57.000000	83.280	161.3792
58.000000	83.193	161.3154
59.000000	83.098	161.1444
60.000000	82.994	161.0724
60.799999	82.929	161.0842
61.500000	82.889	161.0608
62.200001	82.851	160.9908
63.000000	82.799	160.8990
64.000000	82.718	160.8760
65.000000	82.637	161.0063
66.000000	82.562	161.1586
67.000000	82.477	161.2791
68.000000	82.389	161.4301
69.000000	82.313	161.5277
70.000000	82.239	161.4995
71.000000	82.158	161.4837
72.000000	82.089	161.5758
73.000000	82.037	161.6786
74.000000	81.984	161.7921
75.000000	81.930	162.0036
76.199997	81.876	162.2950
77.500000	81.818	162.5138
78.800003	81.751	162.6937
80.000000	81.693	162.8064
81.199997	81.634	162.8478
82.500000	81.564	162.9583
83.800003	81.511	163.2059
85.000000	81.473	163.4185
86.199997	81.431	163.6461
87.500000	81.385	163.9228
88.500000	81.348	164.1290
90.000000	81.295	164.3997
91.199997	81.254	164.5436
92.500000	81.214	164.6602
93.800003	81.183	164.7252
95.000000	81.151	164.7499
96.199997	81.113	164.8233
97.500000	81.070	164.9731
98.800003	81.024	165.1479
100.000000	80.982	165.3291
101.500000	80.933	165.4764
103.000000	80.876	165.5746
104.400002	80.829	165.7329
106.000000	80.789	165.9260
107.500000	80.753	166.1796
109.000000	80.724	166.4596
110.599998	80.686	166.7106
112.000000	80.646	166.8976
113.800003	80.593	167.1175
115.000000	80.561	167.2613
117.199997	80.507	167.5652
118.000000	80.490	167.6917
120.599998	80.424	168.1526
122.000000	80.391	168.4562
124.099998	80.350	168.8280
125.000000	80.331	168.9690
126.500000	80.301	169.2224
128.000000	80.275	169.4875
131.500000	80.228	170.1509
132.000000	80.223	170.2428
134.000000	80.209	170.6039
136.000000	80.201	170.9298
138.000000	80.184	171.1709
140.000000	80.148	171.4348
143.000000	80.094	171.9104
145.000000	80.067	172.2553
147.500000	80.049	172.6516
150.000000	80.042	172.9801
152.500000	80.048	173.2820
155.000000	80.062	173.6104
157.500000	80.073	173.9746
160.000000	80.068	174.2942
162.500000	80.038	174.6223
165.000000	80.004	174.9745
167.500000	79.984	175.2179
170.000000	79.977	175.3224
172.500000	79.973	175.4620
175.000000	79.963	175.7120
177.500000	79.949	175.8934
180.000000	79.928	175.9614
182.500000	79.907	176.1530
185.000000	79.894	176.4998
187.500000	79.876	176.8640
190.000000	79.858	177.1965
192.500000	79.849	177.4807
195.000000	79.845	177.7591
197.500000	79.841	178.0596
200.000000	79.831	178.3795
203.000000	79.814	178.8021
206.000000	79.800	179.2134
209.000000	79.791	179.6377
212.000000	79.791	-179.9697
214.000000	79.795	-179.7899
218.000000	79.800	-179.4988
220.000000	79.810	-179.3058
224.000000	79.846	-178.9461
227.000000	79.869	-178.7319
230.000000	79.875	-178.5031
233.000000	79.874	-178.2516
236.000000	79.880	-178.0386
240.000000	79.897	-177.8141
243.000000	79.912	-177.6907
247.000000	79.934	-177.5171
250.000000	79.938	-177.2962
254.000000	79.922	-176.9034
258.000000	79.893	-176.6608
262.000000	79.867	-176.5682
265.000000	79.856	-176.3956
269.000000	79.847	-176.0610
272.000000	79.846	-175.8330
276.000000	79.859	-175.5568
280.000000	79.875	-175.3000
285.000000	79.883	-174.8356
290.000000	79.887	-174.3003
295.000000	79.914	-173.8353
300.000000	79.944	-173.3680
304.000000	79.965	-172.9852
307.000000	79.981	-172.6990
311.000000	80.003	-172.3687
315.000000	80.031	-172.0697
320.000000	80.064	-171.6068
325.000000	80.108	-171.1188
330.000000	80.192	-170.6630
335.000000	80.274	-170.1565
340.000000	80.337	-169.7675
345.000000	80.409	-169.4975
350.000000	80.477	-169.2863
355.000000	80.534	-169.1221
360.000000	80.596	-168.9432
365.000000	80.668	-168.7820
370.000000	80.746	-168.7366
375.000000	80.817	-168.7891
382.000000	80.910	-168.8820
387.000000	80.979	-168.9490
395.000000	81.081	-169.1175
400.000000	81.129	-169.2917
406.000000	81.167	-169.6338
412.000000	81.203	-170.1137
418.000000	81.235	-170.4772
425.000000	81.247	-170.7513
431.000000	81.237	-171.0620
437.000000	81.236	-171.3630
444.000000	81.233	-171.6461
450.000000	81.220	-171.9393
455.000000	81.204	-172.1449
462.000000	81.174	-172.3862
468.000000	81.145	-172.5705
475.000000	81.112	-172.6699
482.000000	81.076	-172.6272
487.000000	81.035	-172.5176
494.000000	80.966	-172.3842
500.000000	80.933	-172.3459
508.000000	80.932	-172.2396
515.000000	80.939	-172.0376
522.000000	80.950	-171.8499
530.000000	80.968	-171.6724
538.000000	80.967	-171.4061
545.000000	80.952	-171.2937
552.000000	80.946	-171.3400
560.000000	80.950	-171.4183
570.000000	80.950	-171.5555
580.000000	80.953	-171.7470
590.000000	80.957	-171.8372
600.000000	80.905	-171.8836
608.000000	80.843	-171.9591
615.000000	80.786	-171.9542
622.000000	80.737	-171.8617
630.000000	80.681	-171.6683
640.000000	80.601	-171.4036
650.000000	80.524	-171.1123
660.000000	80.467	-170.6258
670.000000	80.433	-169.8688
680.000000	80.400	-169.0355
690.000000	80.370	-168.3185
700.000000	80.356	-167.7498
710.000000	80.396	-167.2486
720.000000	80.474	-166.8638
730.000000	80.528	-166.5747
740.000000	80.564	-166.3954
750.000000	80.606	-166.3028
762.000000	80.652	-166.2657
775.000000	80.678	-166.4042
788.000000	80.678	-166.6562
800.000000	80.658	-166.8845
812.000000	80.605	-167.0343
825.000000	80.532	-167.1400
838.000000	80.447	-167.1662
850.000000	80.367	-167.0507
862.000000	80.288	-166.7694
875.000000	80.210	-166.3650
885.000000	80.152	-166.0137
900.000000	80.055	-165.2932
912.000000	79.986	-164.6251
925.000000	79.911	-163.8988
938.000000	79.857	-163.2115
950.000000	79.846	-162.5965
962.000000	79.841	-161.9201
975.000000	79.831	-161.1149
988.000000	79.828	-160.3161
1000.000000	79.829	-159.5819
1015.000000	79.836	-158.6082
1030.000000	79.874	-157.6330
1044.000000	79.941	-156.7853
1060.000000	80.022	-156.0156
1075.000000	80.094	-155.4760
1090.000000	80.178	-155.0322
1106.000000	80.288	-154.7943
1120.000000	80.374	-154.8418
1138.000000	80.454	-154.8929
1150.000000	80.501	-154.8835
1172.000000	80.563	-154.9302
1180.000000	80.572	-154.9611
1206.000000	80.622	-154.9953
1220.000000	80.646	-154.9326
1241.000000	80.653	-154.7996
1250.000000	80.648	-154.7184
1265.000000	80.633	-154.5475
1280.000000	80.623	-154.3270
1315.000000	80.576	-153.9457
1320.000000	80.569	-153.9144
1340.000000	80.541	-153.7080
1360.000000	80.483	-153.1985
1380.000000	80.427	-152.4520
1400.000000	80.417	-151.5818
1430.000000	80.427	-150.3534
1450.000000	80.468	-149.6277
1475.000000	80.586	-148.9182
1500.000000	80.689	-148.2412
1525.000000	80.775	-147.6283
1550.000000	80.866	-147.2596
1575.000000	80.951	-146.9547
1600.000000	81.036	-146.4904
1625.000000	81.088	-145.9442
1650.000000	81.105	-145.5601
1675.000000	81.136	-145.3401
1700.000000	81.171	-145.1387
1725.000000	81.206	-144.7869
1750.000000	81.248	-144.2295
1775.000000	81.295	-143.6526
1800.000000	81.344	-143.1212
1825.000000	81.409	-142.6325
1850.000000	81.456	-142.1967
1875.000000	81.480	-141.8558
1900.000000	81.502	-141.5944
1925.000000	81.502	-141.4270
1950.000000	81.507	-141.1262
1975.000000	81.525	-140.6197
2000.000000	81.527	-140.1503
2030.000000	81.535	-139.7456
2060.000000	81.545	-139.0424
2090.000000	81.550	-137.9443
2120.000000	81.531	-136.7823
2140.000000	81.518	-136.0497
2180.000000	81.541	-134.4880
2200.000000	81.584	-133.6742
2240.000000	81.703	-132.2951
2270.000000	81.785	-131.5246
2300.000000	81.874	-130.7808
2330.000000	82.005	-130.0400
2360.000000	82.148	-129.2528
2400.000000	82.324	-127.9631
2430.000000	82.479	-126.9109
2470.000000	82.721	-125.7258
2500.000000	82.911	-124.9932
2540.000000	83.177	-124.1002
2580.000000	83.462	-123.3360
2620.000000	83.738	-122.9692
2650.000000	83.956	-122.9855
2690.000000	84.252	-123.1194
2720.000000	84.456	-123.1862
2760.000000	84.722	-123.4551
2800.000000	85.019	-123.8037
2850.000000	85.403	-124.3797
2900.000000	85.755	-125.1631
2950.000000	86.093	-126.3955
3000.000000	86.429	-128.2097
3040.000000	86.646	-129.8901
3070.000000	86.778	-131.1448
3110.000000	86.921	-132.7899
3150.000000	87.027	-134.5648
3200.000000	87.099	-136.8906
3250.000000	87.115	-139.1191
3300.000000	87.101	-141.2241
3350.000000	87.062	-143.1777
3400.000000	86.980	-144.9626
3450.000000	86.860	-146.5305
3500.000000	86.744	-147.8588
3550.000000	86.630	-149.1000
3600.000000	86.491	-150.1228
3650.000000	86.340	-150.8270
3700.000000	86.173	-151.5189
3750.000000	86.005	-152.1740
3820.000000	85.786	-152.6346
3870.000000	85.634	-152.8843
3950.000000	85.360	-153.1502
4000.000000	85.191	-152.9819
4060.000000	85.025	-152.5645
4120.000000	84.880	-152.1305
4180.000000	84.757	-151.5818
4250.000000	84.650	-150.8814
4310.000000	84.569	-150.3828
4370.000000	84.479	-149.9184
4440.000000	84.383	-149.3398
4500.000000	84.296	-148.8214
4550.000000	84.210	-148.3836
4620.000000	84.092	-147.7454
4680.000000	84.003	-147.1195
4750.000000	83.904	-146.3177
4820.000000	83.831	-145.4936
4870.000000	83.796	-144.8310
4940.000000	83.750	-143.7580
5000.000000	83.717	-142.7604
5080.000000	83.685	-141.4872
5150.000000	83.680	-140.4400
5220.000000	83.693	-139.3286
5300.000000	83.713	-138.0342
5380.000000	83.752	-136.5553
5450.000000	83.816	-135.2242
5520.000000	83.912	-133.8861
5600.000000	84.063	-132.2375
5700.000000	84.335	-130.1557
5800.000000	84.694	-128.1814
5900.000000	85.180	-126.4069
6000.000000	85.835	-125.3566
6080.000000	86.454	-125.1525
6150.000000	87.045	-125.6161
6220.000000	87.657	-126.9335
6300.000000	88.325	-129.6320
6400.000000	89.016	-134.6840
6500.000000	89.458	-141.1309
6600.000000	89.585	-148.0412
6700.000000	89.440	-154.5734
6800.000000	89.104	-159.9038
6900.000000	88.668	-163.7802
7000.000000	88.228	-166.4308
7100.000000	87.854	-168.2579
7200.000000	87.564	-169.4551
7300.000000	87.375	-170.1948
7400.000000	87.258	-170.8680
7500.000000	87.210	-171.6580
7620.000000	87.266	-172.9153
7750.000000	87.429	-175.0262
7880.000000	87.587	-178.0386
8000.000000	87.708	178.2216
8120.000000	87.771	173.5399
8250.000000	87.681	167.4239
8380.000000	87.363	160.4321
8500.000000	86.823	153.8336
8620.000000	86.037	147.8891
8750.000000	84.959	142.8092
8850.000000	84.042	139.9919
9000.000000	82.626	137.5062
9120.000000	81.522	136.7901
9250.000000	80.403	136.9335
9380.000000	79.361	137.8345
9500.000000	78.468	139.2284
9620.000000	77.643	141.0674
9750.000000	76.830	143.3851
9880.000000	76.119	145.9903
10000.000000	75.558	148.6991
10150.000000	74.960	152.2063
10300.000000	74.451	155.5319
10440.000000	74.060	158.5820
10600.000000	73.730	161.8703
10750.000000	73.494	164.6256
10900.000000	73.306	167.1273
11060.000000	73.144	169.5274
11200.000000	73.024	171.5500
11380.000000	72.967	174.1895
11500.000000	73.033	175.7309
11720.000000	73.312	177.2585
11800.000000	73.426	177.1812
12060.000000	73.591	174.5383
12200.000000	73.453	172.5454
12410.000000	72.916	170.2920
12500.000000	72.590	169.9184
12650.000000	72.002	170.4425
12800.000000	71.451	172.4370
13150.000000	70.892	-178.9011
13200.000000	70.932	-177.4328
13400.000000	71.414	-171.6531
13600.000000	72.397	-167.0189
13800.000000	73.832	-164.6360
14000.000000	75.634	-165.4463
14300.000000	78.672	-175.2437
14500.000000	80.371	170.0470
14750.000000	81.280	143.3987
15000.000000	80.455	115.7670
15250.000000	78.354	95.3892
15500.000000	75.783	83.3634
15750.000000	73.341	77.2054
16000.000000	71.263	74.8800
16250.000000	69.592	75.0370
16500.000000	68.388	76.6527
16750.000000	67.673	78.7647
17000.000000	67.441	80.7576
17250.000000	67.683	81.8261
17500.000000	68.408	81.2482
17750.000000	69.653	78.0543
18000.000000	71.394	70.0253
18250.000000	73.204	49.8294
18500.000000	74.163	-31.0757
18750.000000	73.396	162.5817
19000.000000	70.392	-62.5923
19250.000000	64.841	95.2441
19500.000000	57.008	-79.0352
19750.000000	48.012	55.1992
20000.000000	41.008	-109.4062
