* Measurement data measured by REW V5.20.13
* Source: EXCL: Mic in at rear panel (Pink)(Realtek(R) Audio), MICROPHONE (마스), L, volume: 1.000
* Format: 256k Log Swept Sine, 1 sweep at -12.0 dBFS with no timing reference
* Dated: 2022. 12. 31 오후 6:53:00
* REW Settings:
*  C-weighting compensation: Off
*  Target level: 75.0 dB
* Note: 
* Measurement: 12월 31
* Smoothing: 1/24 octave
* Frequency Step: 1/48 octave
* Start Frequency: 20.300 Hz
*
* Freq(Hz)	SPL(dB)	Phase(degrees)
20.299999	84.559	-133.0328
20.600000	84.602	-133.2428
20.900000	84.687	-133.6298
21.200001	84.764	-134.0330
21.400000	84.810	-134.3170
21.799999	84.890	-134.9326
22.000000	84.926	-135.2606
22.400000	84.992	-135.9285
22.700001	85.040	-136.4288
23.000000	85.092	-136.9388
23.299999	85.148	-137.4815
23.600000	85.206	-138.0680
24.000000	85.280	-138.9026
24.299999	85.331	-139.5198
24.700001	85.397	-140.2547
25.000000	85.453	-140.7198
25.400000	85.551	-141.2812
25.799999	85.672	-141.9204
26.200001	85.792	-142.7401
26.500000	85.862	-143.4313
26.900000	85.915	-144.2923
27.200001	85.934	-144.7681
27.600000	85.957	-145.1210
28.000000	86.006	-145.3000
28.500000	86.094	-145.6396
29.000000	86.144	-146.1571
29.500000	86.134	-146.3651
30.000000	86.159	-145.9182
30.400000	86.282	-145.4501
30.700001	86.436	-145.4047
31.100000	86.658	-146.1081
31.500000	86.814	-147.6415
32.000000	86.835	-150.0133
32.500000	86.690	-151.8582
33.000000	86.517	-152.7221
33.500000	86.425	-153.0292
34.000000	86.413	-153.4032
34.500000	86.417	-153.9737
35.000000	86.417	-154.5030
35.500000	86.438	-154.8785
36.000000	86.494	-155.2451
36.500000	86.566	-155.7222
37.000000	86.633	-156.2658
37.500000	86.692	-156.8102
38.200001	86.756	-157.6056
38.700001	86.774	-158.1677
39.500000	86.769	-158.8034
40.000000	86.772	-159.1124
40.599998	86.779	-159.6249
41.200001	86.756	-160.2647
41.799999	86.711	-160.8399
42.500000	86.669	-161.4803
43.099998	86.636	-162.1476
43.700001	86.593	-162.7830
44.400002	86.569	-163.3880
45.000000	86.578	-164.0129
45.500000	86.576	-164.6255
46.200001	86.554	-165.2440
46.799999	86.575	-165.4757
47.500000	86.660	-165.9785
48.200001	86.710	-166.8715
48.700001	86.700	-167.3880
49.400002	86.689	-167.6962
50.000000	86.716	-167.8820
50.799999	86.763	-168.3219
51.500000	86.800	-168.7549
52.200001	86.845	-169.3201
53.000000	86.862	-170.1746
53.799999	86.837	-170.8264
54.500000	86.832	-171.2242
55.200001	86.836	-171.7409
56.000000	86.806	-172.3696
57.000000	86.748	-172.8636
58.000000	86.694	-173.3370
59.000000	86.614	-173.7205
60.000000	86.567	-173.9585
60.799999	86.555	-174.3771
61.500000	86.538	-174.8468
62.200001	86.525	-175.2884
63.000000	86.526	-175.8541
64.000000	86.517	-176.6499
65.000000	86.507	-177.2802
66.000000	86.503	-177.9791
67.000000	86.442	-178.6738
68.000000	86.348	-178.9821
69.000000	86.279	-179.0847
70.000000	86.230	-179.2698
71.000000	86.184	-179.5286
72.000000	86.153	-179.8181
73.000000	86.134	179.7596
74.000000	86.102	179.2709
75.000000	86.057	178.8622
76.199997	85.994	178.4853
77.500000	85.926	178.2622
78.800003	85.876	178.0517
80.000000	85.829	177.8091
81.199997	85.795	177.5555
82.500000	85.758	177.1016
83.800003	85.689	176.6880
85.000000	85.619	176.4653
86.199997	85.552	176.3120
87.500000	85.487	176.2206
88.500000	85.448	176.1569
90.000000	85.403	175.9996
91.199997	85.364	175.7627
92.500000	85.296	175.5743
93.800003	85.230	175.5826
95.000000	85.186	175.5774
96.199997	85.133	175.4722
97.500000	85.065	175.4051
98.800003	85.005	175.3447
100.000000	84.955	175.3049
101.500000	84.909	175.2561
103.000000	84.864	175.1667
104.400002	84.818	175.1125
106.000000	84.765	175.0727
107.500000	84.712	175.0582
109.000000	84.664	175.1236
110.599998	84.622	175.2397
112.000000	84.588	175.3548
113.800003	84.540	175.4492
115.000000	84.502	175.4417
117.199997	84.418	175.2932
118.000000	84.384	175.2239
120.599998	84.274	175.3807
122.000000	84.251	175.6652
124.099998	84.222	176.0049
125.000000	84.206	176.1304
126.500000	84.179	176.2826
128.000000	84.155	176.3673
131.500000	84.109	176.6214
132.000000	84.102	176.6940
134.000000	84.074	177.0385
136.000000	84.037	177.3693
138.000000	84.001	177.5795
140.000000	83.962	177.7359
143.000000	83.911	178.0887
145.000000	83.880	178.3523
147.500000	83.848	178.6317
150.000000	83.826	178.8516
152.500000	83.812	179.1011
155.000000	83.803	179.3632
157.500000	83.800	179.5959
160.000000	83.791	179.8861
162.500000	83.770	-179.6608
165.000000	83.744	-179.1907
167.500000	83.728	-178.8782
170.000000	83.733	-178.6681
172.500000	83.750	-178.4310
175.000000	83.759	-178.1781
177.500000	83.757	-177.9577
180.000000	83.760	-177.7837
182.500000	83.770	-177.5658
185.000000	83.782	-177.2685
187.500000	83.791	-176.9380
190.000000	83.804	-176.6370
192.500000	83.825	-176.3663
195.000000	83.853	-176.1339
197.500000	83.880	-175.9267
200.000000	83.909	-175.7074
203.000000	83.948	-175.4586
206.000000	83.975	-175.2765
209.000000	83.989	-175.1277
212.000000	84.006	-175.0090
214.000000	84.024	-174.9510
218.000000	84.074	-174.8609
220.000000	84.095	-174.7967
224.000000	84.127	-174.6167
227.000000	84.149	-174.5051
230.000000	84.169	-174.3512
233.000000	84.192	-174.2392
236.000000	84.220	-174.2620
240.000000	84.286	-174.3365
243.000000	84.341	-174.3820
247.000000	84.407	-174.5051
250.000000	84.442	-174.5422
254.000000	84.459	-174.4382
258.000000	84.457	-174.5868
262.000000	84.456	-175.0175
265.000000	84.449	-175.3366
269.000000	84.409	-175.6180
272.000000	84.362	-175.7132
276.000000	84.298	-175.6001
280.000000	84.267	-175.1526
285.000000	84.286	-174.4496
290.000000	84.355	-173.9791
295.000000	84.449	-173.7967
300.000000	84.527	-173.7773
304.000000	84.554	-173.7737
307.000000	84.559	-173.7550
311.000000	84.566	-173.7220
315.000000	84.592	-173.6711
320.000000	84.641	-173.6150
325.000000	84.697	-173.6844
330.000000	84.765	-173.7666
335.000000	84.826	-173.7348
340.000000	84.866	-173.8036
345.000000	84.891	-173.9722
350.000000	84.903	-174.1367
355.000000	84.914	-174.2368
360.000000	84.920	-174.2758
365.000000	84.920	-174.3105
370.000000	84.927	-174.3857
375.000000	84.937	-174.4697
382.000000	84.949	-174.6261
387.000000	84.963	-174.7073
395.000000	84.982	-174.6844
400.000000	84.984	-174.6630
406.000000	84.984	-174.6983
412.000000	84.994	-174.8176
418.000000	85.016	-174.8805
425.000000	85.030	-174.8327
431.000000	85.036	-174.8184
437.000000	85.060	-174.8100
444.000000	85.088	-174.7861
450.000000	85.104	-174.8372
455.000000	85.116	-174.9111
462.000000	85.134	-175.0541
468.000000	85.155	-175.1839
475.000000	85.184	-175.3185
482.000000	85.213	-175.4184
487.000000	85.223	-175.4078
494.000000	85.217	-175.4534
500.000000	85.221	-175.6381
508.000000	85.257	-175.8649
515.000000	85.298	-176.0034
522.000000	85.338	-176.1508
530.000000	85.378	-176.3028
538.000000	85.401	-176.3833
545.000000	85.402	-176.5528
552.000000	85.403	-176.8599
560.000000	85.408	-177.1801
570.000000	85.425	-177.5810
580.000000	85.462	-178.0545
590.000000	85.500	-178.4009
600.000000	85.492	-178.7438
608.000000	85.472	-179.1285
615.000000	85.457	-179.4953
622.000000	85.446	-179.8183
630.000000	85.433	179.8679
640.000000	85.400	179.4321
650.000000	85.356	178.9423
660.000000	85.320	178.5264
670.000000	85.281	178.2936
680.000000	85.215	178.1028
690.000000	85.126	177.7747
700.000000	85.032	177.3878
710.000000	84.959	177.0985
720.000000	84.898	176.8265
730.000000	84.813	176.6142
740.000000	84.710	176.4945
750.000000	84.618	176.4631
762.000000	84.516	176.4734
775.000000	84.409	176.5010
788.000000	84.297	176.5953
800.000000	84.194	176.7068
812.000000	84.084	176.9229
825.000000	83.972	177.1870
838.000000	83.878	177.5344
850.000000	83.804	178.0096
862.000000	83.736	178.5171
875.000000	83.673	178.9953
885.000000	83.632	179.2975
900.000000	83.565	179.8617
912.000000	83.507	-179.6200
925.000000	83.441	-179.1044
938.000000	83.401	-178.6861
950.000000	83.391	-178.3456
962.000000	83.382	-177.9618
975.000000	83.371	-177.5202
988.000000	83.366	-177.0952
1000.000000	83.359	-176.7394
1015.000000	83.337	-176.2287
1030.000000	83.317	-175.7567
1044.000000	83.316	-175.4143
1060.000000	83.311	-175.1363
1075.000000	83.287	-174.8848
1090.000000	83.277	-174.5630
1106.000000	83.295	-174.3135
1120.000000	83.311	-174.2207
1138.000000	83.318	-174.0290
1150.000000	83.324	-173.8401
1172.000000	83.336	-173.5491
1180.000000	83.336	-173.4884
1206.000000	83.380	-173.3420
1220.000000	83.402	-173.2209
1241.000000	83.394	-173.0621
1250.000000	83.379	-172.9808
1265.000000	83.351	-172.7830
1280.000000	83.334	-172.4857
1315.000000	83.317	-171.8998
1320.000000	83.319	-171.8463
1340.000000	83.330	-171.6435
1360.000000	83.320	-171.3408
1380.000000	83.308	-171.0346
1400.000000	83.319	-170.7535
1430.000000	83.317	-170.4836
1450.000000	83.318	-170.3276
1475.000000	83.362	-170.1084
1500.000000	83.391	-169.8340
1525.000000	83.402	-169.4957
1550.000000	83.424	-169.2772
1575.000000	83.458	-169.0510
1600.000000	83.502	-168.6023
1625.000000	83.521	-168.1066
1650.000000	83.514	-167.8025
1675.000000	83.530	-167.7066
1700.000000	83.554	-167.7082
1725.000000	83.578	-167.5875
1750.000000	83.605	-167.2726
1775.000000	83.632	-166.9520
1800.000000	83.650	-166.6680
1825.000000	83.681	-166.3749
1850.000000	83.699	-166.0667
1875.000000	83.700	-165.7672
1900.000000	83.710	-165.4711
1925.000000	83.714	-165.2875
1950.000000	83.740	-165.0331
1975.000000	83.794	-164.6437
2000.000000	83.847	-164.3857
2030.000000	83.928	-164.4112
2060.000000	84.026	-164.4050
2090.000000	84.114	-164.3365
2120.000000	84.155	-164.4270
2140.000000	84.173	-164.5764
2180.000000	84.220	-164.8239
2200.000000	84.257	-164.8689
2240.000000	84.334	-165.0250
2270.000000	84.349	-165.3088
2300.000000	84.351	-165.6125
2330.000000	84.386	-165.9325
2360.000000	84.427	-166.2125
2400.000000	84.442	-166.3534
2430.000000	84.446	-166.3269
2470.000000	84.463	-166.4029
2500.000000	84.469	-166.4726
2540.000000	84.484	-166.4281
2580.000000	84.522	-166.3249
2620.000000	84.569	-166.4905
2650.000000	84.619	-166.8551
2690.000000	84.697	-167.4549
2720.000000	84.740	-167.9425
2760.000000	84.773	-168.8240
2800.000000	84.804	-169.7223
2850.000000	84.811	-170.7740
2900.000000	84.756	-171.6832
2950.000000	84.669	-172.5721
3000.000000	84.608	-173.4764
3040.000000	84.554	-174.1506
3070.000000	84.507	-174.5914
3110.000000	84.429	-175.1263
3150.000000	84.335	-175.7004
3200.000000	84.196	-176.3839
3250.000000	84.056	-176.9211
3300.000000	83.929	-177.4343
3350.000000	83.794	-177.9245
3400.000000	83.648	-178.3393
3450.000000	83.492	-178.6856
3500.000000	83.346	-178.9374
3550.000000	83.208	-179.1277
3600.000000	83.058	-179.1397
3650.000000	82.907	-178.9722
3700.000000	82.749	-178.8663
3750.000000	82.602	-178.7957
3820.000000	82.419	-178.4392
3870.000000	82.291	-178.2153
3950.000000	82.059	-177.9911
4000.000000	81.921	-177.7402
4060.000000	81.766	-177.3361
4120.000000	81.598	-176.9305
4180.000000	81.432	-176.4239
4250.000000	81.259	-175.6804
4310.000000	81.106	-174.9826
4370.000000	80.954	-174.2336
4440.000000	80.795	-173.3284
4500.000000	80.654	-172.4691
4550.000000	80.533	-171.7495
4620.000000	80.373	-170.8142
4680.000000	80.250	-169.9667
4750.000000	80.111	-168.9207
4820.000000	79.995	-167.7797
4870.000000	79.933	-166.8076
4940.000000	79.893	-165.3554
5000.000000	79.892	-164.2993
5080.000000	79.867	-163.3780
5150.000000	79.809	-162.7312
5220.000000	79.748	-161.7580
5300.000000	79.724	-160.5396
5380.000000	79.748	-159.5588
5450.000000	79.779	-158.9573
5520.000000	79.806	-158.5025
5600.000000	79.828	-158.0252
5700.000000	79.842	-157.5323
5800.000000	79.815	-157.0362
5900.000000	79.796	-156.4467
6000.000000	79.825	-156.0998
6080.000000	79.859	-155.8496
6150.000000	79.885	-155.5960
6220.000000	79.914	-155.3387
6300.000000	79.954	-155.0734
6400.000000	80.040	-154.9005
6500.000000	80.168	-155.1678
6600.000000	80.272	-155.9383
6700.000000	80.333	-157.3084
6800.000000	80.325	-158.8975
6900.000000	80.227	-160.3841
7000.000000	80.058	-161.5976
7100.000000	79.851	-162.4028
7200.000000	79.633	-162.6681
7300.000000	79.446	-162.3953
7400.000000	79.268	-161.7601
7500.000000	79.115	-160.7639
7620.000000	79.036	-159.2448
7750.000000	79.100	-157.3788
7880.000000	79.263	-155.5247
8000.000000	79.525	-154.2031
8120.000000	79.893	-153.4294
8250.000000	80.373	-153.3935
8380.000000	80.928	-154.6378
8500.000000	81.471	-157.2030
8620.000000	81.967	-161.2931
8750.000000	82.336	-167.5421
8850.000000	82.436	-173.4596
9000.000000	82.180	176.8966
9120.000000	81.626	169.6275
9250.000000	80.763	163.0610
9380.000000	79.706	158.2977
9500.000000	78.651	155.5461
9620.000000	77.601	154.1232
9750.000000	76.526	153.6898
9880.000000	75.561	154.0791
10000.000000	74.775	154.9887
10150.000000	73.883	156.4873
10300.000000	73.057	158.1586
10440.000000	72.336	159.9229
10600.000000	71.590	162.1190
10750.000000	70.958	164.3790
10900.000000	70.382	166.9615
11060.000000	69.817	169.8728
11200.000000	69.365	172.4127
11380.000000	68.886	175.7907
11500.000000	68.640	178.0240
11720.000000	68.279	-177.8803
11800.000000	68.170	-176.4199
12060.000000	67.916	-171.9776
12200.000000	67.823	-169.6791
12410.000000	67.691	-166.3574
12500.000000	67.638	-164.9917
12650.000000	67.586	-162.7586
12800.000000	67.589	-160.6104
13150.000000	67.792	-156.2382
13200.000000	67.842	-155.6525
13400.000000	68.115	-153.3943
13600.000000	68.502	-151.4713
13800.000000	69.008	-149.9826
14000.000000	69.650	-149.2067
14300.000000	70.885	-149.1396
14500.000000	71.899	-150.2472
14750.000000	73.424	-153.5703
15000.000000	75.269	-160.3274
15250.000000	77.119	-173.5456
15500.000000	78.217	166.0528
15750.000000	78.148	143.2729
16000.000000	77.080	124.4434
16250.000000	75.568	111.6223
16500.000000	74.108	103.1770
16750.000000	72.930	97.1569
17000.000000	72.072	92.3145
17250.000000	71.515	87.6889
17500.000000	71.254	82.5689
17750.000000	71.252	76.4392
18000.000000	71.439	68.5408
18250.000000	71.738	55.4016
18500.000000	72.001	1.0963
18750.000000	71.758	-43.4096
19000.000000	69.910	-133.2998
19250.000000	65.259	-104.5967
19500.000000	57.894	153.9766
19750.000000	49.008	-109.1367
20000.000000	41.634	-73.8281
