* Measurement data measured by REW V5.20.13
* Source: EXCL: Mic in at rear panel (Pink)(Realtek(R) Audio), MICROPHONE (마스), L, volume: 1.000
* Format: 256k Log Swept Sine, 1 sweep at -12.0 dBFS with no timing reference
* Dated: 2022. 12. 30 오후 6:44:15
* REW Settings:
*  C-weighting compensation: Off
*  Target level: 75.0 dB
* Note: 
* Measurement: 72
* Smoothing: 1/24 octave
* Frequency Step: 1/48 octave
* Start Frequency: 20.300 Hz
*
* Freq(Hz)	SPL(dB)	Phase(degrees)
20.299999	78.877	160.9300
20.600000	78.964	161.2003
20.900000	79.090	161.8442
21.200001	79.102	162.9454
21.400000	79.077	164.0225
21.799999	79.038	166.7794
22.000000	79.057	168.2270
22.400000	79.176	170.5501
22.700001	79.268	171.3562
23.000000	79.281	171.2729
23.299999	79.160	170.6338
23.600000	78.890	169.9311
24.000000	78.337	169.7520
24.299999	77.884	170.6095
24.700001	77.434	172.7986
25.000000	77.325	174.3315
25.400000	77.463	174.7359
25.799999	77.665	172.3101
26.200001	77.650	167.6918
26.500000	77.414	164.0383
26.900000	76.841	160.7608
27.200001	76.382	160.3603
27.600000	76.074	162.2336
28.000000	76.359	164.4482
28.500000	77.128	163.8901
29.000000	77.551	159.6848
29.500000	77.358	155.9652
30.000000	76.882	156.4007
30.400000	76.732	159.2499
30.700001	76.863	161.4933
31.100000	77.193	163.0725
31.500000	77.449	162.8461
32.000000	77.468	161.5530
32.500000	77.247	160.8658
33.000000	76.991	160.8332
33.500000	76.740	160.6411
34.000000	76.419	160.3531
34.500000	76.068	160.6931
35.000000	75.849	161.5396
35.500000	75.810	161.8644
36.000000	75.815	161.2805
36.500000	75.772	160.5586
37.000000	75.758	160.4256
37.500000	75.874	160.5380
38.200001	76.143	159.8345
38.700001	76.261	158.8949
39.500000	76.354	157.9599
40.000000	76.420	157.3739
40.599998	76.431	156.1036
41.200001	76.273	154.7686
41.799999	76.017	154.1264
42.500000	75.772	153.8981
43.099998	75.618	153.3683
43.700001	75.447	152.6124
44.400002	75.244	152.0392
45.000000	75.141	151.9240
45.500000	75.132	151.9022
46.200001	75.215	151.6259
46.799999	75.303	150.9880
47.500000	75.335	150.1570
48.200001	75.322	149.8083
48.700001	75.334	149.7137
49.400002	75.352	149.1840
50.000000	75.278	148.4005
50.799999	75.040	147.8291
51.500000	74.833	147.9906
52.200001	74.695	148.1844
53.000000	74.574	148.1297
53.799999	74.467	147.9455
54.500000	74.382	147.7633
55.200001	74.302	147.6893
56.000000	74.243	147.7465
57.000000	74.199	147.6416
58.000000	74.105	147.4419
59.000000	73.985	147.3683
60.000000	73.843	147.2691
60.799999	73.717	147.2692
61.500000	73.618	147.3350
62.200001	73.533	147.3846
63.000000	73.440	147.4028
64.000000	73.324	147.4842
65.000000	73.230	147.6074
66.000000	73.137	147.5658
67.000000	73.006	147.5128
68.000000	72.863	147.7158
69.000000	72.752	148.0681
70.000000	72.669	148.3146
71.000000	72.576	148.4775
72.000000	72.474	148.7144
73.000000	72.373	149.0163
74.000000	72.279	149.3241
75.000000	72.195	149.5383
76.199997	72.095	149.6395
77.500000	71.981	149.6619
78.800003	71.869	149.7939
80.000000	71.775	149.9498
81.199997	71.675	150.2468
82.500000	71.603	150.6703
83.800003	71.540	150.8689
85.000000	71.469	151.1007
86.199997	71.408	151.4003
87.500000	71.350	151.7725
88.500000	71.307	151.9882
90.000000	71.199	152.1382
91.199997	71.075	152.3745
92.500000	70.960	152.7715
93.800003	70.884	153.1560
95.000000	70.847	153.4846
96.199997	70.832	153.6791
97.500000	70.788	153.7743
98.800003	70.706	154.0444
100.000000	70.631	154.4882
101.500000	70.576	155.0274
103.000000	70.530	155.2785
104.400002	70.461	155.5363
106.000000	70.383	155.9828
107.500000	70.299	156.4329
109.000000	70.216	156.9420
110.599998	70.154	157.3879
112.000000	70.120	157.5439
113.800003	70.048	157.5729
115.000000	69.987	157.7751
117.199997	69.906	158.2632
118.000000	69.870	158.4196
120.599998	69.769	159.2405
122.000000	69.755	159.6426
124.099998	69.715	160.1121
125.000000	69.686	160.3793
126.500000	69.637	160.8968
128.000000	69.593	161.3359
131.500000	69.494	161.9516
132.000000	69.482	162.0407
134.000000	69.442	162.5296
136.000000	69.403	163.1985
138.000000	69.377	163.8553
140.000000	69.365	164.1989
143.000000	69.315	164.7021
145.000000	69.281	165.3478
147.500000	69.257	165.9746
150.000000	69.232	165.9987
152.500000	69.189	166.0680
155.000000	69.174	166.7125
157.500000	69.174	167.3670
160.000000	69.145	167.9562
162.500000	69.114	168.6165
165.000000	69.102	169.2188
167.500000	69.098	169.4901
170.000000	69.072	169.6346
172.500000	69.037	169.8089
175.000000	68.985	169.9939
177.500000	68.961	170.3983
180.000000	68.985	170.8326
182.500000	68.982	171.3162
185.000000	68.931	171.9211
187.500000	68.897	172.4135
190.000000	68.892	172.4943
192.500000	68.874	172.6283
195.000000	68.854	173.0401
197.500000	68.840	173.4197
200.000000	68.821	173.7631
203.000000	68.820	174.5823
206.000000	68.860	175.3065
209.000000	68.878	175.2934
212.000000	68.893	175.2286
214.000000	68.908	175.4125
218.000000	68.899	176.1660
220.000000	68.898	176.5488
224.000000	68.934	177.0359
227.000000	68.957	177.3158
230.000000	68.972	177.6170
233.000000	68.978	178.0150
236.000000	68.971	178.4536
240.000000	68.952	178.8975
243.000000	68.940	179.1594
247.000000	68.925	179.3663
250.000000	68.938	179.5238
254.000000	68.980	179.9332
258.000000	69.002	-179.7152
262.000000	69.012	-179.4294
265.000000	69.019	-179.1497
269.000000	69.009	-178.8199
272.000000	69.002	-178.6584
276.000000	69.000	-178.5184
280.000000	69.015	-178.2549
285.000000	69.015	-177.6037
290.000000	68.959	-177.0341
295.000000	68.981	-176.5094
300.000000	69.075	-176.1169
304.000000	69.133	-175.8610
307.000000	69.151	-175.6329
311.000000	69.154	-175.2425
315.000000	69.158	-174.8049
320.000000	69.188	-174.5256
325.000000	69.236	-174.4021
330.000000	69.286	-173.9524
335.000000	69.374	-173.3830
340.000000	69.448	-173.0473
345.000000	69.510	-172.9154
350.000000	69.583	-172.6182
355.000000	69.650	-172.2491
360.000000	69.718	-172.1130
365.000000	69.776	-172.0041
370.000000	69.831	-171.8474
375.000000	69.887	-171.8998
382.000000	69.981	-172.0632
387.000000	70.020	-172.2464
395.000000	70.096	-172.6171
400.000000	70.144	-172.8471
406.000000	70.188	-173.0735
412.000000	70.225	-173.4544
418.000000	70.262	-174.0151
425.000000	70.287	-174.3235
431.000000	70.282	-174.5162
437.000000	70.260	-174.8062
444.000000	70.218	-175.1429
450.000000	70.159	-175.4573
455.000000	70.106	-175.6800
462.000000	70.026	-176.0041
468.000000	69.956	-176.1538
475.000000	69.913	-176.1583
482.000000	69.881	-176.1119
487.000000	69.859	-176.0855
494.000000	69.822	-175.8347
500.000000	69.765	-175.5544
508.000000	69.701	-175.2447
515.000000	69.691	-174.9584
522.000000	69.689	-174.7836
530.000000	69.683	-174.6657
538.000000	69.656	-174.4619
545.000000	69.628	-174.2971
552.000000	69.621	-174.2687
560.000000	69.634	-174.2807
570.000000	69.615	-174.1734
580.000000	69.552	-174.0949
590.000000	69.522	-174.0660
600.000000	69.486	-174.1190
608.000000	69.412	-174.0819
615.000000	69.337	-173.9828
622.000000	69.277	-173.8548
630.000000	69.220	-173.6466
640.000000	69.139	-173.3091
650.000000	69.055	-172.8129
660.000000	68.982	-172.1321
670.000000	68.947	-171.2927
680.000000	68.926	-170.5093
690.000000	68.905	-169.8817
700.000000	68.888	-169.3304
710.000000	68.900	-168.7040
720.000000	68.932	-168.0334
730.000000	68.972	-167.5513
740.000000	69.016	-167.3915
750.000000	69.071	-167.3553
762.000000	69.119	-167.2185
775.000000	69.160	-167.1506
788.000000	69.162	-167.2002
800.000000	69.111	-167.2557
812.000000	69.061	-167.3764
825.000000	68.987	-167.7077
838.000000	68.883	-167.7686
850.000000	68.754	-167.5577
862.000000	68.644	-167.3230
875.000000	68.539	-166.8608
885.000000	68.458	-166.4263
900.000000	68.352	-165.7238
912.000000	68.273	-165.1274
925.000000	68.181	-164.3599
938.000000	68.105	-163.3189
950.000000	68.045	-162.4040
962.000000	68.005	-161.5709
975.000000	67.972	-160.6418
988.000000	67.905	-159.7579
1000.000000	67.851	-158.8215
1015.000000	67.874	-157.3160
1030.000000	67.886	-155.8667
1044.000000	67.896	-154.6106
1060.000000	67.953	-153.4355
1075.000000	68.023	-152.4415
1090.000000	68.112	-151.5507
1106.000000	68.232	-150.7897
1120.000000	68.325	-150.3040
1138.000000	68.439	-149.6943
1150.000000	68.515	-149.3041
1172.000000	68.636	-148.7160
1180.000000	68.678	-148.5190
1206.000000	68.781	-147.7756
1220.000000	68.828	-147.3614
1241.000000	68.895	-146.6596
1250.000000	68.920	-146.3347
1265.000000	68.976	-145.9499
1280.000000	69.034	-145.7086
1315.000000	69.135	-145.0554
1320.000000	69.149	-144.9413
1340.000000	69.182	-144.4429
1360.000000	69.193	-143.9182
1380.000000	69.204	-143.4017
1400.000000	69.222	-142.7364
1430.000000	69.297	-141.1975
1450.000000	69.427	-140.2654
1475.000000	69.587	-139.5211
1500.000000	69.729	-138.9578
1525.000000	69.874	-138.6160
1550.000000	69.986	-138.4485
1575.000000	70.076	-138.1014
1600.000000	70.149	-137.6278
1625.000000	70.213	-137.1284
1650.000000	70.277	-136.7260
1675.000000	70.351	-136.2604
1700.000000	70.411	-135.7130
1725.000000	70.460	-135.1540
1750.000000	70.515	-134.4892
1775.000000	70.593	-133.7863
1800.000000	70.688	-133.0211
1825.000000	70.779	-132.2775
1850.000000	70.868	-131.6208
1875.000000	70.966	-130.9930
1900.000000	71.068	-130.4038
1925.000000	71.166	-129.8540
1950.000000	71.258	-129.3542
1975.000000	71.346	-128.7887
2000.000000	71.436	-128.1363
2030.000000	71.554	-127.3150
2060.000000	71.678	-126.4983
2090.000000	71.805	-125.7328
2120.000000	71.931	-124.8859
2140.000000	72.027	-124.2145
2180.000000	72.243	-122.7527
2200.000000	72.358	-121.9937
2240.000000	72.628	-120.6163
2270.000000	72.859	-119.8845
2300.000000	73.096	-119.3560
2330.000000	73.328	-119.0164
2360.000000	73.573	-118.8507
2400.000000	73.911	-118.7123
2430.000000	74.169	-118.7277
2470.000000	74.524	-118.9197
2500.000000	74.792	-119.1737
2540.000000	75.151	-119.7584
2580.000000	75.506	-120.5578
2620.000000	75.861	-121.5898
2650.000000	76.112	-122.5417
2690.000000	76.412	-123.9715
2720.000000	76.612	-125.1641
2760.000000	76.860	-126.8075
2800.000000	77.091	-128.4903
2850.000000	77.347	-130.8376
2900.000000	77.564	-133.3458
2950.000000	77.749	-136.0301
3000.000000	77.878	-138.9677
3040.000000	77.935	-141.4094
3070.000000	77.944	-143.2133
3110.000000	77.919	-145.5575
3150.000000	77.865	-147.8585
3200.000000	77.739	-150.5842
3250.000000	77.557	-152.9922
3300.000000	77.346	-155.1589
3350.000000	77.118	-157.0851
3400.000000	76.861	-158.7133
3450.000000	76.585	-160.0210
3500.000000	76.305	-161.0904
3550.000000	76.039	-161.9370
3600.000000	75.783	-162.5223
3650.000000	75.528	-162.7963
3700.000000	75.290	-162.8803
3750.000000	75.058	-162.8802
3820.000000	74.740	-162.6027
3870.000000	74.527	-162.1915
3950.000000	74.211	-161.4488
4000.000000	74.038	-160.9188
4060.000000	73.862	-160.1398
4120.000000	73.719	-159.2605
4180.000000	73.587	-158.3736
4250.000000	73.459	-157.3693
4310.000000	73.366	-156.5629
4370.000000	73.274	-155.8231
4440.000000	73.169	-154.9785
4500.000000	73.079	-154.2383
4550.000000	73.006	-153.6234
4620.000000	72.914	-152.7650
4680.000000	72.839	-151.9922
4750.000000	72.748	-151.0563
4820.000000	72.672	-150.0327
4870.000000	72.622	-149.1880
4940.000000	72.555	-147.9324
5000.000000	72.519	-146.8773
5080.000000	72.524	-145.4631
5150.000000	72.561	-144.2751
5220.000000	72.593	-143.1576
5300.000000	72.630	-141.9414
5380.000000	72.705	-140.7921
5450.000000	72.784	-139.7654
5520.000000	72.864	-138.6717
5600.000000	72.969	-137.3335
5700.000000	73.174	-135.4692
5800.000000	73.515	-133.8346
5900.000000	73.957	-132.6011
6000.000000	74.471	-132.0795
6080.000000	74.938	-132.1949
6150.000000	75.373	-132.7892
6220.000000	75.799	-133.9832
6300.000000	76.251	-136.1089
6400.000000	76.706	-139.7678
6500.000000	77.001	-144.1005
6600.000000	77.113	-148.6830
6700.000000	77.057	-153.0515
6800.000000	76.879	-156.7682
6900.000000	76.660	-159.6839
7000.000000	76.449	-161.8839
7100.000000	76.277	-163.5209
7200.000000	76.164	-164.8247
7300.000000	76.106	-166.0811
7400.000000	76.089	-167.3956
7500.000000	76.101	-168.7780
7620.000000	76.171	-170.6375
7750.000000	76.305	-173.0605
7880.000000	76.419	-176.0914
8000.000000	76.507	-179.6913
8120.000000	76.549	175.7035
8250.000000	76.458	169.7262
8380.000000	76.148	163.1229
8500.000000	75.635	156.9753
8620.000000	74.908	151.4017
8750.000000	73.924	146.4768
8850.000000	73.076	143.6842
9000.000000	71.740	141.1884
9120.000000	70.687	140.4713
9250.000000	69.609	140.6359
9380.000000	68.590	141.4250
9500.000000	67.712	142.6044
9620.000000	66.921	144.1779
9750.000000	66.151	146.2620
9880.000000	65.471	148.7072
10000.000000	64.931	151.1252
10150.000000	64.369	154.1105
10300.000000	63.865	156.9635
10440.000000	63.444	159.4994
10600.000000	63.008	162.6226
10750.000000	62.648	165.6492
10900.000000	62.357	169.0343
11060.000000	62.153	172.9800
11200.000000	62.158	176.5885
11380.000000	62.414	-179.6277
11500.000000	62.693	-178.0328
11720.000000	63.298	-177.7155
11800.000000	63.478	-178.4804
12060.000000	63.696	176.7878
12200.000000	63.538	173.8461
12410.000000	62.902	170.7321
12500.000000	62.526	170.2219
12650.000000	61.878	170.7315
12800.000000	61.295	172.7496
13150.000000	60.719	-178.3639
13200.000000	60.764	-176.8653
13400.000000	61.252	-171.2844
13600.000000	62.192	-167.0641
13800.000000	63.551	-164.7516
14000.000000	65.248	-165.3460
14300.000000	68.124	-173.9628
14500.000000	69.844	173.4435
14750.000000	71.055	149.6393
15000.000000	70.765	122.6527
15250.000000	69.123	100.6295
15500.000000	66.808	86.4331
15750.000000	64.494	78.5616
16000.000000	62.486	74.9608
16250.000000	60.920	74.2449
16500.000000	59.896	74.6882
16750.000000	59.404	75.3124
17000.000000	59.414	75.3495
17250.000000	59.922	73.6794
17500.000000	60.840	69.4185
17750.000000	62.152	61.9136
18000.000000	63.702	48.8217
18250.000000	64.902	27.6268
18500.000000	65.035	-0.3864
18750.000000	63.769	-27.9824
19000.000000	61.364	-47.7558
19250.000000	58.607	-59.8062
19500.000000	56.234	-72.4334
19750.000000	54.287	-103.7533
20000.000000	52.662	-155.1003
