* Measurement data measured by REW V5.20.13
* Source: EXCL: Mic in at rear panel (Pink)(Realtek(R) Audio), MICROPHONE (마스), L, volume: 1.000
* Format: 256k Log Swept Sine, 1 sweep at -12.0 dBFS with no timing reference
* Dated: 2022. 12. 31 오후 2:32:58
* REW Settings:
*  C-weighting compensation: Off
*  Target level: 75.0 dB
* Note: 
* Measurement: 12월 31
* Smoothing: 1/24 octave
* Frequency Step: 1/48 octave
* Start Frequency: 20.300 Hz
*
* Freq(Hz)	SPL(dB)	Phase(degrees)
20.299999	71.494	158.9926
20.600000	71.402	158.4777
20.900000	71.222	157.9322
21.200001	71.095	158.3399
21.400000	71.072	158.9060
21.799999	71.152	159.9985
22.000000	71.228	160.2466
22.400000	71.361	160.0101
22.700001	71.398	159.4628
23.000000	71.372	158.9162
23.299999	71.308	158.5410
23.600000	71.230	158.3561
24.000000	71.137	158.3006
24.299999	71.084	158.2672
24.700001	71.030	158.0976
25.000000	70.991	157.8309
25.400000	70.927	157.2869
25.799999	70.834	156.6041
26.200001	70.705	155.9556
26.500000	70.593	155.6183
26.900000	70.452	155.4698
27.200001	70.376	155.4721
27.600000	70.332	155.4756
28.000000	70.336	155.1462
28.500000	70.326	154.1641
29.000000	70.232	153.1108
29.500000	70.109	152.6620
30.000000	70.100	152.6154
30.400000	70.197	152.0891
30.700001	70.280	151.0460
31.100000	70.292	148.8358
31.500000	70.105	146.3820
32.000000	69.589	144.7396
32.500000	69.018	146.0369
33.000000	68.821	149.2068
33.500000	69.078	151.5481
34.000000	69.438	151.5495
34.500000	69.619	150.1502
35.000000	69.625	148.8581
35.500000	69.588	148.1803
36.000000	69.567	147.7191
36.500000	69.528	147.2872
37.000000	69.460	147.1597
37.500000	69.422	147.4049
38.200001	69.461	147.5152
38.700001	69.472	147.0588
39.500000	69.352	146.3100
40.000000	69.255	146.1519
40.599998	69.159	145.9636
41.200001	69.046	145.6686
41.799999	68.920	145.5684
42.500000	68.832	145.6431
43.099998	68.807	145.4262
43.700001	68.773	144.9452
44.400002	68.715	144.3958
45.000000	68.677	143.9156
45.500000	68.639	143.3737
46.200001	68.532	142.5478
46.799999	68.392	142.1199
47.500000	68.239	142.0476
48.200001	68.138	142.0503
48.700001	68.081	141.8980
49.400002	67.987	141.4748
50.000000	67.880	141.0926
50.799999	67.728	140.7840
51.500000	67.628	140.6193
52.200001	67.549	140.3133
53.000000	67.433	139.9074
53.799999	67.304	139.8645
54.500000	67.230	139.9886
55.200001	67.174	139.9559
56.000000	67.091	139.8367
57.000000	66.989	139.6610
58.000000	66.855	139.1308
59.000000	66.645	138.7348
60.000000	66.434	138.8561
60.799999	66.327	139.2435
61.500000	66.305	139.4509
62.200001	66.301	139.2052
63.000000	66.224	138.6055
64.000000	66.026	138.2546
65.000000	65.812	138.4987
66.000000	65.634	139.1158
67.000000	65.533	139.5719
68.000000	65.424	139.3720
69.000000	65.238	139.1962
70.000000	65.070	139.5603
71.000000	65.018	139.9692
72.000000	65.002	139.7807
73.000000	64.925	139.6424
74.000000	64.890	139.8576
75.000000	64.862	139.6392
76.199997	64.686	139.7490
77.500000	64.554	141.0029
78.800003	64.534	141.8345
80.000000	64.464	142.0343
81.199997	64.327	142.2433
82.500000	64.179	142.6260
83.800003	64.075	142.7713
85.000000	63.983	142.7343
86.199997	63.928	142.5781
87.500000	63.848	142.3937
88.500000	63.811	142.5956
90.000000	63.813	142.7949
91.199997	63.769	142.9345
92.500000	63.694	143.6619
93.800003	63.684	144.3327
95.000000	63.614	144.4264
96.199997	63.464	144.7038
97.500000	63.321	145.3064
98.800003	63.248	145.6926
100.000000	63.194	145.6290
101.500000	63.072	145.4267
103.000000	62.903	145.8331
104.400002	62.792	146.6367
106.000000	62.696	147.2036
107.500000	62.578	147.3645
109.000000	62.466	147.4919
110.599998	62.425	147.6469
112.000000	62.446	147.7420
113.800003	62.424	147.8147
115.000000	62.331	148.3873
117.199997	62.223	150.1926
118.000000	62.217	150.6086
120.599998	62.150	150.7320
122.000000	62.087	151.0115
124.099998	62.068	151.7486
125.000000	62.065	152.0369
126.500000	62.030	152.2681
128.000000	61.922	152.3858
131.500000	61.767	152.6263
132.000000	61.761	152.5205
134.000000	61.691	152.0895
136.000000	61.597	152.2012
138.000000	61.516	152.7272
140.000000	61.505	153.8467
143.000000	61.554	154.8320
145.000000	61.470	155.0809
147.500000	61.341	155.4765
150.000000	61.355	156.4624
152.500000	61.464	157.4541
155.000000	61.469	157.8769
157.500000	61.368	158.4088
160.000000	61.333	159.2054
162.500000	61.257	159.6402
165.000000	61.098	159.9603
167.500000	61.057	159.8365
170.000000	61.036	159.7226
172.500000	61.019	160.5403
175.000000	60.993	160.7594
177.500000	60.829	159.9614
180.000000	60.649	160.0297
182.500000	60.647	161.3327
185.000000	60.735	162.8423
187.500000	60.801	163.5446
190.000000	60.815	163.3179
192.500000	60.794	163.2881
195.000000	60.801	164.1729
197.500000	60.832	165.2773
200.000000	60.833	166.1373
203.000000	60.806	166.9006
206.000000	60.680	167.4345
209.000000	60.560	168.1268
212.000000	60.580	168.5458
214.000000	60.597	168.6274
218.000000	60.525	168.7614
220.000000	60.472	168.8000
224.000000	60.441	169.1389
227.000000	60.481	169.3857
230.000000	60.550	169.6501
233.000000	60.686	170.1993
236.000000	60.785	170.8743
240.000000	60.742	171.0651
243.000000	60.677	170.5018
247.000000	60.631	170.8458
250.000000	60.590	172.0285
254.000000	60.490	172.5069
258.000000	60.337	172.8381
262.000000	60.289	173.6831
265.000000	60.291	174.1636
269.000000	60.325	174.3019
272.000000	60.367	174.2172
276.000000	60.419	174.4299
280.000000	60.442	174.9065
285.000000	60.442	175.7342
290.000000	60.435	176.1091
295.000000	60.392	176.2892
300.000000	60.396	177.0295
304.000000	60.478	177.9033
307.000000	60.493	178.4079
311.000000	60.486	178.7008
315.000000	60.550	179.0015
320.000000	60.631	-179.9931
325.000000	60.671	-178.9353
330.000000	60.781	-178.4835
335.000000	60.900	-178.5185
340.000000	60.902	-178.4413
345.000000	60.840	-177.8637
350.000000	60.889	-177.3404
355.000000	61.069	-176.9805
360.000000	61.208	-176.3774
365.000000	61.194	-176.1569
370.000000	61.159	-176.2029
375.000000	61.249	-175.9227
382.000000	61.387	-175.4366
387.000000	61.428	-175.5721
395.000000	61.472	-175.7776
400.000000	61.470	-175.4015
406.000000	61.437	-175.2990
412.000000	61.465	-175.6565
418.000000	61.555	-176.3542
425.000000	61.605	-176.8651
431.000000	61.575	-176.8237
437.000000	61.560	-176.9365
444.000000	61.593	-177.3382
450.000000	61.559	-177.6950
455.000000	61.510	-177.7310
462.000000	61.494	-177.4189
468.000000	61.495	-177.3940
475.000000	61.472	-177.8206
482.000000	61.444	-177.7151
487.000000	61.393	-177.5046
494.000000	61.316	-177.3409
500.000000	61.290	-177.1591
508.000000	61.307	-176.4948
515.000000	61.276	-176.0125
522.000000	61.237	-175.9476
530.000000	61.264	-175.8416
538.000000	61.282	-175.5644
545.000000	61.305	-175.4072
552.000000	61.323	-175.3572
560.000000	61.304	-175.0520
570.000000	61.252	-174.4377
580.000000	61.252	-174.5562
590.000000	61.291	-175.0545
600.000000	61.307	-175.2504
608.000000	61.250	-175.0867
615.000000	61.126	-174.9243
622.000000	61.014	-174.5856
630.000000	60.998	-174.1179
640.000000	61.006	-174.0720
650.000000	60.957	-173.9426
660.000000	60.845	-172.9516
670.000000	60.805	-171.8102
680.000000	60.781	-170.8671
690.000000	60.812	-170.2172
700.000000	60.837	-169.6665
710.000000	60.831	-169.2368
720.000000	60.903	-168.9897
730.000000	61.002	-168.6978
740.000000	61.021	-168.6397
750.000000	61.015	-168.7304
762.000000	61.083	-168.4636
775.000000	61.137	-168.5357
788.000000	61.149	-168.9325
800.000000	61.090	-169.1844
812.000000	60.968	-169.1700
825.000000	60.882	-169.5993
838.000000	60.819	-169.6412
850.000000	60.779	-168.9108
862.000000	60.677	-168.1961
875.000000	60.508	-167.3975
885.000000	60.449	-166.9625
900.000000	60.370	-166.5302
912.000000	60.276	-166.0040
925.000000	60.187	-165.2117
938.000000	60.124	-164.5177
950.000000	60.079	-163.9954
962.000000	59.980	-163.2792
975.000000	59.909	-162.1753
988.000000	59.889	-161.3092
1000.000000	59.907	-160.7599
1015.000000	59.971	-159.7132
1030.000000	60.003	-158.7237
1044.000000	60.099	-157.5394
1060.000000	60.176	-156.5502
1075.000000	60.200	-155.6797
1090.000000	60.293	-154.9185
1106.000000	60.440	-154.4312
1120.000000	60.532	-154.0185
1138.000000	60.591	-153.5528
1150.000000	60.634	-153.3931
1172.000000	60.701	-153.2629
1180.000000	60.722	-153.2685
1206.000000	60.789	-153.5434
1220.000000	60.813	-153.4269
1241.000000	60.879	-152.9117
1250.000000	60.895	-152.6609
1265.000000	60.914	-152.3480
1280.000000	60.904	-152.3209
1315.000000	60.762	-151.7821
1320.000000	60.755	-151.6338
1340.000000	60.772	-151.0815
1360.000000	60.766	-150.2623
1380.000000	60.735	-149.2470
1400.000000	60.716	-148.1490
1430.000000	60.800	-146.6932
1450.000000	60.892	-146.0993
1475.000000	61.059	-145.3356
1500.000000	61.257	-144.7435
1525.000000	61.364	-144.3184
1550.000000	61.431	-144.1479
1575.000000	61.469	-143.8063
1600.000000	61.582	-143.2291
1625.000000	61.719	-142.7083
1650.000000	61.776	-142.3046
1675.000000	61.849	-141.7894
1700.000000	61.926	-141.5935
1725.000000	61.982	-141.6029
1750.000000	62.006	-141.0321
1775.000000	62.042	-140.2716
1800.000000	62.122	-139.6850
1825.000000	62.239	-139.2436
1850.000000	62.298	-138.7991
1875.000000	62.302	-138.5175
1900.000000	62.336	-138.3614
1925.000000	62.376	-138.2439
1950.000000	62.425	-137.9131
1975.000000	62.476	-137.3444
2000.000000	62.499	-136.7703
2030.000000	62.550	-136.3230
2060.000000	62.616	-135.5849
2090.000000	62.712	-134.6763
2120.000000	62.770	-133.9842
2140.000000	62.813	-133.5049
2180.000000	62.963	-132.4782
2200.000000	63.051	-132.0935
2240.000000	63.185	-131.7323
2270.000000	63.238	-131.6694
2300.000000	63.298	-131.5060
2330.000000	63.412	-131.1136
2360.000000	63.537	-130.4209
2400.000000	63.717	-129.3479
2430.000000	63.879	-128.8065
2470.000000	64.101	-128.2204
2500.000000	64.238	-127.6026
2540.000000	64.393	-127.0812
2580.000000	64.591	-126.9453
2620.000000	64.787	-126.8321
2650.000000	64.942	-126.9659
2690.000000	65.154	-127.3165
2720.000000	65.292	-127.4986
2760.000000	65.467	-127.8318
2800.000000	65.681	-128.1162
2850.000000	65.962	-128.6384
2900.000000	66.239	-129.4183
2950.000000	66.448	-130.5581
3000.000000	66.651	-131.8969
3040.000000	66.778	-133.2432
3070.000000	66.855	-134.2121
3110.000000	66.928	-135.3728
3150.000000	66.965	-136.6430
3200.000000	66.965	-138.1358
3250.000000	66.943	-139.3703
3300.000000	66.923	-140.4803
3350.000000	66.900	-141.5112
3400.000000	66.854	-142.4357
3450.000000	66.799	-143.1411
3500.000000	66.751	-143.8129
3550.000000	66.671	-144.5027
3600.000000	66.552	-145.0924
3650.000000	66.431	-145.4421
3700.000000	66.307	-145.9036
3750.000000	66.191	-146.3209
3820.000000	66.044	-146.4023
3870.000000	65.964	-146.3887
3950.000000	65.816	-146.5510
4000.000000	65.717	-146.3645
4060.000000	65.617	-145.8996
4120.000000	65.538	-145.5765
4180.000000	65.474	-145.2714
4250.000000	65.398	-144.6930
4310.000000	65.319	-144.2141
4370.000000	65.232	-143.8149
4440.000000	65.123	-143.2043
4500.000000	65.031	-142.6330
4550.000000	64.970	-142.2176
4620.000000	64.902	-141.5146
4680.000000	64.850	-140.6929
4750.000000	64.786	-139.7739
4820.000000	64.733	-139.0371
4870.000000	64.711	-138.4821
4940.000000	64.695	-137.4515
5000.000000	64.672	-136.4234
5080.000000	64.654	-135.0588
5150.000000	64.710	-134.0447
5220.000000	64.796	-132.9261
5300.000000	64.885	-131.4922
5380.000000	64.962	-130.4027
5450.000000	65.048	-129.4673
5520.000000	65.164	-128.3868
5600.000000	65.332	-127.0851
5700.000000	65.612	-125.3837
5800.000000	65.936	-123.6809
5900.000000	66.380	-122.1596
6000.000000	66.968	-121.4600
6080.000000	67.515	-121.6488
6150.000000	68.028	-122.4242
6220.000000	68.527	-123.8210
6300.000000	69.040	-126.1825
6400.000000	69.576	-130.1064
6500.000000	69.936	-134.8725
6600.000000	70.071	-139.9947
6700.000000	70.044	-144.9793
6800.000000	69.895	-149.1942
6900.000000	69.664	-152.3720
7000.000000	69.424	-154.6548
7100.000000	69.239	-156.4501
7200.000000	69.114	-157.8654
7300.000000	69.079	-159.0261
7400.000000	69.094	-160.2372
7500.000000	69.149	-161.6045
7620.000000	69.296	-163.6795
7750.000000	69.520	-166.7520
7880.000000	69.671	-170.5819
8000.000000	69.754	-174.9790
8120.000000	69.777	179.9953
8250.000000	69.612	173.9182
8380.000000	69.222	167.1902
8500.000000	68.661	161.0353
8620.000000	67.914	155.7354
8750.000000	66.933	151.2430
8850.000000	66.101	148.6833
9000.000000	64.827	146.2022
9120.000000	63.834	145.0946
9250.000000	62.849	144.7890
9380.000000	61.918	145.2473
9500.000000	61.112	146.0868
9620.000000	60.356	147.3630
9750.000000	59.581	149.1827
9880.000000	58.929	151.3331
10000.000000	58.432	153.6591
10150.000000	57.843	156.5994
10300.000000	57.306	159.2255
10440.000000	56.897	161.6741
10600.000000	56.458	164.5515
10750.000000	56.038	167.3945
10900.000000	55.727	170.9761
11060.000000	55.551	175.0404
11200.000000	55.529	178.2708
11380.000000	55.787	-178.0662
11500.000000	56.111	-176.4960
11720.000000	56.771	-176.7394
11800.000000	56.982	-177.6370
12060.000000	57.284	177.1649
12200.000000	57.132	173.8494
12410.000000	56.508	170.1414
12500.000000	56.125	169.3716
12650.000000	55.440	169.4164
12800.000000	54.846	171.2006
13150.000000	54.183	179.8263
13200.000000	54.214	-178.6360
13400.000000	54.691	-172.4236
13600.000000	55.677	-167.5630
13800.000000	57.125	-165.3156
14000.000000	58.866	-166.4333
14300.000000	61.756	-175.9292
14500.000000	63.447	170.4509
14750.000000	64.572	145.8333
15000.000000	64.155	119.0849
15250.000000	62.470	97.5777
15500.000000	60.216	83.5975
15750.000000	58.034	75.3451
16000.000000	56.200	71.0563
16250.000000	54.733	69.8599
16500.000000	53.627	70.1016
16750.000000	53.009	70.0559
17000.000000	52.971	69.0775
17250.000000	53.429	67.4199
17500.000000	54.203	63.2818
17750.000000	55.333	55.1241
18000.000000	56.633	40.7449
18250.000000	57.422	12.5948
18500.000000	57.061	-88.8307
18750.000000	55.207	-15.0145
19000.000000	51.695	171.6619
19250.000000	46.448	-118.3984
19500.000000	41.358	-73.9609
19750.000000	39.438	166.3672
20000.000000	38.890	-179.6953
