* Measurement data measured by REW V5.20.13
* Source: EXCL: Mic in at rear panel (Pink)(Realtek(R) Audio), MICROPHONE (마스), L, volume: 1.000
* Format: 256k Log Swept Sine, 1 sweep at -12.0 dBFS with no timing reference
* Dated: 2022. 12. 30 오후 6:40:28
* REW Settings:
*  C-weighting compensation: Off
*  Target level: 75.0 dB
* Note: 
* Measurement: L_87db
* Smoothing: 1/24 octave
* Frequency Step: 1/48 octave
* Start Frequency: 20.300 Hz
*
* Freq(Hz)	SPL(dB)	Phase(degrees)
20.299999	91.474	-174.4880
20.600000	91.445	-174.8418
20.900000	91.383	-175.3966
21.200001	91.319	-175.7226
21.400000	91.281	-175.8322
21.799999	91.223	-175.9282
22.000000	91.205	-175.9756
22.400000	91.189	-176.1446
22.700001	91.186	-176.3618
23.000000	91.184	-176.6571
23.299999	91.178	-176.9982
23.600000	91.170	-177.3469
24.000000	91.159	-177.7697
24.299999	91.159	-178.0410
24.700001	91.178	-178.3804
25.000000	91.206	-178.6785
25.400000	91.249	-179.2050
25.799999	91.279	-179.8779
26.200001	91.279	179.4210
26.500000	91.259	178.9829
26.900000	91.219	178.6067
27.200001	91.194	178.4740
27.600000	91.183	178.3940
28.000000	91.197	178.2585
28.500000	91.223	177.8680
29.000000	91.225	177.3085
29.500000	91.202	176.7408
30.000000	91.169	176.2075
30.400000	91.138	175.7699
30.700001	91.110	175.4339
31.100000	91.065	175.0175
31.500000	91.019	174.6808
32.000000	90.977	174.3587
32.500000	90.963	174.0069
33.000000	90.963	173.4914
33.500000	90.951	172.8517
34.000000	90.920	172.2539
34.500000	90.882	171.8035
35.000000	90.857	171.4550
35.500000	90.846	171.0937
36.000000	90.835	170.6723
36.500000	90.816	170.2297
37.000000	90.791	169.8080
37.500000	90.766	169.3911
38.200001	90.723	168.7490
38.700001	90.680	168.2706
39.500000	90.602	167.6037
40.000000	90.561	167.2220
40.599998	90.522	166.6926
41.200001	90.475	166.0754
41.799999	90.411	165.5005
42.500000	90.335	165.0002
43.099998	90.286	164.6367
43.700001	90.243	164.2404
44.400002	90.181	163.7875
45.000000	90.124	163.4765
45.500000	90.081	163.2406
46.200001	90.020	162.8620
46.799999	89.959	162.4946
47.500000	89.876	162.0842
48.200001	89.792	161.6880
48.700001	89.732	161.3876
49.400002	89.642	160.9583
50.000000	89.560	160.6259
50.799999	89.452	160.2543
51.500000	89.365	159.9799
52.200001	89.284	159.7384
53.000000	89.199	159.4659
53.799999	89.111	159.1638
54.500000	89.021	158.9004
55.200001	88.922	158.6760
56.000000	88.802	158.4833
57.000000	88.653	158.3239
58.000000	88.509	158.2023
59.000000	88.373	158.0592
60.000000	88.237	157.9013
60.799999	88.128	157.7885
61.500000	88.033	157.7224
62.200001	87.940	157.7130
63.000000	87.841	157.7646
64.000000	87.732	157.8149
65.000000	87.622	157.8137
66.000000	87.506	157.8597
67.000000	87.392	157.9319
68.000000	87.276	158.0159
69.000000	87.163	158.1277
70.000000	87.053	158.2422
71.000000	86.942	158.3923
72.000000	86.835	158.5763
73.000000	86.732	158.7870
74.000000	86.634	159.0117
75.000000	86.539	159.2274
76.199997	86.429	159.4926
77.500000	86.319	159.7614
78.800003	86.212	160.0001
80.000000	86.111	160.2642
81.199997	86.017	160.6315
82.500000	85.940	161.0136
83.800003	85.858	161.2688
85.000000	85.768	161.5333
86.199997	85.685	161.8507
87.500000	85.609	162.1708
88.500000	85.556	162.3978
90.000000	85.489	162.7582
91.199997	85.448	163.0222
92.500000	85.399	163.2654
93.800003	85.345	163.5636
95.000000	85.296	163.8390
96.199997	85.243	164.1028
97.500000	85.183	164.4144
98.800003	85.132	164.7241
100.000000	85.089	164.9673
101.500000	85.038	165.2538
103.000000	84.988	165.5482
104.400002	84.943	165.8434
106.000000	84.887	166.2011
107.500000	84.836	166.5646
109.000000	84.787	166.8875
110.599998	84.733	167.2101
112.000000	84.689	167.4863
113.800003	84.641	167.8464
115.000000	84.612	168.0832
117.199997	84.554	168.5281
118.000000	84.533	168.7128
120.599998	84.476	169.2306
122.000000	84.442	169.4272
124.099998	84.392	169.7170
125.000000	84.372	169.8427
126.500000	84.341	170.0817
128.000000	84.315	170.3507
131.500000	84.272	170.9424
132.000000	84.267	171.0162
134.000000	84.245	171.2906
136.000000	84.219	171.5776
138.000000	84.192	171.8914
140.000000	84.165	172.2422
143.000000	84.135	172.7546
145.000000	84.121	173.0284
147.500000	84.105	173.2984
150.000000	84.080	173.5580
152.500000	84.058	173.8648
155.000000	84.045	174.1260
157.500000	84.037	174.3683
160.000000	84.033	174.6153
162.500000	84.021	174.8262
165.000000	84.004	175.0035
167.500000	83.990	175.1531
170.000000	83.979	175.2831
172.500000	83.965	175.4189
175.000000	83.948	175.5436
177.500000	83.927	175.6359
180.000000	83.905	175.7272
182.500000	83.884	175.8194
185.000000	83.856	175.9272
187.500000	83.826	176.0657
190.000000	83.799	176.2119
192.500000	83.773	176.3775
195.000000	83.744	176.5753
197.500000	83.718	176.7623
200.000000	83.694	176.9194
203.000000	83.671	177.1486
206.000000	83.657	177.3911
209.000000	83.642	177.6244
212.000000	83.630	177.8802
214.000000	83.625	178.0423
218.000000	83.617	178.3648
220.000000	83.616	178.5290
224.000000	83.615	178.8173
227.000000	83.614	178.9629
230.000000	83.612	179.0604
233.000000	83.605	179.1399
236.000000	83.595	179.2132
240.000000	83.579	179.2980
243.000000	83.564	179.3500
247.000000	83.533	179.4179
250.000000	83.508	179.5074
254.000000	83.475	179.6782
258.000000	83.437	179.9001
262.000000	83.399	-179.8527
265.000000	83.367	-179.6937
269.000000	83.323	-179.5125
272.000000	83.295	-179.3633
276.000000	83.264	-179.0848
280.000000	83.238	-178.7268
285.000000	83.204	-178.2761
290.000000	83.170	-177.8404
295.000000	83.137	-177.3747
300.000000	83.115	-176.8765
304.000000	83.109	-176.4668
307.000000	83.106	-176.1642
311.000000	83.102	-175.7647
315.000000	83.100	-175.3363
320.000000	83.100	-174.7791
325.000000	83.108	-174.2623
330.000000	83.123	-173.7534
335.000000	83.145	-173.2448
340.000000	83.178	-172.7728
345.000000	83.211	-172.3363
350.000000	83.238	-171.9547
355.000000	83.266	-171.6002
360.000000	83.304	-171.2776
365.000000	83.346	-170.9928
370.000000	83.392	-170.7888
375.000000	83.439	-170.6311
382.000000	83.497	-170.4093
387.000000	83.535	-170.2950
395.000000	83.584	-170.2155
400.000000	83.601	-170.2155
406.000000	83.621	-170.2431
412.000000	83.642	-170.3225
418.000000	83.652	-170.4212
425.000000	83.645	-170.5030
431.000000	83.633	-170.5471
437.000000	83.613	-170.5583
444.000000	83.581	-170.5245
450.000000	83.551	-170.4830
455.000000	83.520	-170.4335
462.000000	83.472	-170.2700
468.000000	83.436	-170.0629
475.000000	83.395	-169.7704
482.000000	83.355	-169.3912
487.000000	83.333	-169.0967
494.000000	83.309	-168.6641
500.000000	83.288	-168.2627
508.000000	83.263	-167.7014
515.000000	83.254	-167.2004
522.000000	83.260	-166.6924
530.000000	83.278	-166.1259
538.000000	83.300	-165.6257
545.000000	83.321	-165.2602
552.000000	83.346	-164.9288
560.000000	83.380	-164.5781
570.000000	83.410	-164.2003
580.000000	83.424	-163.9231
590.000000	83.434	-163.7029
600.000000	83.430	-163.4952
608.000000	83.418	-163.2762
615.000000	83.396	-163.0218
622.000000	83.370	-162.7052
630.000000	83.343	-162.3107
640.000000	83.310	-161.7467
650.000000	83.284	-161.0686
660.000000	83.272	-160.3099
670.000000	83.278	-159.4635
680.000000	83.304	-158.5966
690.000000	83.346	-157.7494
700.000000	83.408	-156.9490
710.000000	83.489	-156.2468
720.000000	83.582	-155.6865
730.000000	83.679	-155.2810
740.000000	83.771	-154.9976
750.000000	83.855	-154.8284
762.000000	83.949	-154.7977
775.000000	84.028	-154.9088
788.000000	84.075	-155.0769
800.000000	84.099	-155.2833
812.000000	84.102	-155.4952
825.000000	84.082	-155.6536
838.000000	84.034	-155.6943
850.000000	83.976	-155.6070
862.000000	83.917	-155.3960
875.000000	83.853	-155.0367
885.000000	83.809	-154.6941
900.000000	83.746	-154.0849
912.000000	83.698	-153.5083
925.000000	83.652	-152.8294
938.000000	83.619	-152.1183
950.000000	83.594	-151.4389
962.000000	83.573	-150.7246
975.000000	83.562	-149.8930
988.000000	83.561	-149.0096
1000.000000	83.571	-148.1617
1015.000000	83.599	-147.1210
1030.000000	83.646	-146.1124
1044.000000	83.712	-145.1842
1060.000000	83.807	-144.2134
1075.000000	83.910	-143.4249
1090.000000	84.026	-142.7806
1106.000000	84.149	-142.2609
1120.000000	84.249	-141.9109
1138.000000	84.361	-141.5590
1150.000000	84.424	-141.3624
1172.000000	84.523	-141.0317
1180.000000	84.555	-140.8987
1206.000000	84.652	-140.3820
1220.000000	84.704	-140.0632
1241.000000	84.787	-139.5679
1250.000000	84.822	-139.3702
1265.000000	84.881	-139.0765
1280.000000	84.939	-138.8111
1315.000000	85.046	-138.2337
1320.000000	85.058	-138.1453
1340.000000	85.099	-137.7464
1360.000000	85.130	-137.2415
1380.000000	85.167	-136.6069
1400.000000	85.221	-135.8489
1430.000000	85.338	-134.6726
1450.000000	85.438	-133.9487
1475.000000	85.578	-133.1802
1500.000000	85.717	-132.5720
1525.000000	85.849	-132.0646
1550.000000	85.965	-131.6109
1575.000000	86.070	-131.1488
1600.000000	86.172	-130.6597
1625.000000	86.270	-130.1416
1650.000000	86.362	-129.5778
1675.000000	86.455	-128.9557
1700.000000	86.555	-128.2955
1725.000000	86.659	-127.5912
1750.000000	86.768	-126.8299
1775.000000	86.878	-126.0502
1800.000000	86.977	-125.2484
1825.000000	87.072	-124.3725
1850.000000	87.180	-123.5001
1875.000000	87.307	-122.7638
1900.000000	87.450	-122.1855
1925.000000	87.610	-121.7361
1950.000000	87.793	-121.3451
1975.000000	87.990	-120.9321
2000.000000	88.192	-120.4981
2030.000000	88.439	-120.0563
2060.000000	88.694	-119.7170
2090.000000	88.953	-119.4602
2120.000000	89.219	-119.2903
2140.000000	89.400	-119.2277
2180.000000	89.765	-119.2236
2200.000000	89.949	-119.2948
2240.000000	90.321	-119.5683
2270.000000	90.596	-119.8946
2300.000000	90.866	-120.3380
2330.000000	91.132	-120.8746
2360.000000	91.398	-121.4938
2400.000000	91.756	-122.4839
2430.000000	92.022	-123.3789
2470.000000	92.358	-124.7528
2500.000000	92.596	-125.9085
2540.000000	92.905	-127.5980
2580.000000	93.205	-129.4443
2620.000000	93.492	-131.5374
2650.000000	93.690	-133.3027
2690.000000	93.915	-135.8483
2720.000000	94.051	-137.8475
2760.000000	94.190	-140.6189
2800.000000	94.279	-143.4920
2850.000000	94.319	-147.0482
2900.000000	94.287	-150.3795
2950.000000	94.222	-153.5188
3000.000000	94.125	-156.6460
3040.000000	94.012	-159.1514
3070.000000	93.903	-160.9682
3110.000000	93.729	-163.2546
3150.000000	93.527	-165.4043
3200.000000	93.227	-167.9369
3250.000000	92.876	-170.1652
3300.000000	92.498	-171.9665
3350.000000	92.115	-173.4184
3400.000000	91.718	-174.5605
3450.000000	91.312	-175.2911
3500.000000	90.921	-175.6108
3550.000000	90.551	-175.6449
3600.000000	90.203	-175.4304
3650.000000	89.885	-174.9437
3700.000000	89.602	-174.3207
3750.000000	89.346	-173.6466
3820.000000	89.025	-172.5386
3870.000000	88.817	-171.6616
3950.000000	88.520	-170.2528
4000.000000	88.351	-169.3177
4060.000000	88.172	-168.1445
4120.000000	88.021	-167.0189
4180.000000	87.889	-165.9182
4250.000000	87.753	-164.6647
4310.000000	87.644	-163.6297
4370.000000	87.527	-162.5817
4440.000000	87.393	-161.3256
4500.000000	87.289	-160.2575
4550.000000	87.206	-159.3304
4620.000000	87.106	-157.9845
4680.000000	87.037	-156.8552
4750.000000	86.970	-155.5401
4820.000000	86.916	-154.2343
4870.000000	86.881	-153.3104
4940.000000	86.839	-151.9914
5000.000000	86.813	-150.8411
5080.000000	86.789	-149.2635
5150.000000	86.787	-147.8556
5220.000000	86.806	-146.4605
5300.000000	86.842	-144.8309
5380.000000	86.908	-143.1392
5450.000000	86.994	-141.6532
5520.000000	87.105	-140.1689
5600.000000	87.269	-138.4265
5700.000000	87.542	-136.2004
5800.000000	87.925	-134.1803
5900.000000	88.416	-132.5007
6000.000000	89.023	-131.3898
6080.000000	89.589	-131.1006
6150.000000	90.136	-131.5017
6220.000000	90.703	-132.6982
6300.000000	91.324	-135.1503
6400.000000	91.972	-139.7190
6500.000000	92.396	-145.4888
6600.000000	92.547	-151.7576
6700.000000	92.443	-157.7101
6800.000000	92.148	-162.7385
6900.000000	91.770	-166.5700
7000.000000	91.387	-169.2421
7100.000000	91.046	-170.9913
7200.000000	90.782	-172.1636
7300.000000	90.602	-173.1266
7400.000000	90.492	-174.0869
7500.000000	90.445	-175.1722
7620.000000	90.473	-176.8105
7750.000000	90.559	-179.1947
7880.000000	90.604	177.6964
8000.000000	90.593	174.1021
8120.000000	90.516	169.7754
8250.000000	90.310	164.3145
8380.000000	89.919	158.3154
8500.000000	89.359	152.7452
8620.000000	88.596	147.6997
8750.000000	87.575	143.3731
8850.000000	86.704	141.0096
9000.000000	85.353	139.0494
9120.000000	84.297	138.6722
9250.000000	83.211	139.1775
9380.000000	82.198	140.3847
9500.000000	81.337	142.0095
9620.000000	80.547	144.0357
9750.000000	79.767	146.5911
9880.000000	79.083	149.4950
10000.000000	78.544	152.3552
10150.000000	77.979	155.9661
10300.000000	77.522	159.5411
10440.000000	77.185	162.7396
10600.000000	76.894	166.1824
10750.000000	76.698	169.1556
10900.000000	76.557	171.8080
11060.000000	76.453	174.3443
11200.000000	76.402	176.4019
11380.000000	76.416	178.8289
11500.000000	76.491	-179.8236
11720.000000	76.757	-178.5473
11800.000000	76.869	-178.6276
12060.000000	77.050	179.0705
12200.000000	76.941	177.1740
12410.000000	76.471	174.9164
12500.000000	76.181	174.5115
12650.000000	75.649	174.8838
12800.000000	75.150	176.6231
13150.000000	74.618	-175.2954
13200.000000	74.651	-173.9252
13400.000000	75.108	-168.6390
13600.000000	76.061	-164.4919
13800.000000	77.471	-162.4159
14000.000000	79.261	-163.5092
14300.000000	82.200	-174.3691
14500.000000	83.713	170.1377
14750.000000	84.295	143.6393
15000.000000	83.233	118.1096
15250.000000	81.080	100.2234
15500.000000	78.622	89.7917
15750.000000	76.363	84.3637
16000.000000	74.446	82.1754
16250.000000	72.899	82.2380
16500.000000	71.776	83.7628
16750.000000	71.139	85.9561
17000.000000	71.005	88.0335
17250.000000	71.405	89.1832
17500.000000	72.416	88.5831
17750.000000	74.058	85.0007
18000.000000	76.172	75.9772
18250.000000	78.183	57.8588
18500.000000	79.191	29.2139
18750.000000	78.545	-2.9463
19000.000000	76.359	-27.2947
19250.000000	73.516	-41.3558
19500.000000	70.926	-49.2899
19750.000000	68.772	-51.4797
20000.000000	66.988	-47.5353
