* Measurement data measured by REW V5.20.13
* Source: EXCL: Mic in at rear panel (Pink)(Realtek(R) Audio), MICROPHONE (마스), L, volume: 1.000
* Format: 256k Log Swept Sine, 1 sweep at -12.0 dBFS with no timing reference
* Dated: 2022. 12. 30 오후 6:40:51
* REW Settings:
*  C-weighting compensation: Off
*  Target level: 75.0 dB
* Note: 
* Measurement: 72
* Smoothing: 1/24 octave
* Frequency Step: 1/48 octave
* Start Frequency: 20.300 Hz
*
* Freq(Hz)	SPL(dB)	Phase(degrees)
20.299999	77.316	158.9000
20.600000	77.081	158.9323
20.900000	76.615	159.3513
21.200001	76.252	160.6382
21.400000	76.104	161.7589
21.799999	75.986	164.0161
22.000000	75.990	164.8994
22.400000	76.066	165.9413
22.700001	76.144	166.1050
23.000000	76.206	165.7958
23.299999	76.231	165.1217
23.600000	76.204	164.2508
24.000000	76.081	163.1542
24.299999	75.949	162.6821
24.700001	75.788	162.6922
25.000000	75.733	163.0071
25.400000	75.778	163.3075
25.799999	75.895	162.8861
26.200001	75.967	161.6838
26.500000	75.944	160.6163
26.900000	75.815	159.5572
27.200001	75.692	159.3072
27.600000	75.581	159.6303
28.000000	75.595	160.0941
28.500000	75.724	159.8220
29.000000	75.779	158.3523
29.500000	75.635	156.6026
30.000000	75.331	155.8122
30.400000	75.085	156.1861
30.700001	74.959	156.8884
31.100000	74.903	157.8923
31.500000	74.947	158.4960
32.000000	75.034	158.3518
32.500000	75.049	157.5266
33.000000	74.973	156.7461
33.500000	74.868	156.4557
34.000000	74.817	156.5407
34.500000	74.840	156.5247
35.000000	74.891	156.0996
35.500000	74.908	155.3627
36.000000	74.877	154.6392
36.500000	74.824	154.1086
37.000000	74.773	153.6933
37.500000	74.716	153.2729
38.200001	74.593	152.8574
38.700001	74.501	152.9097
39.500000	74.456	153.2035
40.000000	74.471	153.0425
40.599998	74.461	152.5216
41.200001	74.420	152.0943
41.799999	74.406	151.7611
42.500000	74.407	151.0141
43.099998	74.341	150.2924
43.700001	74.242	150.1691
44.400002	74.221	150.6323
45.000000	74.287	150.7686
45.500000	74.328	150.6114
46.200001	74.351	150.4780
46.799999	74.397	150.3568
47.500000	74.417	149.5790
48.200001	74.269	148.7794
48.700001	74.110	148.9025
49.400002	73.999	149.6953
50.000000	74.000	149.8081
50.799999	73.897	149.1050
51.500000	73.709	149.0574
52.200001	73.616	149.4615
53.000000	73.603	149.1661
53.799999	73.502	148.3722
54.500000	73.368	148.1039
55.200001	73.278	148.0964
56.000000	73.216	147.9781
57.000000	73.134	147.6962
58.000000	73.027	147.3677
59.000000	72.876	147.2803
60.000000	72.762	147.5437
60.799999	72.710	147.5191
61.500000	72.646	147.2972
62.200001	72.556	147.1314
63.000000	72.449	147.1140
64.000000	72.332	147.2252
65.000000	72.235	147.3833
66.000000	72.146	147.4457
67.000000	72.025	147.4541
68.000000	71.878	147.7074
69.000000	71.769	148.1351
70.000000	71.700	148.3218
71.000000	71.626	148.2539
72.000000	71.549	148.1402
73.000000	71.470	147.9330
74.000000	71.359	147.8673
75.000000	71.263	148.2563
76.199997	71.230	148.7620
77.500000	71.188	148.9734
78.800003	71.122	149.2814
80.000000	71.050	149.4431
81.199997	70.942	149.6504
82.500000	70.823	149.9477
83.800003	70.702	150.2842
85.000000	70.619	150.5702
86.199997	70.546	150.6354
87.500000	70.459	150.7365
88.500000	70.401	150.9364
90.000000	70.361	151.4431
91.199997	70.363	151.6278
92.500000	70.299	151.6546
93.800003	70.188	152.0613
95.000000	70.116	152.6550
96.199997	70.092	153.0334
97.500000	70.057	153.0114
98.800003	69.982	153.0475
100.000000	69.933	153.2854
101.500000	69.894	153.5355
103.000000	69.841	153.7047
104.400002	69.755	153.8545
106.000000	69.638	154.2368
107.500000	69.551	154.6472
109.000000	69.480	155.0499
110.599998	69.416	155.4769
112.000000	69.362	155.9091
113.800003	69.312	156.5772
115.000000	69.292	156.9651
117.199997	69.236	157.6615
118.000000	69.219	157.9858
120.599998	69.183	158.4676
122.000000	69.095	158.5587
124.099998	68.981	158.8347
125.000000	68.934	158.8869
126.500000	68.851	159.1292
128.000000	68.794	159.5933
131.500000	68.717	160.7236
132.000000	68.703	160.8821
134.000000	68.653	161.5307
136.000000	68.614	162.0915
138.000000	68.573	162.5518
140.000000	68.518	163.0360
143.000000	68.467	163.8605
145.000000	68.464	164.5006
147.500000	68.501	165.2365
150.000000	68.492	166.0174
152.500000	68.457	166.5473
155.000000	68.368	166.6873
157.500000	68.322	166.9173
160.000000	68.353	167.3403
162.500000	68.390	168.1900
165.000000	68.415	169.0412
167.500000	68.372	169.3336
170.000000	68.286	169.5793
172.500000	68.245	170.0493
175.000000	68.250	170.5160
177.500000	68.270	170.9389
180.000000	68.312	171.3641
182.500000	68.323	171.7627
185.000000	68.288	172.2747
187.500000	68.244	172.6720
190.000000	68.197	173.0009
192.500000	68.147	173.4786
195.000000	68.111	174.0281
197.500000	68.108	174.4144
200.000000	68.124	174.7170
203.000000	68.129	175.3324
206.000000	68.102	176.0345
209.000000	68.083	176.6308
212.000000	68.110	177.1825
214.000000	68.134	177.5902
218.000000	68.163	178.2911
220.000000	68.173	178.5568
224.000000	68.233	179.1203
227.000000	68.274	179.5668
230.000000	68.309	-179.9794
233.000000	68.346	-179.7213
236.000000	68.359	-179.5844
240.000000	68.350	-179.3323
243.000000	68.371	-179.0256
247.000000	68.409	-178.5937
250.000000	68.390	-178.3022
254.000000	68.347	-177.8849
258.000000	68.351	-177.3757
262.000000	68.382	-177.0253
265.000000	68.410	-176.8181
269.000000	68.427	-176.5034
272.000000	68.422	-176.2446
276.000000	68.435	-175.6397
280.000000	68.491	-174.9970
285.000000	68.535	-174.5287
290.000000	68.546	-173.9367
295.000000	68.559	-173.4402
300.000000	68.602	-172.8018
304.000000	68.657	-172.4155
307.000000	68.694	-172.1740
311.000000	68.727	-171.9311
315.000000	68.751	-171.7046
320.000000	68.789	-171.1602
325.000000	68.855	-170.5720
330.000000	68.935	-170.1271
335.000000	69.005	-169.8549
340.000000	69.077	-169.6221
345.000000	69.137	-169.3585
350.000000	69.224	-169.0941
355.000000	69.341	-168.9606
360.000000	69.441	-168.7047
365.000000	69.510	-168.4422
370.000000	69.587	-168.3317
375.000000	69.669	-168.2938
382.000000	69.789	-168.3007
387.000000	69.836	-168.3279
395.000000	69.897	-168.6172
400.000000	69.938	-168.8900
406.000000	69.979	-169.1664
412.000000	70.033	-169.3037
418.000000	70.080	-169.6257
425.000000	70.085	-170.0909
431.000000	70.067	-170.3531
437.000000	70.033	-170.6627
444.000000	69.994	-170.9198
450.000000	69.961	-170.9442
455.000000	69.940	-170.9646
462.000000	69.936	-171.2850
468.000000	69.927	-171.5510
475.000000	69.891	-171.5099
482.000000	69.848	-171.2572
487.000000	69.816	-171.1890
494.000000	69.784	-171.1369
500.000000	69.774	-170.8651
508.000000	69.750	-170.4587
515.000000	69.726	-170.2397
522.000000	69.722	-169.9873
530.000000	69.741	-169.5760
538.000000	69.757	-169.2649
545.000000	69.777	-169.1348
552.000000	69.798	-169.1600
560.000000	69.812	-169.2614
570.000000	69.801	-169.2656
580.000000	69.790	-169.2161
590.000000	69.787	-169.0602
600.000000	69.741	-168.8380
608.000000	69.682	-168.8662
615.000000	69.623	-168.9888
622.000000	69.567	-168.9375
630.000000	69.503	-168.6927
640.000000	69.430	-168.2217
650.000000	69.385	-167.6659
660.000000	69.339	-167.0870
670.000000	69.280	-166.4984
680.000000	69.263	-165.8204
690.000000	69.270	-165.1331
700.000000	69.283	-164.3792
710.000000	69.330	-163.7559
720.000000	69.411	-163.3808
730.000000	69.506	-163.0720
740.000000	69.577	-162.8698
750.000000	69.603	-162.7194
762.000000	69.629	-162.7957
775.000000	69.639	-162.9867
788.000000	69.621	-163.1842
800.000000	69.609	-163.3771
812.000000	69.587	-163.6058
825.000000	69.515	-163.6461
838.000000	69.417	-163.4884
850.000000	69.306	-163.3256
862.000000	69.194	-162.9972
875.000000	69.071	-162.4774
885.000000	69.004	-162.1462
900.000000	68.936	-161.4909
912.000000	68.848	-160.7066
925.000000	68.746	-159.8641
938.000000	68.669	-159.2679
950.000000	68.633	-158.6606
962.000000	68.623	-157.8699
975.000000	68.603	-157.0388
988.000000	68.563	-156.2615
1000.000000	68.531	-155.5014
1015.000000	68.492	-154.1065
1030.000000	68.513	-152.7962
1044.000000	68.574	-151.7911
1060.000000	68.646	-150.6475
1075.000000	68.709	-149.5911
1090.000000	68.776	-148.7215
1106.000000	68.880	-148.1153
1120.000000	68.973	-147.6960
1138.000000	69.069	-147.1396
1150.000000	69.131	-146.8318
1172.000000	69.212	-146.2177
1180.000000	69.237	-145.9715
1206.000000	69.296	-145.2596
1220.000000	69.334	-144.8903
1241.000000	69.406	-144.2711
1250.000000	69.433	-143.9581
1265.000000	69.475	-143.3700
1280.000000	69.517	-142.7905
1315.000000	69.592	-141.7988
1320.000000	69.601	-141.6930
1340.000000	69.623	-141.1678
1360.000000	69.648	-140.4305
1380.000000	69.685	-139.5373
1400.000000	69.722	-138.5624
1430.000000	69.819	-136.9788
1450.000000	69.934	-135.9535
1475.000000	70.115	-135.0066
1500.000000	70.267	-134.0970
1525.000000	70.399	-133.2287
1550.000000	70.515	-132.4924
1575.000000	70.628	-131.8399
1600.000000	70.748	-131.1553
1625.000000	70.861	-130.3998
1650.000000	70.966	-129.5877
1675.000000	71.079	-128.7748
1700.000000	71.203	-127.8993
1725.000000	71.351	-127.0387
1750.000000	71.512	-126.1563
1775.000000	71.660	-125.2084
1800.000000	71.825	-124.2962
1825.000000	72.011	-123.4692
1850.000000	72.203	-122.7430
1875.000000	72.399	-122.1588
1900.000000	72.597	-121.6897
1925.000000	72.785	-121.2905
1950.000000	72.969	-120.9089
1975.000000	73.167	-120.4652
2000.000000	73.371	-120.0468
2030.000000	73.623	-119.6435
2060.000000	73.874	-119.3293
2090.000000	74.127	-119.0735
2120.000000	74.395	-118.8451
2140.000000	74.577	-118.7707
2180.000000	74.932	-118.8521
2200.000000	75.110	-118.9681
2240.000000	75.468	-119.2326
2270.000000	75.725	-119.5002
2300.000000	75.984	-119.8935
2330.000000	76.244	-120.4554
2360.000000	76.502	-121.0948
2400.000000	76.850	-122.0351
2430.000000	77.110	-122.9124
2470.000000	77.432	-124.3223
2500.000000	77.653	-125.4595
2540.000000	77.940	-127.0685
2580.000000	78.234	-128.8194
2620.000000	78.511	-130.7814
2650.000000	78.695	-132.4675
2690.000000	78.908	-134.9024
2720.000000	79.039	-136.8188
2760.000000	79.175	-139.4373
2800.000000	79.261	-142.1447
2850.000000	79.298	-145.5924
2900.000000	79.265	-148.7856
2950.000000	79.209	-151.7334
3000.000000	79.131	-154.7461
3040.000000	79.030	-157.1677
3070.000000	78.924	-158.9435
3110.000000	78.752	-161.1994
3150.000000	78.552	-163.3107
3200.000000	78.258	-165.7680
3250.000000	77.915	-167.9593
3300.000000	77.543	-169.7119
3350.000000	77.162	-171.1041
3400.000000	76.765	-172.2061
3450.000000	76.354	-172.9142
3500.000000	75.962	-173.2365
3550.000000	75.596	-173.2283
3600.000000	75.240	-172.9259
3650.000000	74.910	-172.3613
3700.000000	74.627	-171.6278
3750.000000	74.380	-170.8281
3820.000000	74.050	-169.5524
3870.000000	73.840	-168.5374
3950.000000	73.533	-166.9410
4000.000000	73.361	-165.8865
4060.000000	73.198	-164.5612
4120.000000	73.067	-163.3220
4180.000000	72.954	-162.1007
4250.000000	72.845	-160.7544
4310.000000	72.756	-159.6693
4370.000000	72.652	-158.5430
4440.000000	72.520	-157.1909
4500.000000	72.410	-156.1316
4550.000000	72.328	-155.2692
4620.000000	72.247	-153.8997
4680.000000	72.192	-152.6244
4750.000000	72.128	-151.1818
4820.000000	72.081	-149.8340
4870.000000	72.051	-148.8688
4940.000000	72.005	-147.4061
5000.000000	71.969	-146.0967
5080.000000	71.942	-144.3817
5150.000000	71.945	-142.9370
5220.000000	71.959	-141.4990
5300.000000	71.975	-139.7612
5380.000000	72.030	-137.8663
5450.000000	72.104	-136.1483
5520.000000	72.184	-134.4048
5600.000000	72.309	-132.2888
5700.000000	72.563	-129.4528
5800.000000	72.936	-126.5809
5900.000000	73.443	-123.9064
6000.000000	74.120	-121.4433
6080.000000	74.803	-120.0110
6150.000000	75.508	-119.5298
6220.000000	76.268	-120.0090
6300.000000	77.137	-121.9523
6400.000000	78.114	-126.6107
6500.000000	78.833	-133.4077
6600.000000	79.174	-141.3494
6700.000000	79.135	-149.0570
6800.000000	78.810	-155.5171
6900.000000	78.348	-160.3382
7000.000000	77.869	-163.5677
7100.000000	77.451	-165.5587
7200.000000	77.137	-166.8715
7300.000000	76.921	-167.9096
7400.000000	76.785	-168.8350
7500.000000	76.719	-169.8262
7620.000000	76.723	-171.3376
7750.000000	76.796	-173.5591
7880.000000	76.847	-176.4205
8000.000000	76.843	-179.7257
8120.000000	76.797	176.2932
8250.000000	76.648	171.2075
8380.000000	76.335	165.4570
8500.000000	75.863	159.9685
8620.000000	75.193	154.8553
8750.000000	74.267	150.2979
8850.000000	73.453	147.7491
9000.000000	72.169	145.5044
9120.000000	71.170	144.8862
9250.000000	70.137	145.1741
9380.000000	69.175	146.2262
9500.000000	68.367	147.6528
9620.000000	67.626	149.5167
9750.000000	66.894	151.9467
9880.000000	66.264	154.7071
10000.000000	65.774	157.3610
10150.000000	65.276	160.6666
10300.000000	64.892	164.0052
10440.000000	64.632	167.0615
10600.000000	64.446	170.2532
10750.000000	64.336	172.7781
10900.000000	64.295	174.8179
11060.000000	64.293	176.6359
11200.000000	64.317	177.9719
11380.000000	64.417	179.2514
11500.000000	64.525	179.8013
11720.000000	64.816	179.5259
11800.000000	64.926	178.8295
12060.000000	65.032	174.5500
12200.000000	64.841	171.7649
12410.000000	64.208	168.4985
12500.000000	63.849	167.8188
12650.000000	63.214	167.8676
12800.000000	62.598	169.4730
13150.000000	61.839	178.2474
13200.000000	61.853	179.7926
13400.000000	62.270	-174.3125
13600.000000	63.234	-169.7237
13800.000000	64.670	-167.3922
14000.000000	66.504	-168.3189
14300.000000	69.548	-179.0261
14500.000000	71.165	165.4619
14750.000000	71.894	138.4084
15000.000000	70.944	111.5027
15250.000000	68.813	91.9541
15500.000000	66.273	80.0229
15750.000000	63.862	73.6175
16000.000000	61.760	71.1843
16250.000000	60.023	71.7435
16500.000000	58.714	73.7283
16750.000000	57.970	76.4078
17000.000000	57.776	79.2355
17250.000000	58.150	81.2119
17500.000000	59.158	81.7455
17750.000000	60.856	79.6303
18000.000000	63.183	72.6841
18250.000000	65.684	56.9993
18500.000000	67.338	28.6156
18750.000000	67.193	-7.5382
19000.000000	65.128	-36.8183
19250.000000	62.061	-53.4165
19500.000000	59.177	-62.0754
19750.000000	56.843	-64.9112
20000.000000	54.996	-62.1589
