* Measurement data measured by REW V5.20.13
* Source: EXCL: Mic in at rear panel (Pink)(Realtek(R) Audio), MICROPHONE (마스), L, volume: 1.000
* Format: 256k Log Swept Sine, 1 sweep at -12.0 dBFS with no timing reference
* Dated: 2022. 12. 24 오후 10:12:41
* REW Settings:
*  C-weighting compensation: Off
*  Target level: 75.0 dB
* Note: 
* Measurement: L
* Smoothing: 1/24 octave
* Frequency Step: 1/48 octave
* Start Frequency: 20.300 Hz
*
* Freq(Hz)	SPL(dB)	Phase(degrees)
20.299999	92.383	163.2219
20.600000	92.374	163.0971
20.900000	92.355	162.8674
21.200001	92.330	162.6305
21.400000	92.310	162.4691
21.799999	92.261	162.1415
22.000000	92.234	161.9803
22.400000	92.178	161.6772
22.700001	92.138	161.4592
23.000000	92.104	161.2272
23.299999	92.074	160.9617
23.600000	92.048	160.6580
24.000000	92.014	160.2072
24.299999	91.988	159.8607
24.700001	91.952	159.4196
25.000000	91.926	159.1130
25.400000	91.895	158.7265
25.799999	91.867	158.3474
26.200001	91.840	157.9760
26.500000	91.819	157.7148
26.900000	91.790	157.3982
27.200001	91.770	157.1706
27.600000	91.745	156.8386
28.000000	91.716	156.4337
28.500000	91.656	155.8619
29.000000	91.562	155.3972
29.500000	91.458	155.1906
30.000000	91.388	155.1643
30.400000	91.365	155.0941
30.700001	91.359	154.9360
31.100000	91.349	154.5743
31.500000	91.323	154.1154
32.000000	91.269	153.5714
32.500000	91.209	153.1545
33.000000	91.163	152.8060
33.500000	91.129	152.4369
34.000000	91.095	152.0453
34.500000	91.054	151.6891
35.000000	91.010	151.3940
35.500000	90.968	151.1382
36.000000	90.927	150.8908
36.500000	90.885	150.6408
37.000000	90.837	150.3953
37.500000	90.785	150.1658
38.200001	90.706	149.8676
38.700001	90.651	149.6432
39.500000	90.561	149.2094
40.000000	90.501	148.9053
40.599998	90.426	148.5495
41.200001	90.353	148.2271
41.799999	90.287	147.9310
42.500000	90.222	147.5953
43.099998	90.175	147.2950
43.700001	90.128	146.9823
44.400002	90.065	146.6461
45.000000	90.009	146.4220
45.500000	89.964	146.2719
46.200001	89.906	146.0783
46.799999	89.857	145.9115
47.500000	89.802	145.6946
48.200001	89.747	145.4134
48.700001	89.703	145.1770
49.400002	89.631	144.8458
50.000000	89.563	144.5975
50.799999	89.472	144.3417
51.500000	89.403	144.1783
52.200001	89.346	144.0080
53.000000	89.286	143.7449
53.799999	89.219	143.4634
54.500000	89.155	143.2551
55.200001	89.095	143.0714
56.000000	89.028	142.8544
57.000000	88.941	142.5532
58.000000	88.848	142.2403
59.000000	88.747	141.9251
60.000000	88.636	141.7083
60.799999	88.559	141.6051
61.500000	88.502	141.4931
62.200001	88.446	141.3740
63.000000	88.386	141.2604
64.000000	88.316	141.0817
65.000000	88.238	140.8991
66.000000	88.162	140.7574
67.000000	88.084	140.6043
68.000000	88.002	140.4901
69.000000	87.922	140.3656
70.000000	87.839	140.2098
71.000000	87.755	140.0461
72.000000	87.671	139.8518
73.000000	87.586	139.6796
74.000000	87.507	139.5331
75.000000	87.431	139.3825
76.199997	87.338	139.2763
77.500000	87.248	139.2683
78.800003	87.171	139.2578
80.000000	87.093	139.1863
81.199997	87.002	139.1024
82.500000	86.895	138.9867
83.800003	86.787	138.9010
85.000000	86.703	138.7913
86.199997	86.623	138.6303
87.500000	86.542	138.5340
88.500000	86.488	138.4955
90.000000	86.403	138.4676
91.199997	86.326	138.5239
92.500000	86.245	138.6511
93.800003	86.172	138.6650
95.000000	86.085	138.5245
96.199997	85.980	138.4596
97.500000	85.893	138.5078
98.800003	85.833	138.4377
100.000000	85.771	138.3481
101.500000	85.687	138.3767
103.000000	85.603	138.4580
104.400002	85.519	138.5231
106.000000	85.425	138.5660
107.500000	85.346	138.5567
109.000000	85.276	138.5703
110.599998	85.211	138.6471
112.000000	85.147	138.7106
113.800003	85.038	138.7768
115.000000	84.964	138.7774
117.199997	84.855	138.3508
118.000000	84.811	138.0549
120.599998	84.611	137.8767
122.000000	84.567	138.3723
124.099998	84.529	138.9235
125.000000	84.499	139.0959
126.500000	84.434	139.2884
128.000000	84.357	139.3705
131.500000	84.196	139.5294
132.000000	84.178	139.5535
134.000000	84.102	139.6367
136.000000	84.018	139.7357
138.000000	83.938	139.8426
140.000000	83.858	139.9691
143.000000	83.738	140.2937
145.000000	83.658	140.4702
147.500000	83.552	140.6201
150.000000	83.456	140.7728
152.500000	83.359	140.9145
155.000000	83.261	141.1291
157.500000	83.173	141.4419
160.000000	83.091	141.7805
162.500000	83.003	142.0521
165.000000	82.908	142.2276
167.500000	82.824	142.4594
170.000000	82.750	142.7403
172.500000	82.662	143.0810
175.000000	82.572	143.4574
177.500000	82.494	143.8415
180.000000	82.442	144.2608
182.500000	82.401	144.6319
185.000000	82.356	144.9353
187.500000	82.312	145.1956
190.000000	82.277	145.4349
192.500000	82.244	145.6243
195.000000	82.198	145.8095
197.500000	82.145	146.0356
200.000000	82.098	146.2495
203.000000	82.055	146.3862
206.000000	82.019	146.4457
209.000000	81.980	146.5991
212.000000	81.918	146.7944
214.000000	81.865	146.9048
218.000000	81.776	147.0707
220.000000	81.742	147.1797
224.000000	81.677	147.4837
227.000000	81.622	147.6640
230.000000	81.563	147.8064
233.000000	81.493	147.9993
236.000000	81.419	148.2650
240.000000	81.336	148.6046
243.000000	81.281	148.8163
247.000000	81.202	149.1639
250.000000	81.150	149.4825
254.000000	81.082	149.8879
258.000000	81.002	150.2275
262.000000	80.926	150.5737
265.000000	80.876	150.8585
269.000000	80.809	151.2499
272.000000	80.765	151.5279
276.000000	80.720	151.9299
280.000000	80.685	152.4080
285.000000	80.636	152.9162
290.000000	80.586	153.2373
295.000000	80.538	153.5087
300.000000	80.500	153.8373
304.000000	80.462	154.1454
307.000000	80.427	154.3375
311.000000	80.372	154.5680
315.000000	80.325	154.8249
320.000000	80.280	155.2058
325.000000	80.236	155.6069
330.000000	80.189	155.9758
335.000000	80.146	156.3264
340.000000	80.108	156.6876
345.000000	80.061	157.0644
350.000000	80.012	157.4246
355.000000	79.960	157.7859
360.000000	79.906	158.1827
365.000000	79.857	158.5197
370.000000	79.816	158.8615
375.000000	79.772	159.2221
382.000000	79.704	159.7218
387.000000	79.661	160.1113
395.000000	79.602	160.7812
400.000000	79.565	161.1817
406.000000	79.523	161.6210
412.000000	79.484	162.0698
418.000000	79.444	162.4826
425.000000	79.409	162.9099
431.000000	79.390	163.3296
437.000000	79.368	163.7329
444.000000	79.336	164.1007
450.000000	79.306	164.3424
455.000000	79.280	164.5495
462.000000	79.244	164.9329
468.000000	79.212	165.3002
475.000000	79.176	165.7215
482.000000	79.142	166.1213
487.000000	79.118	166.4263
494.000000	79.082	166.8602
500.000000	79.048	167.2121
508.000000	79.009	167.6978
515.000000	78.979	168.0890
522.000000	78.952	168.4666
530.000000	78.922	168.8913
538.000000	78.879	169.3278
545.000000	78.848	169.7396
552.000000	78.829	170.1931
560.000000	78.804	170.6887
570.000000	78.757	171.2882
580.000000	78.725	171.8779
590.000000	78.690	172.4447
600.000000	78.654	173.0801
608.000000	78.623	173.5484
615.000000	78.596	173.9070
622.000000	78.572	174.2650
630.000000	78.549	174.7208
640.000000	78.529	175.3352
650.000000	78.501	175.9339
660.000000	78.467	176.5080
670.000000	78.435	177.0652
680.000000	78.403	177.6760
690.000000	78.386	178.2894
700.000000	78.365	178.8570
710.000000	78.329	179.4828
720.000000	78.297	-179.8892
730.000000	78.275	-179.2767
740.000000	78.254	-178.7162
750.000000	78.236	-178.1591
762.000000	78.217	-177.4469
775.000000	78.193	-176.6345
788.000000	78.170	-175.8181
800.000000	78.159	-175.0557
812.000000	78.154	-174.3210
825.000000	78.146	-173.5569
838.000000	78.117	-172.6750
850.000000	78.104	-171.7856
862.000000	78.124	-170.9293
875.000000	78.154	-170.1232
885.000000	78.170	-169.5134
900.000000	78.190	-168.5665
912.000000	78.212	-167.8500
925.000000	78.246	-167.1171
938.000000	78.283	-166.4157
950.000000	78.316	-165.7756
962.000000	78.353	-165.1157
975.000000	78.399	-164.4434
988.000000	78.432	-163.7769
1000.000000	78.462	-163.1592
1015.000000	78.523	-162.4147
1030.000000	78.593	-161.7365
1044.000000	78.659	-161.1716
1060.000000	78.726	-160.5586
1075.000000	78.785	-159.9997
1090.000000	78.848	-159.4904
1106.000000	78.925	-158.9657
1120.000000	78.999	-158.5405
1138.000000	79.095	-158.0275
1150.000000	79.154	-157.6897
1172.000000	79.250	-157.0675
1180.000000	79.284	-156.8634
1206.000000	79.402	-156.3235
1220.000000	79.467	-156.0193
1241.000000	79.563	-155.4860
1250.000000	79.603	-155.2806
1265.000000	79.670	-154.9706
1280.000000	79.735	-154.6608
1315.000000	79.889	-153.9980
1320.000000	79.911	-153.9106
1340.000000	79.997	-153.5892
1360.000000	80.071	-153.3215
1380.000000	80.142	-153.0708
1400.000000	80.215	-152.7853
1430.000000	80.315	-152.3044
1450.000000	80.379	-152.0187
1475.000000	80.454	-151.6749
1500.000000	80.528	-151.2487
1525.000000	80.606	-150.7865
1550.000000	80.676	-150.2660
1575.000000	80.749	-149.7202
1600.000000	80.836	-149.1862
1625.000000	80.925	-148.6023
1650.000000	81.020	-148.0363
1675.000000	81.123	-147.5099
1700.000000	81.231	-146.9537
1725.000000	81.344	-146.4010
1750.000000	81.464	-145.8859
1775.000000	81.591	-145.3899
1800.000000	81.723	-144.8936
1825.000000	81.859	-144.4166
1850.000000	81.999	-143.9946
1875.000000	82.142	-143.6432
1900.000000	82.294	-143.3363
1925.000000	82.452	-143.0624
1950.000000	82.608	-142.8369
1975.000000	82.769	-142.6611
2000.000000	82.933	-142.5214
2030.000000	83.134	-142.4218
2060.000000	83.336	-142.4190
2090.000000	83.540	-142.5076
2120.000000	83.743	-142.7065
2140.000000	83.877	-142.8952
2180.000000	84.144	-143.3673
2200.000000	84.276	-143.6535
2240.000000	84.532	-144.3344
2270.000000	84.717	-144.9633
2300.000000	84.894	-145.7077
2330.000000	85.061	-146.5568
2360.000000	85.214	-147.4773
2400.000000	85.400	-148.7882
2430.000000	85.525	-149.8409
2470.000000	85.669	-151.3376
2500.000000	85.759	-152.5040
2540.000000	85.854	-154.1009
2580.000000	85.919	-155.7213
2620.000000	85.954	-157.3263
2650.000000	85.961	-158.5115
2690.000000	85.947	-160.0531
2720.000000	85.920	-161.1553
2760.000000	85.866	-162.5297
2800.000000	85.794	-163.7931
2850.000000	85.683	-165.2025
2900.000000	85.555	-166.4168
2950.000000	85.412	-167.4076
3000.000000	85.265	-168.2027
3040.000000	85.148	-168.7094
3070.000000	85.063	-169.0131
3110.000000	84.951	-169.3409
3150.000000	84.843	-169.5734
3200.000000	84.720	-169.7460
3250.000000	84.609	-169.8077
3300.000000	84.507	-169.8073
3350.000000	84.413	-169.7713
3400.000000	84.327	-169.6561
3450.000000	84.251	-169.4422
3500.000000	84.197	-169.1537
3550.000000	84.166	-168.7868
3600.000000	84.152	-168.3529
3650.000000	84.163	-167.9022
3700.000000	84.201	-167.5175
3750.000000	84.259	-167.2238
3820.000000	84.362	-167.0056
3870.000000	84.441	-167.0386
3950.000000	84.558	-167.4441
4000.000000	84.618	-167.8584
4060.000000	84.670	-168.4872
4120.000000	84.695	-169.1924
4180.000000	84.693	-169.8882
4250.000000	84.659	-170.6309
4310.000000	84.610	-171.1539
4370.000000	84.551	-171.5391
4440.000000	84.481	-171.8575
4500.000000	84.435	-172.0699
4550.000000	84.407	-172.2459
4620.000000	84.380	-172.5439
4680.000000	84.366	-172.9117
4750.000000	84.351	-173.4965
4820.000000	84.330	-174.2289
4870.000000	84.302	-174.8269
4940.000000	84.238	-175.7402
5000.000000	84.157	-176.5688
5080.000000	84.013	-177.6471
5150.000000	83.853	-178.4684
5220.000000	83.668	-179.1211
5300.000000	83.440	-179.5691
5380.000000	83.220	-179.6561
5450.000000	83.051	-179.4543
5520.000000	82.924	-179.0386
5600.000000	82.858	-178.4522
5700.000000	82.928	-178.1029
5800.000000	83.126	-179.2405
5900.000000	83.233	177.2551
6000.000000	82.929	172.3589
6080.000000	82.321	169.2656
6150.000000	81.625	168.1293
6220.000000	80.904	168.5529
6300.000000	80.166	170.5031
6400.000000	79.476	174.1676
6500.000000	79.039	178.2108
6600.000000	78.772	-177.7405
6700.000000	78.636	-173.7096
6800.000000	78.638	-169.7637
6900.000000	78.780	-166.0044
7000.000000	79.047	-162.5010
7100.000000	79.432	-159.3369
7200.000000	79.931	-156.6382
7300.000000	80.541	-154.5799
7400.000000	81.260	-153.3646
7500.000000	82.070	-153.2525
7620.000000	83.122	-154.9751
7750.000000	84.216	-159.6616
7880.000000	84.995	-167.4235
8000.000000	85.274	-176.6618
8120.000000	85.056	173.6478
8250.000000	84.321	164.5546
8380.000000	83.255	158.0738
8500.000000	82.155	154.4130
8620.000000	81.066	152.4794
8750.000000	79.958	151.7487
8850.000000	79.164	151.8178
9000.000000	78.063	152.5566
9120.000000	77.246	153.5815
9250.000000	76.402	155.0835
9380.000000	75.600	156.9522
9500.000000	74.905	159.0572
9620.000000	74.262	161.5403
9750.000000	73.630	164.6069
9880.000000	73.067	167.9651
10000.000000	72.619	171.2613
10150.000000	72.155	175.5173
10300.000000	71.808	179.7591
10440.000000	71.580	-176.4083
10600.000000	71.427	-172.2704
10750.000000	71.377	-168.7680
10900.000000	71.413	-165.8563
11060.000000	71.516	-163.5893
11200.000000	71.615	-162.4557
11380.000000	71.671	-162.1450
11500.000000	71.644	-162.3782
11720.000000	71.464	-163.6458
11800.000000	71.325	-164.3874
12060.000000	70.498	-166.3747
12200.000000	69.842	-166.4271
12410.000000	68.701	-164.4409
12500.000000	68.201	-162.8431
12650.000000	67.413	-159.3777
12800.000000	66.714	-155.0976
13150.000000	65.512	-142.8617
13200.000000	65.388	-140.9390
13400.000000	65.021	-133.0456
13600.000000	64.852	-124.9435
13800.000000	64.893	-116.8331
14000.000000	65.172	-108.7444
14300.000000	66.067	-96.6281
14500.000000	67.031	-88.9855
14750.000000	68.760	-80.5817
15000.000000	71.239	-74.4090
15250.000000	74.578	-72.9489
15500.000000	78.190	-81.4816
15750.000000	80.633	-105.3248
16000.000000	80.882	-137.6928
16250.000000	79.061	-163.2860
16500.000000	75.952	-174.1013
16750.000000	72.772	-171.1871
17000.000000	71.032	-161.4903
17250.000000	71.320	-153.1165
17500.000000	72.651	-151.7631
17750.000000	73.908	-158.5239
18000.000000	74.478	-171.4866
18250.000000	74.075	173.8813
18500.000000	72.858	162.7507
18750.000000	71.337	156.3421
19000.000000	69.863	152.8783
19250.000000	68.458	151.8553
19500.000000	67.219	153.4841
19750.000000	66.353	156.6304
20000.000000	65.932	159.1051
