* Measurement data measured by REW V5.20.13
* Source: EXCL: Mic in at rear panel (Pink)(Realtek(R) Audio), MICROPHONE (마스), L, volume: 1.000
* Format: 256k Log Swept Sine, 1 sweep at -12.0 dBFS with no timing reference
* Dated: 2022. 12. 24 오후 9:49:21
* REW Settings:
*  C-weighting compensation: Off
*  Target level: 75.0 dB
* Note: 
* Measurement: R_Xelastec
* Smoothing: 1/24 octave
* Frequency Step: 1/48 octave
* Start Frequency: 20.300 Hz
*
* Freq(Hz)	SPL(dB)	Phase(degrees)
20.299999	89.647	157.7489
20.600000	89.654	157.6324
20.900000	89.667	157.4657
21.200001	89.680	157.4032
21.400000	89.694	157.3743
21.799999	89.734	157.2185
22.000000	89.755	157.0454
22.400000	89.780	156.4968
22.700001	89.773	155.9870
23.000000	89.743	155.4942
23.299999	89.701	155.0806
23.600000	89.658	154.7492
24.000000	89.614	154.3741
24.299999	89.593	154.0665
24.700001	89.568	153.5609
25.000000	89.542	153.1276
25.400000	89.489	152.5599
25.799999	89.425	152.0981
26.200001	89.367	151.7567
26.500000	89.334	151.5326
26.900000	89.302	151.1978
27.200001	89.279	150.8849
27.600000	89.239	150.3957
28.000000	89.180	149.9049
28.500000	89.092	149.4288
29.000000	89.015	149.1250
29.500000	88.969	148.8166
30.000000	88.938	148.2873
30.400000	88.900	147.6985
30.700001	88.852	147.2349
31.100000	88.765	146.7290
31.500000	88.671	146.4445
32.000000	88.582	146.3597
32.500000	88.546	146.3088
33.000000	88.542	146.0184
33.500000	88.528	145.4798
34.000000	88.483	144.8955
34.500000	88.416	144.4402
35.000000	88.342	144.1335
35.500000	88.272	143.9191
36.000000	88.207	143.7649
36.500000	88.148	143.6617
37.000000	88.101	143.5715
37.500000	88.066	143.4261
38.200001	88.021	143.0184
38.700001	87.976	142.5750
39.500000	87.870	141.7774
40.000000	87.791	141.3360
40.599998	87.704	140.8779
41.200001	87.633	140.4058
41.799999	87.571	139.8674
42.500000	87.500	139.2145
43.099998	87.441	138.7125
43.700001	87.387	138.3206
44.400002	87.346	138.0222
45.000000	87.341	137.7866
45.500000	87.348	137.4860
46.200001	87.336	136.9559
46.799999	87.304	136.6017
47.500000	87.274	136.2850
48.200001	87.237	135.7784
48.700001	87.173	135.3515
49.400002	87.029	135.0347
50.000000	86.905	135.0995
50.799999	86.779	135.2559
51.500000	86.676	135.2682
52.200001	86.571	135.2556
53.000000	86.464	135.1285
53.799999	86.348	134.8282
54.500000	86.236	134.5839
55.200001	86.137	134.3586
56.000000	86.035	134.0372
57.000000	85.926	133.6617
58.000000	85.856	133.0345
59.000000	85.733	132.1258
60.000000	85.560	131.7384
60.799999	85.465	131.7718
61.500000	85.426	131.8061
62.200001	85.413	131.6993
63.000000	85.397	131.3783
64.000000	85.353	130.9417
65.000000	85.306	130.5032
66.000000	85.236	130.0432
67.000000	85.153	129.7327
68.000000	85.069	129.4692
69.000000	84.977	129.2826
70.000000	84.892	129.1664
71.000000	84.823	129.0795
72.000000	84.769	128.8966
73.000000	84.715	128.6698
74.000000	84.669	128.3730
75.000000	84.608	127.9238
76.199997	84.489	127.4171
77.500000	84.334	127.1869
78.800003	84.210	127.1536
80.000000	84.119	127.0563
81.199997	84.039	126.8533
82.500000	83.954	126.5410
83.800003	83.870	126.1922
85.000000	83.789	125.9164
86.199997	83.714	125.7443
87.500000	83.656	125.6154
88.500000	83.612	125.4040
90.000000	83.501	125.1103
91.199997	83.388	125.0815
92.500000	83.284	125.2882
93.800003	83.211	125.2835
95.000000	83.120	125.1179
96.199997	83.025	125.0067
97.500000	82.941	124.8644
98.800003	82.871	124.6000
100.000000	82.805	124.3226
101.500000	82.726	123.9954
103.000000	82.647	123.7728
104.400002	82.596	123.6178
106.000000	82.516	123.3796
107.500000	82.425	123.4310
109.000000	82.346	123.5221
110.599998	82.260	123.5172
112.000000	82.181	123.4059
113.800003	82.085	123.2275
115.000000	82.023	123.1638
117.199997	81.910	123.5697
118.000000	81.887	123.9255
120.599998	81.910	124.2139
122.000000	81.827	123.6420
124.099998	81.651	123.0038
125.000000	81.588	122.7534
126.500000	81.501	122.4229
128.000000	81.438	122.2480
131.500000	81.321	122.2071
132.000000	81.301	122.1807
134.000000	81.186	122.0822
136.000000	81.075	122.1445
138.000000	80.998	122.0593
140.000000	80.919	121.8834
143.000000	80.807	121.7432
145.000000	80.730	121.6911
147.500000	80.630	121.7193
150.000000	80.543	121.7341
152.500000	80.457	121.7047
155.000000	80.372	121.6626
157.500000	80.289	121.6094
160.000000	80.189	121.5632
162.500000	80.078	121.6783
165.000000	79.995	121.8784
167.500000	79.936	121.9360
170.000000	79.859	121.9831
172.500000	79.765	122.1435
175.000000	79.667	122.3411
177.500000	79.586	122.6405
180.000000	79.518	123.1274
182.500000	79.438	123.8785
185.000000	79.383	124.7910
187.500000	79.401	125.4591
190.000000	79.496	125.7844
192.500000	79.626	125.8136
195.000000	79.723	125.6877
197.500000	79.789	125.4589
200.000000	79.828	124.9929
203.000000	79.826	124.3249
206.000000	79.792	123.7079
209.000000	79.744	123.1047
212.000000	79.693	122.7299
214.000000	79.661	122.5932
218.000000	79.582	122.3167
220.000000	79.544	122.1713
224.000000	79.473	121.9211
227.000000	79.409	121.7550
230.000000	79.347	121.6519
233.000000	79.308	121.6304
236.000000	79.285	121.5866
240.000000	79.243	121.4489
243.000000	79.204	121.3898
247.000000	79.154	121.3529
250.000000	79.122	121.3091
254.000000	79.092	121.2486
258.000000	79.066	121.1944
262.000000	79.029	121.1728
265.000000	79.000	121.1659
269.000000	78.969	121.1308
272.000000	78.954	121.0991
276.000000	78.936	121.0738
280.000000	78.921	121.0647
285.000000	78.923	121.0667
290.000000	78.908	121.0820
295.000000	78.904	121.1033
300.000000	78.905	121.0403
304.000000	78.906	120.9661
307.000000	78.907	120.9493
311.000000	78.907	120.9782
315.000000	78.914	120.9959
320.000000	78.923	120.9400
325.000000	78.924	120.8445
330.000000	78.934	120.8110
335.000000	78.951	120.8337
340.000000	78.966	120.8499
345.000000	78.982	120.8078
350.000000	78.989	120.7986
355.000000	79.002	120.7292
360.000000	79.034	120.6561
365.000000	79.071	120.6135
370.000000	79.099	120.5837
375.000000	79.115	120.5500
382.000000	79.147	120.4576
387.000000	79.173	120.4064
395.000000	79.208	120.3467
400.000000	79.237	120.3230
406.000000	79.282	120.2921
412.000000	79.324	120.2265
418.000000	79.366	120.1501
425.000000	79.418	120.0530
431.000000	79.475	120.0158
437.000000	79.534	119.9758
444.000000	79.603	119.9172
450.000000	79.659	119.8411
455.000000	79.711	119.7729
462.000000	79.788	119.6970
468.000000	79.852	119.6335
475.000000	79.927	119.5724
482.000000	80.005	119.4891
487.000000	80.063	119.4049
494.000000	80.140	119.2986
500.000000	80.210	119.2384
508.000000	80.316	119.1514
515.000000	80.408	119.0104
522.000000	80.501	118.8251
530.000000	80.604	118.6677
538.000000	80.705	118.5319
545.000000	80.796	118.3873
552.000000	80.891	118.2591
560.000000	81.004	118.1166
570.000000	81.141	117.9162
580.000000	81.281	117.7330
590.000000	81.428	117.6003
600.000000	81.580	117.3734
608.000000	81.703	117.1341
615.000000	81.811	116.9454
622.000000	81.916	116.7853
630.000000	82.041	116.6128
640.000000	82.199	116.3208
650.000000	82.359	115.9846
660.000000	82.514	115.6520
670.000000	82.672	115.3307
680.000000	82.835	115.0024
690.000000	82.997	114.6462
700.000000	83.160	114.2545
710.000000	83.323	113.8659
720.000000	83.488	113.4344
730.000000	83.656	112.9549
740.000000	83.826	112.4790
750.000000	84.001	111.9911
762.000000	84.206	111.3951
775.000000	84.420	110.7056
788.000000	84.640	109.9360
800.000000	84.843	109.1911
812.000000	85.044	108.4054
825.000000	85.258	107.5006
838.000000	85.466	106.5840
850.000000	85.656	105.7203
862.000000	85.846	104.8221
875.000000	86.052	103.7953
885.000000	86.207	102.9336
900.000000	86.429	101.5616
912.000000	86.595	100.4406
925.000000	86.766	99.1957
938.000000	86.932	97.9215
950.000000	87.081	96.7228
962.000000	87.223	95.4926
975.000000	87.366	94.1351
988.000000	87.506	92.7600
1000.000000	87.624	91.4757
1015.000000	87.743	89.9044
1030.000000	87.850	88.3116
1044.000000	87.947	86.7912
1060.000000	88.042	85.0482
1075.000000	88.111	83.4461
1090.000000	88.171	81.8829
1106.000000	88.231	80.2376
1120.000000	88.273	78.8268
1138.000000	88.314	77.0751
1150.000000	88.335	75.9413
1172.000000	88.354	73.9208
1180.000000	88.356	73.2094
1206.000000	88.349	71.0267
1220.000000	88.336	69.9206
1241.000000	88.307	68.3526
1250.000000	88.291	67.7238
1265.000000	88.261	66.7282
1280.000000	88.225	65.7929
1315.000000	88.136	63.8383
1320.000000	88.122	63.5828
1340.000000	88.064	62.6221
1360.000000	88.001	61.7535
1380.000000	87.938	60.9685
1400.000000	87.881	60.2718
1430.000000	87.806	59.3820
1450.000000	87.758	58.8883
1475.000000	87.703	58.3616
1500.000000	87.656	57.9245
1525.000000	87.618	57.5729
1550.000000	87.584	57.2998
1575.000000	87.557	57.0800
1600.000000	87.539	56.9269
1625.000000	87.528	56.8226
1650.000000	87.527	56.7667
1675.000000	87.534	56.7621
1700.000000	87.550	56.7850
1725.000000	87.573	56.8143
1750.000000	87.599	56.8612
1775.000000	87.633	56.9317
1800.000000	87.680	57.0226
1825.000000	87.737	57.1358
1850.000000	87.801	57.2491
1875.000000	87.872	57.3467
1900.000000	87.951	57.4275
1925.000000	88.039	57.4920
1950.000000	88.134	57.5394
1975.000000	88.235	57.5676
2000.000000	88.344	57.5858
2030.000000	88.485	57.5765
2060.000000	88.636	57.5018
2090.000000	88.794	57.3672
2120.000000	88.960	57.1811
2140.000000	89.075	57.0191
2180.000000	89.313	56.5929
2200.000000	89.436	56.3248
2240.000000	89.687	55.6737
2270.000000	89.878	55.0789
2300.000000	90.068	54.3774
2330.000000	90.258	53.5605
2360.000000	90.448	52.6416
2400.000000	90.693	51.2420
2430.000000	90.870	50.0503
2470.000000	91.093	48.2862
2500.000000	91.247	46.8427
2540.000000	91.426	44.7578
2580.000000	91.573	42.4956
2620.000000	91.684	40.1014
2650.000000	91.740	38.2501
2690.000000	91.779	35.7449
2720.000000	91.780	33.8619
2760.000000	91.744	31.3970
2800.000000	91.666	29.0335
2850.000000	91.517	26.2773
2900.000000	91.324	23.8033
2950.000000	91.096	21.6522
3000.000000	90.847	19.8380
3040.000000	90.642	18.6055
3070.000000	90.486	17.7959
3110.000000	90.276	16.8673
3150.000000	90.064	16.1090
3200.000000	89.800	15.3916
3250.000000	89.540	14.9371
3300.000000	89.289	14.7538
3350.000000	89.056	14.8201
3400.000000	88.850	15.0986
3450.000000	88.676	15.5376
3500.000000	88.537	16.1033
3550.000000	88.434	16.7850
3600.000000	88.364	17.5492
3650.000000	88.324	18.3329
3700.000000	88.314	19.1049
3750.000000	88.335	19.8604
3820.000000	88.409	20.8319
3870.000000	88.489	21.4490
3950.000000	88.663	22.2505
4000.000000	88.804	22.5809
4060.000000	89.004	22.7672
4120.000000	89.234	22.6802
4180.000000	89.492	22.2648
4250.000000	89.822	21.2472
4310.000000	90.109	19.7934
4370.000000	90.372	17.7234
4440.000000	90.611	14.4867
4500.000000	90.725	11.0625
4550.000000	90.737	7.8584
4620.000000	90.602	3.0904
4680.000000	90.334	-0.9876
4750.000000	89.848	-5.3635
4820.000000	89.198	-8.9549
4870.000000	88.654	-10.8859
4940.000000	87.812	-12.5879
5000.000000	87.048	-13.0681
5080.000000	86.013	-12.2365
5150.000000	85.137	-10.0968
5220.000000	84.335	-6.6984
5300.000000	83.581	-1.3705
5380.000000	83.091	5.2253
5450.000000	82.957	11.5870
5520.000000	83.142	17.8944
5600.000000	83.736	24.0957
5700.000000	84.878	28.7162
5800.000000	86.082	28.6303
5900.000000	86.919	24.2873
6000.000000	87.162	18.0469
6080.000000	86.955	13.5571
6150.000000	86.571	10.7516
6220.000000	86.085	9.1681
6300.000000	85.496	8.7279
6400.000000	84.816	9.8150
6500.000000	84.262	12.2134
6600.000000	83.862	15.4771
6700.000000	83.631	19.2845
6800.000000	83.575	23.3702
6900.000000	83.701	27.4752
7000.000000	84.006	31.4184
7100.000000	84.467	35.0347
7200.000000	85.065	38.1308
7300.000000	85.799	40.5697
7400.000000	86.673	42.1751
7500.000000	87.679	42.6017
7620.000000	89.024	40.9604
7750.000000	90.481	35.5644
7880.000000	91.558	25.6130
8000.000000	91.908	13.2732
8120.000000	91.503	0.7652
8250.000000	90.348	-9.4656
8380.000000	88.831	-14.6645
8500.000000	87.512	-15.9312
8620.000000	86.438	-15.8682
8750.000000	85.398	-15.1005
8850.000000	84.635	-13.7395
9000.000000	83.622	-10.4696
9120.000000	82.970	-7.1691
9250.000000	82.426	-3.2175
9380.000000	82.034	0.9130
9500.000000	81.798	4.7329
9620.000000	81.677	8.4757
9750.000000	81.676	12.3691
9880.000000	81.808	15.9768
10000.000000	82.043	18.9146
10150.000000	82.484	21.7933
10300.000000	83.052	23.4196
10440.000000	83.639	23.5516
10600.000000	84.307	21.8398
10750.000000	84.824	18.2396
10900.000000	85.108	12.8793
11060.000000	85.032	6.1148
11200.000000	84.613	0.4953
11380.000000	83.694	-4.6906
11500.000000	82.971	-6.5532
11720.000000	81.640	-7.5453
11800.000000	81.165	-7.2676
12060.000000	79.737	-4.1580
12200.000000	79.082	-1.4273
12410.000000	78.260	3.4252
12500.000000	77.967	5.6827
12650.000000	77.554	9.6293
12800.000000	77.223	13.8500
13150.000000	77.055	25.0388
13200.000000	77.120	26.4528
13400.000000	77.424	30.8464
13600.000000	77.739	34.3539
13800.000000	78.174	37.6172
14000.000000	78.763	40.3114
14300.000000	80.026	43.4397
14500.000000	81.383	43.6065
14750.000000	83.070	36.1747
15000.000000	83.775	21.5720
15250.000000	83.328	6.6193
15500.000000	82.095	-3.6305
15750.000000	80.706	-8.2462
16000.000000	79.625	-9.5648
16250.000000	78.960	-10.0763
16500.000000	78.612	-11.5479
16750.000000	78.369	-15.0719
17000.000000	77.973	-20.8034
17250.000000	77.214	-27.5985
17500.000000	76.030	-33.4455
17750.000000	74.531	-36.7890
18000.000000	72.911	-37.2421
18250.000000	71.343	-35.1194
18500.000000	69.972	-30.9559
18750.000000	68.924	-25.8851
19000.000000	68.144	-21.4100
19250.000000	67.401	-17.4841
19500.000000	66.633	-12.7159
19750.000000	66.058	-7.2059
20000.000000	65.789	-3.2920
