* Measurement data measured by REW V5.20.13
* Source: EXCL: Mic in at rear panel (Pink)(Realtek(R) Audio), MICROPHONE (마스), L, volume: 1.000
* Format: 256k Log Swept Sine, 1 sweep at -12.0 dBFS with no timing reference
* Dated: 2022. 12. 24 오후 9:32:29
* REW Settings:
*  C-weighting compensation: Off
*  Target level: 75.0 dB
* Note: 
* Measurement: L
* Smoothing: 1/24 octave
* Frequency Step: 1/48 octave
* Start Frequency: 20.300 Hz
*
* Freq(Hz)	SPL(dB)	Phase(degrees)
20.299999	90.005	158.5170
20.600000	89.993	158.3857
20.900000	89.968	158.1439
21.200001	89.938	157.8919
21.400000	89.916	157.7132
21.799999	89.864	157.3245
22.000000	89.834	157.1179
22.400000	89.769	156.7025
22.700001	89.719	156.3993
23.000000	89.672	156.0992
23.299999	89.631	155.7886
23.600000	89.596	155.4546
24.000000	89.559	154.9605
24.299999	89.534	154.5575
24.700001	89.502	154.0005
25.000000	89.478	153.5906
25.400000	89.444	153.0775
25.799999	89.415	152.6053
26.200001	89.392	152.1553
26.500000	89.376	151.8207
26.900000	89.352	151.3776
27.200001	89.328	151.0586
27.600000	89.289	150.6723
28.000000	89.245	150.3476
28.500000	89.191	150.0156
29.000000	89.141	149.7020
29.500000	89.091	149.3463
30.000000	89.036	148.9393
30.400000	88.985	148.5982
30.700001	88.945	148.3436
31.100000	88.890	148.0088
31.500000	88.834	147.6768
32.000000	88.765	147.2657
32.500000	88.698	146.8661
33.000000	88.638	146.4760
33.500000	88.588	146.0766
34.000000	88.544	145.6516
34.500000	88.500	145.2094
35.000000	88.450	144.7835
35.500000	88.398	144.4117
36.000000	88.349	144.0976
36.500000	88.307	143.8049
37.000000	88.268	143.4923
37.500000	88.225	143.1554
38.200001	88.148	142.6988
38.700001	88.086	142.4186
39.500000	87.993	142.0219
40.000000	87.941	141.7487
40.599998	87.877	141.3615
41.200001	87.805	140.9491
41.799999	87.728	140.5810
42.500000	87.647	140.2275
43.099998	87.593	139.9271
43.700001	87.545	139.5763
44.400002	87.483	139.1200
45.000000	87.421	138.7480
45.500000	87.366	138.4826
46.200001	87.293	138.1766
46.799999	87.236	137.9388
47.500000	87.174	137.6256
48.200001	87.109	137.2537
48.700001	87.055	136.9884
49.400002	86.975	136.6814
50.000000	86.912	136.4655
50.799999	86.838	136.1395
51.500000	86.771	135.8051
52.200001	86.699	135.5018
53.000000	86.623	135.2020
53.799999	86.552	134.8855
54.500000	86.487	134.6051
55.200001	86.422	134.3532
56.000000	86.351	134.1006
57.000000	86.273	133.7812
58.000000	86.192	133.3349
59.000000	86.078	132.9213
60.000000	85.957	132.7675
60.799999	85.881	132.7074
61.500000	85.825	132.6203
62.200001	85.775	132.4823
63.000000	85.717	132.2411
64.000000	85.628	131.8919
65.000000	85.539	131.6161
66.000000	85.468	131.2927
67.000000	85.397	130.8625
68.000000	85.311	130.4568
69.000000	85.218	130.1506
70.000000	85.124	129.9615
71.000000	85.035	129.8751
72.000000	84.962	129.8289
73.000000	84.901	129.6362
74.000000	84.823	129.2812
75.000000	84.727	128.9428
76.199997	84.611	128.5598
77.500000	84.489	128.2660
78.800003	84.395	128.0930
80.000000	84.326	128.0013
81.199997	84.266	127.8699
82.500000	84.183	127.6485
83.800003	84.069	127.4484
85.000000	83.954	127.4270
86.199997	83.863	127.4443
87.500000	83.786	127.4380
88.500000	83.748	127.3869
90.000000	83.691	127.1416
91.199997	83.645	126.9677
92.500000	83.595	126.5635
93.800003	83.480	126.0995
95.000000	83.346	125.9748
96.199997	83.230	126.0354
97.500000	83.137	126.1401
98.800003	83.072	126.1018
100.000000	83.018	125.9289
101.500000	82.945	125.5636
103.000000	82.844	125.1776
104.400002	82.729	125.0345
106.000000	82.621	125.2730
107.500000	82.570	125.3934
109.000000	82.508	125.2326
110.599998	82.425	124.9862
112.000000	82.359	124.7556
113.800003	82.272	124.6330
115.000000	82.220	124.8014
117.199997	82.117	125.5782
118.000000	82.082	125.9781
120.599998	82.031	126.4077
122.000000	81.946	125.7499
124.099998	81.773	124.7749
125.000000	81.707	124.4519
126.500000	81.614	124.2394
128.000000	81.565	124.4551
131.500000	81.570	125.0830
132.000000	81.565	125.0704
134.000000	81.483	124.9481
136.000000	81.359	125.1744
138.000000	81.280	125.5661
140.000000	81.243	125.8657
143.000000	81.205	126.2194
145.000000	81.205	126.4559
147.500000	81.228	126.3727
150.000000	81.210	125.9083
152.500000	81.170	125.4660
155.000000	81.124	124.9703
157.500000	81.084	124.5246
160.000000	81.036	124.1875
162.500000	80.965	124.0287
165.000000	80.878	123.9157
167.500000	80.791	123.7528
170.000000	80.719	123.5578
172.500000	80.653	123.3902
175.000000	80.581	123.2518
177.500000	80.501	123.1537
180.000000	80.427	123.1122
182.500000	80.370	123.0542
185.000000	80.318	122.9662
187.500000	80.263	122.9405
190.000000	80.209	122.9651
192.500000	80.162	122.9502
195.000000	80.118	122.9086
197.500000	80.074	122.8786
200.000000	80.026	122.8483
203.000000	79.971	122.7805
206.000000	79.922	122.7454
209.000000	79.880	122.8094
212.000000	79.842	122.8148
214.000000	79.813	122.7763
218.000000	79.747	122.8083
220.000000	79.715	122.8673
224.000000	79.663	122.8811
227.000000	79.633	122.8276
230.000000	79.607	122.7689
233.000000	79.582	122.6995
236.000000	79.554	122.6150
240.000000	79.505	122.5269
243.000000	79.476	122.5949
247.000000	79.455	122.7296
250.000000	79.425	122.7375
254.000000	79.387	122.6919
258.000000	79.356	122.6829
262.000000	79.325	122.7335
265.000000	79.300	122.7387
269.000000	79.264	122.7659
272.000000	79.250	122.8239
276.000000	79.257	122.8744
280.000000	79.261	122.9060
285.000000	79.250	122.9046
290.000000	79.254	122.8802
295.000000	79.251	122.9539
300.000000	79.237	123.0372
304.000000	79.246	123.0489
307.000000	79.265	123.0434
311.000000	79.288	123.0425
315.000000	79.313	122.9842
320.000000	79.344	122.9016
325.000000	79.365	122.8612
330.000000	79.383	122.7414
335.000000	79.399	122.5203
340.000000	79.422	122.3342
345.000000	79.439	122.2221
350.000000	79.451	122.1531
355.000000	79.467	122.0704
360.000000	79.484	122.0321
365.000000	79.501	122.0162
370.000000	79.528	121.9928
375.000000	79.561	121.9695
382.000000	79.603	121.9038
387.000000	79.625	121.8924
395.000000	79.662	121.8841
400.000000	79.701	121.7992
406.000000	79.749	121.6723
412.000000	79.783	121.6468
418.000000	79.819	121.5977
425.000000	79.861	121.4880
431.000000	79.913	121.4053
437.000000	79.971	121.3062
444.000000	80.035	121.1980
450.000000	80.092	121.1116
455.000000	80.142	121.0652
462.000000	80.210	120.9847
468.000000	80.271	120.8937
475.000000	80.347	120.7916
482.000000	80.430	120.6649
487.000000	80.488	120.5621
494.000000	80.563	120.4538
500.000000	80.633	120.3770
508.000000	80.736	120.2331
515.000000	80.824	120.0870
522.000000	80.905	119.9870
530.000000	81.004	119.8935
538.000000	81.109	119.7700
545.000000	81.202	119.6284
552.000000	81.296	119.5029
560.000000	81.406	119.3554
570.000000	81.546	119.1195
580.000000	81.698	118.9162
590.000000	81.847	118.7047
600.000000	81.992	118.4416
608.000000	82.110	118.2014
615.000000	82.216	117.9688
622.000000	82.324	117.7338
630.000000	82.448	117.4837
640.000000	82.603	117.1725
650.000000	82.765	116.8188
660.000000	82.925	116.3865
670.000000	83.074	115.9216
680.000000	83.212	115.5039
690.000000	83.350	115.1689
700.000000	83.503	114.8607
710.000000	83.667	114.5458
720.000000	83.838	114.1814
730.000000	84.007	113.7407
740.000000	84.170	113.2464
750.000000	84.335	112.7399
762.000000	84.538	112.0815
775.000000	84.759	111.3460
788.000000	84.975	110.5877
800.000000	85.171	109.8196
812.000000	85.365	109.0090
825.000000	85.575	108.1147
838.000000	85.783	107.1765
850.000000	85.974	106.2786
862.000000	86.159	105.3126
875.000000	86.354	104.1929
885.000000	86.498	103.3082
900.000000	86.705	101.9624
912.000000	86.868	100.8703
925.000000	87.040	99.6678
938.000000	87.204	98.4100
950.000000	87.345	97.2020
962.000000	87.481	95.9768
975.000000	87.621	94.6322
988.000000	87.757	93.2909
1000.000000	87.871	92.0448
1015.000000	87.988	90.4509
1030.000000	88.093	88.8545
1044.000000	88.180	87.3545
1060.000000	88.266	85.6349
1075.000000	88.332	84.0583
1090.000000	88.389	82.5191
1106.000000	88.444	80.9047
1120.000000	88.486	79.5016
1138.000000	88.527	77.7553
1150.000000	88.545	76.6393
1172.000000	88.561	74.6694
1180.000000	88.561	73.9809
1206.000000	88.548	71.8496
1220.000000	88.534	70.7752
1241.000000	88.505	69.2847
1250.000000	88.489	68.6794
1265.000000	88.459	67.7100
1280.000000	88.427	66.7967
1315.000000	88.342	64.8758
1320.000000	88.328	64.6285
1340.000000	88.272	63.7114
1360.000000	88.211	62.8987
1380.000000	88.151	62.1667
1400.000000	88.098	61.5213
1430.000000	88.026	60.6987
1450.000000	87.984	60.2214
1475.000000	87.935	59.7112
1500.000000	87.891	59.2843
1525.000000	87.856	58.9481
1550.000000	87.827	58.6900
1575.000000	87.807	58.4931
1600.000000	87.793	58.3580
1625.000000	87.787	58.2683
1650.000000	87.792	58.2152
1675.000000	87.807	58.1881
1700.000000	87.829	58.1993
1725.000000	87.855	58.2490
1750.000000	87.889	58.3008
1775.000000	87.935	58.3545
1800.000000	87.988	58.4231
1825.000000	88.046	58.4974
1850.000000	88.111	58.5684
1875.000000	88.185	58.6368
1900.000000	88.270	58.6931
1925.000000	88.362	58.7308
1950.000000	88.460	58.7580
1975.000000	88.565	58.7608
2000.000000	88.677	58.7344
2030.000000	88.819	58.6682
2060.000000	88.970	58.5485
2090.000000	89.130	58.3665
2120.000000	89.295	58.1186
2140.000000	89.409	57.9131
2180.000000	89.645	57.3937
2200.000000	89.766	57.0801
2240.000000	90.012	56.3370
2270.000000	90.197	55.6630
2300.000000	90.383	54.8800
2330.000000	90.567	53.9898
2360.000000	90.747	52.9946
2400.000000	90.978	51.5058
2430.000000	91.141	50.2554
2470.000000	91.343	48.4010
2500.000000	91.480	46.8921
2540.000000	91.636	44.7484
2580.000000	91.758	42.4623
2620.000000	91.843	40.0770
2650.000000	91.882	38.2451
2690.000000	91.896	35.7725
2720.000000	91.879	33.9259
2760.000000	91.821	31.5064
2800.000000	91.725	29.1661
2850.000000	91.554	26.4309
2900.000000	91.331	23.9877
2950.000000	91.065	21.8773
3000.000000	90.769	20.1499
3040.000000	90.519	19.0697
3070.000000	90.328	18.4350
3110.000000	90.078	17.8133
3150.000000	89.837	17.4252
3200.000000	89.553	17.2219
3250.000000	89.293	17.2867
3300.000000	89.062	17.5792
3350.000000	88.859	18.0503
3400.000000	88.686	18.6670
3450.000000	88.550	19.3947
3500.000000	88.455	20.2136
3550.000000	88.397	21.1045
3600.000000	88.370	22.0198
3650.000000	88.374	22.9244
3700.000000	88.411	23.7952
3750.000000	88.480	24.5997
3820.000000	88.623	25.5894
3870.000000	88.752	26.1659
3950.000000	89.003	26.7874
4000.000000	89.189	26.9563
4060.000000	89.440	26.8735
4120.000000	89.716	26.4253
4180.000000	90.008	25.5538
4250.000000	90.352	23.8888
4310.000000	90.623	21.8221
4370.000000	90.839	19.1339
4440.000000	90.987	15.2686
4500.000000	90.997	11.4757
4550.000000	90.909	8.1352
4620.000000	90.624	3.4798
4680.000000	90.232	-0.2046
4750.000000	89.623	-3.8075
4820.000000	88.884	-6.3834
4870.000000	88.301	-7.4905
4940.000000	87.445	-7.9522
5000.000000	86.708	-7.3236
5080.000000	85.770	-5.0319
5150.000000	85.040	-1.7212
5220.000000	84.452	2.7106
5300.000000	84.040	8.8310
5380.000000	83.994	15.4335
5450.000000	84.288	20.8237
5520.000000	84.859	25.0259
5600.000000	85.717	27.4733
5700.000000	86.751	26.3105
5800.000000	87.359	21.4045
5900.000000	87.381	15.3448
6000.000000	86.917	10.5418
6080.000000	86.342	8.2921
6150.000000	85.781	7.4955
6220.000000	85.218	7.6428
6300.000000	84.609	8.7407
6400.000000	83.937	11.2607
6500.000000	83.397	14.8728
6600.000000	83.024	19.3254
6700.000000	82.842	24.2519
6800.000000	82.860	29.3366
6900.000000	83.087	34.2662
7000.000000	83.504	38.7696
7100.000000	84.077	42.6749
7200.000000	84.778	45.8275
7300.000000	85.582	48.0903
7400.000000	86.472	49.3609
7500.000000	87.435	49.4890
7620.000000	88.657	47.7409
7750.000000	89.936	42.9407
7880.000000	90.897	34.7201
8000.000000	91.288	24.5551
8120.000000	91.060	13.7698
8250.000000	90.146	4.2799
8380.000000	88.785	-0.6173
8500.000000	87.567	-0.7572
8620.000000	86.778	0.2921
8750.000000	86.078	0.5307
8850.000000	85.463	1.2360
9000.000000	84.588	4.0154
9120.000000	84.048	7.1979
9250.000000	83.637	11.0868
9380.000000	83.402	15.1206
9500.000000	83.335	18.8094
9620.000000	83.413	22.3174
9750.000000	83.644	25.6768
9880.000000	84.012	28.4155
10000.000000	84.467	30.2309
10150.000000	85.169	31.2067
10300.000000	85.937	30.2227
10440.000000	86.596	27.2467
10600.000000	87.136	21.5523
10750.000000	87.314	14.6136
10900.000000	87.105	7.1944
11060.000000	86.464	0.0993
11200.000000	85.622	-4.5507
11380.000000	84.309	-7.6745
11500.000000	83.399	-7.9079
11720.000000	81.906	-5.4658
11800.000000	81.449	-3.9823
12060.000000	80.271	1.9555
12200.000000	79.788	5.6121
12410.000000	79.229	11.4826
12500.000000	79.033	13.8671
12650.000000	78.651	18.0597
12800.000000	78.335	23.7537
13150.000000	78.989	35.8842
13200.000000	79.168	37.0743
13400.000000	79.983	40.9510
13600.000000	81.003	43.3842
13800.000000	82.247	43.5796
14000.000000	83.581	40.3190
14300.000000	85.081	27.0833
14500.000000	85.241	14.2299
14750.000000	84.328	-0.2166
15000.000000	82.659	-8.3769
15250.000000	80.919	-10.5729
15500.000000	79.598	-9.3130
15750.000000	78.796	-6.8271
16000.000000	78.427	-4.3817
16250.000000	78.402	-3.1405
16500.000000	78.551	-4.1063
16750.000000	78.617	-7.6832
17000.000000	78.324	-12.9644
17250.000000	77.528	-16.8740
17500.000000	76.634	-15.5849
17750.000000	76.837	-11.0824
18000.000000	78.045	-12.9561
18250.000000	78.773	-24.6224
18500.000000	78.394	-40.8003
18750.000000	76.871	-54.7351
19000.000000	74.529	-62.1007
19250.000000	71.958	-63.4334
19500.000000	69.571	-61.5480
19750.000000	67.475	-58.0793
20000.000000	65.997	-54.8441
