* Measurement data measured by REW V5.20.13
* Source: EXCL: Mic in at rear panel (Pink)(Realtek(R) Audio), MICROPHONE (마스), L, volume: 1.000
* Format: 256k Log Swept Sine, 1 sweep at -12.0 dBFS with no timing reference
* Dated: 2022. 12. 24 오후 9:57:39
* REW Settings:
*  C-weighting compensation: Off
*  Target level: 75.0 dB
* Note: 
* Measurement: L_50ohm
* Smoothing: 1/24 octave
* Frequency Step: 1/48 octave
* Start Frequency: 20.300 Hz
*
* Freq(Hz)	SPL(dB)	Phase(degrees)
20.299999	84.530	150.3183
20.600000	84.503	150.2890
20.900000	84.454	150.2304
21.200001	84.416	150.1463
21.400000	84.395	150.0518
21.799999	84.355	149.7555
22.000000	84.330	149.5593
22.400000	84.269	149.1189
22.700001	84.215	148.7866
23.000000	84.161	148.4706
23.299999	84.110	148.1606
23.600000	84.066	147.8384
24.000000	84.016	147.3637
24.299999	83.981	146.9678
24.700001	83.932	146.4049
25.000000	83.891	145.9830
25.400000	83.830	145.4575
25.799999	83.767	145.0029
26.200001	83.709	144.6249
26.500000	83.669	144.3802
26.900000	83.623	144.0774
27.200001	83.592	143.8417
27.600000	83.551	143.4880
28.000000	83.504	143.0872
28.500000	83.426	142.5817
29.000000	83.331	142.1743
29.500000	83.236	141.8978
30.000000	83.157	141.6684
30.400000	83.105	141.4405
30.700001	83.068	141.2261
31.100000	83.015	140.9018
31.500000	82.957	140.5732
32.000000	82.884	140.2012
32.500000	82.820	139.8492
33.000000	82.767	139.4429
33.500000	82.714	138.9581
34.000000	82.651	138.4586
34.500000	82.579	138.0287
35.000000	82.507	137.6891
35.500000	82.443	137.3947
36.000000	82.385	137.0902
36.500000	82.327	136.7624
37.000000	82.263	136.4429
37.500000	82.197	136.1607
38.200001	82.106	135.7901
38.700001	82.040	135.4906
39.500000	81.922	134.9948
40.000000	81.844	134.7483
40.599998	81.762	134.4972
41.200001	81.691	134.1857
41.799999	81.615	133.8031
42.500000	81.517	133.4151
43.099998	81.445	133.1704
43.700001	81.388	132.8718
44.400002	81.314	132.3851
45.000000	81.228	131.9998
45.500000	81.153	131.8008
46.200001	81.071	131.6285
46.799999	81.021	131.4222
47.500000	80.963	131.0661
48.200001	80.896	130.6855
48.700001	80.846	130.4316
49.400002	80.775	130.0925
50.000000	80.710	129.8160
50.799999	80.617	129.5037
51.500000	80.534	129.3119
52.200001	80.460	129.1680
53.000000	80.382	128.9742
53.799999	80.300	128.7340
54.500000	80.224	128.5329
55.200001	80.154	128.3313
56.000000	80.080	128.0629
57.000000	79.992	127.6498
58.000000	79.897	127.1607
59.000000	79.794	126.7630
60.000000	79.699	126.3615
60.799999	79.599	126.0589
61.500000	79.503	126.0007
62.200001	79.430	126.0756
63.000000	79.368	126.0759
64.000000	79.278	125.9692
65.000000	79.191	125.8971
66.000000	79.113	125.6497
67.000000	79.014	125.2826
68.000000	78.906	124.9703
69.000000	78.809	124.6293
70.000000	78.715	124.2414
71.000000	78.629	123.8708
72.000000	78.553	123.5065
73.000000	78.481	123.1920
74.000000	78.410	122.9600
75.000000	78.329	122.8448
76.199997	78.224	122.9491
77.500000	78.115	123.1090
78.800003	77.994	123.1018
80.000000	77.877	122.9218
81.199997	77.783	122.5379
82.500000	77.693	121.8808
83.800003	77.601	121.6182
85.000000	77.570	121.8367
86.199997	77.540	121.9848
87.500000	77.399	122.3147
88.500000	77.279	122.7514
90.000000	77.089	122.5322
91.199997	76.878	122.5887
92.500000	76.948	123.6115
93.800003	77.326	123.2232
95.000000	77.576	121.7672
96.199997	77.603	120.2081
97.500000	77.259	119.6540
98.800003	76.824	120.8357
100.000000	76.572	121.2608
101.500000	76.354	120.0236
103.000000	76.308	118.4570
104.400002	76.453	116.9419
106.000000	76.422	116.0739
107.500000	76.217	117.3022
109.000000	75.998	118.7178
110.599998	75.819	118.8750
112.000000	75.742	118.3125
113.800003	75.805	118.8460
115.000000	75.858	120.3369
117.199997	75.527	126.0651
118.000000	75.304	129.8753
120.599998	75.523	138.1849
122.000000	75.355	130.2693
124.099998	74.664	119.8948
125.000000	74.665	118.2213
126.500000	74.936	118.1249
128.000000	75.112	119.7394
131.500000	74.247	128.0496
132.000000	74.173	129.3451
134.000000	74.273	130.5480
136.000000	74.493	127.3995
138.000000	74.755	123.4108
140.000000	74.809	121.0434
143.000000	75.081	121.1941
145.000000	75.057	120.2412
147.500000	74.697	119.6444
150.000000	74.531	119.0233
152.500000	74.488	118.2634
155.000000	74.457	118.1700
157.500000	74.388	118.0015
160.000000	74.305	117.5013
162.500000	74.212	117.2735
165.000000	74.135	117.4004
167.500000	74.072	117.3472
170.000000	74.028	117.2218
172.500000	73.972	117.2230
175.000000	73.905	117.3259
177.500000	73.838	117.0954
180.000000	73.759	116.7733
182.500000	73.669	116.6544
185.000000	73.589	116.6950
187.500000	73.536	116.6528
190.000000	73.489	116.6203
192.500000	73.435	116.7398
195.000000	73.379	116.7302
197.500000	73.317	116.4961
200.000000	73.267	116.3155
203.000000	73.232	116.2506
206.000000	73.195	116.1493
209.000000	73.170	116.0959
212.000000	73.147	116.0636
214.000000	73.113	116.0254
218.000000	73.020	115.8908
220.000000	72.985	115.8832
224.000000	72.937	115.9138
227.000000	72.879	115.8418
230.000000	72.826	115.6579
233.000000	72.784	115.4562
236.000000	72.743	115.4705
240.000000	72.690	115.4688
243.000000	72.656	115.3972
247.000000	72.641	115.2869
250.000000	72.620	115.2395
254.000000	72.583	115.0785
258.000000	72.537	114.7378
262.000000	72.495	114.6917
265.000000	72.458	114.7687
269.000000	72.403	114.8416
272.000000	72.378	114.8602
276.000000	72.362	114.8187
280.000000	72.348	114.7021
285.000000	72.341	114.5824
290.000000	72.333	114.5771
295.000000	72.303	114.6124
300.000000	72.281	114.6163
304.000000	72.295	114.5051
307.000000	72.308	114.4131
311.000000	72.321	114.3120
315.000000	72.333	114.1152
320.000000	72.365	113.8294
325.000000	72.371	113.6080
330.000000	72.352	113.4178
335.000000	72.360	113.3074
340.000000	72.361	113.2509
345.000000	72.339	113.0806
350.000000	72.332	112.8303
355.000000	72.330	112.6040
360.000000	72.326	112.3021
365.000000	72.334	112.0679
370.000000	72.344	111.9189
375.000000	72.341	111.8814
382.000000	72.337	111.8530
387.000000	72.348	111.6343
395.000000	72.383	111.2830
400.000000	72.389	111.0434
406.000000	72.409	110.6982
412.000000	72.432	110.4874
418.000000	72.452	110.3901
425.000000	72.482	110.3183
431.000000	72.511	110.2002
437.000000	72.543	109.9078
444.000000	72.569	109.6053
450.000000	72.594	109.3259
455.000000	72.617	109.1156
462.000000	72.669	108.8598
468.000000	72.716	108.6248
475.000000	72.754	108.4070
482.000000	72.792	108.1853
487.000000	72.818	108.0073
494.000000	72.863	107.7828
500.000000	72.912	107.6257
508.000000	72.968	107.3206
515.000000	73.011	107.0069
522.000000	73.055	106.7811
530.000000	73.091	106.5514
538.000000	73.119	106.2319
545.000000	73.157	105.9803
552.000000	73.205	105.7341
560.000000	73.262	105.4774
570.000000	73.355	105.1059
580.000000	73.444	104.7544
590.000000	73.505	104.4254
600.000000	73.576	103.9809
608.000000	73.639	103.5981
615.000000	73.686	103.3379
622.000000	73.727	103.1121
630.000000	73.784	102.8139
640.000000	73.870	102.3978
650.000000	73.948	102.0457
660.000000	74.019	101.7387
670.000000	74.070	101.3519
680.000000	74.105	100.8972
690.000000	74.151	100.4866
700.000000	74.228	100.2801
710.000000	74.309	100.1763
720.000000	74.374	99.9919
730.000000	74.441	99.7603
740.000000	74.524	99.5129
750.000000	74.604	99.2589
762.000000	74.701	98.9654
775.000000	74.802	98.5218
788.000000	74.894	98.0939
800.000000	74.975	97.8579
812.000000	75.067	97.6248
825.000000	75.165	97.3032
838.000000	75.271	96.9672
850.000000	75.373	96.7203
862.000000	75.483	96.4215
875.000000	75.607	96.0720
885.000000	75.693	95.8054
900.000000	75.814	95.3828
912.000000	75.914	95.0295
925.000000	76.021	94.6168
938.000000	76.136	94.1881
950.000000	76.252	93.7962
962.000000	76.364	93.4245
975.000000	76.478	92.9438
988.000000	76.589	92.3438
1000.000000	76.692	91.7824
1015.000000	76.821	91.2021
1030.000000	76.949	90.5807
1044.000000	77.073	89.9193
1060.000000	77.207	89.0915
1075.000000	77.324	88.3696
1090.000000	77.431	87.7049
1106.000000	77.542	86.9392
1120.000000	77.638	86.2215
1138.000000	77.760	85.2738
1150.000000	77.835	84.6245
1172.000000	77.958	83.5040
1180.000000	78.001	83.1185
1206.000000	78.143	81.8437
1220.000000	78.212	81.1333
1241.000000	78.302	80.0774
1250.000000	78.336	79.6669
1265.000000	78.393	79.0252
1280.000000	78.454	78.4051
1315.000000	78.579	77.0207
1320.000000	78.593	76.8414
1340.000000	78.647	76.1663
1360.000000	78.701	75.5256
1380.000000	78.759	74.8995
1400.000000	78.826	74.2749
1430.000000	78.919	73.4457
1450.000000	78.985	72.9535
1475.000000	79.073	72.3645
1500.000000	79.150	71.8122
1525.000000	79.232	71.2932
1550.000000	79.328	70.7686
1575.000000	79.425	70.2635
1600.000000	79.522	69.8233
1625.000000	79.618	69.4064
1650.000000	79.720	68.9869
1675.000000	79.827	68.5537
1700.000000	79.935	68.1307
1725.000000	80.045	67.7165
1750.000000	80.152	67.2768
1775.000000	80.260	66.8338
1800.000000	80.375	66.3712
1825.000000	80.496	65.8838
1850.000000	80.620	65.3475
1875.000000	80.746	64.8112
1900.000000	80.872	64.2710
1925.000000	80.999	63.6959
1950.000000	81.121	63.0797
1975.000000	81.242	62.4095
2000.000000	81.368	61.7195
2030.000000	81.524	60.8748
2060.000000	81.672	59.9759
2090.000000	81.811	58.9980
2120.000000	81.950	57.9383
2140.000000	82.041	57.2012
2180.000000	82.208	55.6861
2200.000000	82.288	54.8769
2240.000000	82.433	53.2177
2270.000000	82.525	51.9190
2300.000000	82.607	50.5744
2330.000000	82.679	49.2157
2360.000000	82.740	47.8200
2400.000000	82.800	45.9239
2430.000000	82.826	44.5208
2470.000000	82.842	42.6494
2500.000000	82.841	41.2548
2540.000000	82.820	39.4263
2580.000000	82.772	37.6437
2620.000000	82.702	35.9420
2650.000000	82.640	34.7258
2690.000000	82.546	33.1893
2720.000000	82.463	32.1039
2760.000000	82.340	30.7495
2800.000000	82.209	29.5039
2850.000000	82.028	28.1137
2900.000000	81.831	26.9202
2950.000000	81.627	25.8863
3000.000000	81.419	25.0872
3040.000000	81.249	24.6210
3070.000000	81.122	24.3911
3110.000000	80.962	24.2321
3150.000000	80.814	24.2060
3200.000000	80.647	24.3244
3250.000000	80.505	24.5776
3300.000000	80.382	24.9580
3350.000000	80.279	25.4547
3400.000000	80.205	26.0309
3450.000000	80.158	26.6676
3500.000000	80.145	27.2997
3550.000000	80.159	27.9407
3600.000000	80.197	28.5920
3650.000000	80.263	29.2374
3700.000000	80.357	29.8297
3750.000000	80.470	30.3138
3820.000000	80.657	30.7848
3870.000000	80.812	30.9540
3950.000000	81.080	30.9633
4000.000000	81.267	30.7664
4060.000000	81.504	30.2233
4120.000000	81.745	29.3647
4180.000000	81.990	28.1771
4250.000000	82.265	26.2298
4310.000000	82.460	24.0619
4370.000000	82.593	21.4367
4440.000000	82.644	17.8927
4500.000000	82.580	14.6176
4550.000000	82.445	11.8511
4620.000000	82.131	8.1435
4680.000000	81.754	5.3241
4750.000000	81.206	2.6833
4820.000000	80.576	0.8797
4870.000000	80.092	0.1545
4940.000000	79.387	0.0036
5000.000000	78.776	0.7008
5080.000000	77.986	2.7963
5150.000000	77.361	5.8016
5220.000000	76.859	9.8823
5300.000000	76.513	15.5945
5380.000000	76.510	21.8342
5450.000000	76.840	27.0228
5520.000000	77.454	31.2161
5600.000000	78.368	33.8222
5700.000000	79.510	32.9330
5800.000000	80.285	28.0334
5900.000000	80.493	21.4862
6000.000000	80.190	15.7977
6080.000000	79.715	12.7196
6150.000000	79.221	11.1844
6220.000000	78.709	10.6093
6300.000000	78.141	10.9529
6400.000000	77.504	12.6410
6500.000000	76.995	15.4579
6600.000000	76.639	19.1062
6700.000000	76.466	23.2656
6800.000000	76.497	27.5983
6900.000000	76.730	31.7636
7000.000000	77.142	35.5000
7100.000000	77.697	38.6782
7200.000000	78.367	41.1510
7300.000000	79.141	42.7978
7400.000000	80.014	43.5230
7500.000000	80.974	43.0911
7620.000000	82.208	40.6194
7750.000000	83.521	34.7911
7880.000000	84.486	24.9328
8000.000000	84.777	12.9462
8120.000000	84.352	0.7775
8250.000000	83.191	-9.3255
8380.000000	81.614	-14.2609
8500.000000	80.225	-14.1362
8620.000000	79.335	-12.6955
8750.000000	78.613	-12.4738
8850.000000	77.971	-12.0569
9000.000000	77.023	-9.8241
9120.000000	76.414	-7.0732
9250.000000	75.931	-3.6810
9380.000000	75.610	-0.1741
9500.000000	75.437	2.9910
9620.000000	75.378	6.0383
9750.000000	75.453	9.0827
9880.000000	75.677	11.6163
10000.000000	76.000	13.2859
10150.000000	76.526	14.2000
10300.000000	77.120	13.2861
10440.000000	77.640	10.5073
10600.000000	78.057	5.1434
10750.000000	78.142	-1.5871
10900.000000	77.848	-8.9925
11060.000000	77.099	-16.2156
11200.000000	76.135	-20.9876
11380.000000	74.629	-24.1961
11500.000000	73.571	-24.4420
11720.000000	71.778	-21.7085
11800.000000	71.205	-20.0032
12060.000000	69.640	-12.9317
12200.000000	68.967	-8.3248
12410.000000	68.264	-0.3220
12500.000000	68.177	2.9170
12650.000000	68.175	5.9535
12800.000000	67.714	7.7392
13150.000000	66.751	25.5218
13200.000000	66.877	27.8141
13400.000000	67.562	34.9003
13600.000000	68.416	40.1949
13800.000000	69.509	43.8692
14000.000000	70.842	45.0607
14300.000000	72.919	39.5154
14500.000000	73.798	29.8048
14750.000000	73.772	14.5634
15000.000000	72.605	3.0696
15250.000000	70.963	-1.5854
15500.000000	69.577	-1.4139
15750.000000	68.744	0.8257
16000.000000	68.400	3.3261
16250.000000	68.431	4.4443
16500.000000	68.623	3.0577
16750.000000	68.694	-1.3310
17000.000000	68.331	-7.6902
17250.000000	67.378	-12.9576
17500.000000	65.998	-13.3687
17750.000000	65.043	-6.6344
18000.000000	65.989	1.1747
18250.000000	67.578	-3.2106
18500.000000	67.884	-18.4952
18750.000000	66.739	-33.0937
19000.000000	64.692	-40.7307
19250.000000	62.473	-42.2033
19500.000000	60.475	-40.7318
19750.000000	58.718	-38.0226
20000.000000	57.429	-35.5897
