* Measurement data measured by REW V5.20.5
* Source: Input device not selected, no input selected, L, volume: no control
* Format: 128k Log Swept Sine, 1 sweep at -12.0 dBFS with no timing reference
* Dated: 06-Jul-2022 14:19:41
* REW Settings:
*  C-weighting compensation: Off
*  Target level: 75.0 dB
* Note: 
* Measurement: Aria Snow Edition (Spring) R
* Smoothing: 1/24 octave
* Frequency Step: 1/48 octave
* Start Frequency: 20.300 Hz
*
* Freq(Hz)	SPL(dB)	Phase(degrees)
20.299999	90.629	-136.3196
20.600000	90.546	-136.4053
20.900000	90.385	-136.3721
21.200001	90.292	-135.9017
21.400000	90.289	-135.4876
21.799999	90.376	-135.0208
22.000000	90.439	-135.1057
22.400000	90.544	-135.8562
22.700001	90.575	-136.6936
23.000000	90.572	-137.5521
23.299999	90.551	-138.3279
23.600000	90.535	-139.0239
24.000000	90.533	-139.9287
24.299999	90.547	-140.6215
24.700001	90.587	-141.5307
25.000000	90.647	-142.2193
25.400000	90.779	-143.3438
25.799999	90.932	-145.0650
26.200001	91.007	-147.4689
26.500000	90.947	-149.3896
26.900000	90.693	-151.1524
27.200001	90.427	-151.2368
27.600000	90.178	-149.4912
28.000000	90.274	-146.6949
28.500000	90.855	-144.6675
29.000000	91.433	-145.9991
29.500000	91.636	-149.1399
30.000000	91.498	-151.2639
30.400000	91.342	-151.5081
30.700001	91.302	-151.2217
31.100000	91.372	-151.0612
31.500000	91.480	-151.7908
32.000000	91.480	-153.6791
32.500000	91.272	-155.3577
33.000000	90.994	-155.8086
33.500000	90.840	-155.2891
34.000000	90.877	-154.8619
34.500000	91.015	-155.2575
35.000000	91.124	-156.3621
35.500000	91.154	-157.5099
36.000000	91.160	-158.1285
36.500000	91.232	-158.3092
37.000000	91.370	-158.6848
37.500000	91.459	-159.5025
38.200001	91.380	-159.8364
38.700001	91.365	-158.5056
39.500000	91.873	-156.5237
40.000000	92.275	-157.8981
40.599998	92.390	-161.7363
41.200001	92.041	-164.9659
41.799999	91.525	-165.8767
42.500000	91.127	-165.5035
43.099998	90.938	-165.5945
43.700001	90.769	-165.8476
44.400002	90.689	-165.9078
45.000000	90.758	-166.3983
45.500000	90.835	-167.3226
46.200001	90.885	-168.8205
46.799999	90.885	-169.7612
47.500000	90.864	-170.2179
48.200001	90.864	-169.8558
48.700001	90.923	-169.2958
49.400002	91.074	-168.9209
50.000000	91.149	-169.3310
50.799999	91.033	-169.9980
51.500000	90.833	-169.5437
52.200001	90.773	-168.4460
53.000000	90.925	-168.3250
53.799999	91.047	-170.1324
54.500000	91.021	-172.2157
55.200001	90.938	-174.1535
56.000000	90.767	-176.0780
57.000000	90.467	-176.2379
58.000000	90.578	-174.4364
59.000000	90.888	-174.6937
60.000000	90.940	-175.4800
60.799999	90.957	-175.5437
61.500000	90.978	-175.8249
62.200001	90.945	-176.3080
63.000000	90.845	-176.6446
64.000000	90.735	-176.4629
65.000000	90.751	-176.1767
66.000000	90.825	-176.5417
67.000000	90.849	-177.1863
68.000000	90.857	-177.6501
69.000000	90.872	-178.2213
70.000000	90.843	-178.9057
71.000000	90.789	-179.3075
72.000000	90.777	-179.5820
73.000000	90.793	179.9921
74.000000	90.812	179.3760
75.000000	90.792	178.6569
76.199997	90.710	178.1246
77.500000	90.621	178.0003
78.800003	90.584	177.8680
80.000000	90.528	177.2209
81.199997	90.415	176.8806
82.500000	90.376	176.6563
83.800003	90.331	176.1802
85.000000	90.280	175.9831
86.199997	90.233	175.8297
87.500000	90.160	175.6722
88.500000	90.094	175.5804
90.000000	89.994	175.3159
91.199997	89.912	175.0514
92.500000	89.853	174.6547
93.800003	89.788	174.0610
95.000000	89.705	173.6617
96.199997	89.611	173.5331
97.500000	89.508	173.8111
98.800003	89.431	174.4610
100.000000	89.394	175.1940
101.500000	89.383	176.0469
103.000000	89.425	176.7478
104.400002	89.522	176.9352
106.000000	89.636	176.5104
107.500000	89.707	175.8373
109.000000	89.741	175.2730
110.599998	89.761	174.7868
112.000000	89.750	174.3619
113.800003	89.697	173.7960
115.000000	89.640	173.4765
117.199997	89.548	173.0665
118.000000	89.520	172.9451
120.599998	89.425	172.7320
122.000000	89.369	172.7761
124.099998	89.274	172.9659
125.000000	89.224	173.1512
126.500000	89.163	173.6753
128.000000	89.153	174.1430
131.500000	89.207	174.6059
132.000000	89.228	174.6086
134.000000	89.320	174.3145
136.000000	89.392	173.9221
138.000000	89.459	173.5129
140.000000	89.465	172.8811
143.000000	89.358	172.7110
145.000000	89.406	172.5563
147.500000	89.392	171.3306
150.000000	89.245	170.8840
152.500000	89.190	170.7481
155.000000	89.165	169.8439
157.500000	89.156	169.0179
160.000000	89.178	168.2048
162.500000	89.041	168.1121
165.000000	88.904	168.8035
167.500000	88.836	169.1863
170.000000	88.819	169.2842
172.500000	88.807	169.3432
175.000000	88.766	169.3023
177.500000	88.724	169.0119
180.000000	88.716	168.4778
182.500000	88.685	168.0284
185.000000	88.606	168.2408
187.500000	88.546	168.8093
190.000000	88.520	169.1190
192.500000	88.504	168.9511
195.000000	88.448	168.5943
197.500000	88.370	168.4956
200.000000	88.321	168.6578
203.000000	88.303	168.8900
206.000000	88.281	169.0041
209.000000	88.232	168.9836
212.000000	88.154	168.9820
214.000000	88.109	169.0419
218.000000	88.046	169.0279
220.000000	88.019	169.0514
224.000000	87.987	169.1545
227.000000	87.941	169.0951
230.000000	87.880	169.1308
233.000000	87.840	169.2331
236.000000	87.808	169.2645
240.000000	87.767	169.2697
243.000000	87.737	169.1762
247.000000	87.656	169.0131
250.000000	87.604	169.3474
254.000000	87.625	169.7885
258.000000	87.608	169.4567
262.000000	87.484	169.4774
265.000000	87.414	170.2322
269.000000	87.482	171.4340
272.000000	87.624	171.5096
276.000000	87.677	170.3011
280.000000	87.475	169.5634
285.000000	87.282	170.3849
290.000000	87.281	171.2132
295.000000	87.281	171.4312
300.000000	87.233	171.4872
304.000000	87.193	171.5746
307.000000	87.163	171.6033
311.000000	87.122	171.6364
315.000000	87.089	171.6789
320.000000	87.044	171.8088
325.000000	86.983	172.0626
330.000000	86.935	172.3332
335.000000	86.909	172.5952
340.000000	86.900	172.7703
345.000000	86.875	172.8865
350.000000	86.825	173.0807
355.000000	86.780	173.2811
360.000000	86.750	173.3799
365.000000	86.726	173.5296
370.000000	86.704	173.8487
375.000000	86.681	174.2042
382.000000	86.665	174.6012
387.000000	86.656	174.9117
395.000000	86.611	175.3235
400.000000	86.579	175.5415
406.000000	86.533	175.9362
412.000000	86.474	176.1382
418.000000	86.440	176.0365
425.000000	86.438	176.2213
431.000000	86.428	176.5840
437.000000	86.409	176.9428
444.000000	86.382	177.2717
450.000000	86.370	177.5456
455.000000	86.358	177.8214
462.000000	86.336	178.1949
468.000000	86.319	178.5122
475.000000	86.304	178.9238
482.000000	86.292	179.3011
487.000000	86.283	179.5279
494.000000	86.265	179.8382
500.000000	86.253	-179.8877
508.000000	86.251	-179.5752
515.000000	86.246	-179.3340
522.000000	86.231	-179.0666
530.000000	86.211	-178.7125
538.000000	86.195	-178.2553
545.000000	86.184	-177.7744
552.000000	86.177	-177.4139
560.000000	86.163	-177.1357
570.000000	86.146	-176.6927
580.000000	86.137	-176.1936
590.000000	86.131	-175.6939
600.000000	86.124	-175.2122
608.000000	86.118	-174.8017
615.000000	86.114	-174.4404
622.000000	86.108	-174.0810
630.000000	86.101	-173.7059
640.000000	86.098	-173.2227
650.000000	86.111	-172.6471
660.000000	86.123	-172.0910
670.000000	86.113	-171.6116
680.000000	86.113	-171.0971
690.000000	86.115	-170.5097
700.000000	86.104	-170.0622
710.000000	86.126	-169.7282
720.000000	86.149	-169.1002
730.000000	86.157	-168.4710
740.000000	86.175	-167.9425
750.000000	86.194	-167.4343
762.000000	86.217	-166.8259
775.000000	86.230	-166.3074
788.000000	86.243	-165.8126
800.000000	86.283	-164.9278
812.000000	86.329	-164.1843
825.000000	86.379	-163.5272
838.000000	86.438	-162.8026
850.000000	86.504	-162.1573
862.000000	86.592	-161.6401
875.000000	86.694	-161.3528
885.000000	86.736	-161.3229
900.000000	86.724	-161.0444
912.000000	86.705	-160.5762
925.000000	86.690	-159.8852
938.000000	86.677	-158.9168
950.000000	86.702	-157.8287
962.000000	86.785	-156.7987
975.000000	86.901	-155.9539
988.000000	87.020	-155.3826
1000.000000	87.130	-154.9627
1015.000000	87.258	-154.4903
1030.000000	87.374	-154.0971
1044.000000	87.477	-153.7309
1060.000000	87.591	-153.2806
1075.000000	87.692	-152.8852
1090.000000	87.788	-152.5601
1106.000000	87.891	-152.2725
1120.000000	87.980	-152.0175
1138.000000	88.095	-151.7155
1150.000000	88.172	-151.5501
1172.000000	88.310	-151.3128
1180.000000	88.361	-151.2429
1206.000000	88.532	-151.0686
1220.000000	88.631	-151.0219
1241.000000	88.783	-150.9723
1250.000000	88.847	-150.9510
1265.000000	88.949	-150.9335
1280.000000	89.048	-150.9369
1315.000000	89.270	-150.9894
1320.000000	89.301	-151.0107
1340.000000	89.421	-151.1201
1360.000000	89.539	-151.2296
1380.000000	89.660	-151.3172
1400.000000	89.781	-151.3840
1430.000000	89.958	-151.4766
1450.000000	90.077	-151.5764
1475.000000	90.226	-151.7557
1500.000000	90.370	-151.9500
1525.000000	90.499	-152.1257
1550.000000	90.612	-152.2827
1575.000000	90.717	-152.4446
1600.000000	90.820	-152.6059
1625.000000	90.922	-152.7665
1650.000000	91.024	-152.9305
1675.000000	91.127	-153.1015
1700.000000	91.231	-153.2663
1725.000000	91.334	-153.4244
1750.000000	91.440	-153.5930
1775.000000	91.543	-153.7929
1800.000000	91.645	-153.9919
1825.000000	91.746	-154.1907
1850.000000	91.844	-154.3939
1875.000000	91.941	-154.6038
1900.000000	92.038	-154.8342
1925.000000	92.135	-155.0867
1950.000000	92.230	-155.3561
1975.000000	92.324	-155.6238
2000.000000	92.415	-155.8868
2030.000000	92.518	-156.2030
2060.000000	92.617	-156.4984
2090.000000	92.717	-156.7601
2120.000000	92.819	-156.9763
2140.000000	92.891	-157.0995
2180.000000	93.055	-157.3620
2200.000000	93.149	-157.5489
2240.000000	93.348	-158.1204
2270.000000	93.487	-158.7346
2300.000000	93.605	-159.4483
2330.000000	93.700	-160.1848
2360.000000	93.779	-160.8946
2400.000000	93.873	-161.7433
2430.000000	93.945	-162.3095
2470.000000	94.056	-163.0253
2500.000000	94.150	-163.5980
2540.000000	94.275	-164.4793
2580.000000	94.386	-165.4895
2620.000000	94.476	-166.5921
2650.000000	94.530	-167.4621
2690.000000	94.585	-168.6339
2720.000000	94.613	-169.4945
2760.000000	94.638	-170.5847
2800.000000	94.650	-171.5926
2850.000000	94.652	-172.7586
2900.000000	94.642	-173.8271
2950.000000	94.618	-174.7422
3000.000000	94.588	-175.4309
3040.000000	94.578	-175.8021
3070.000000	94.588	-176.0124
3110.000000	94.634	-176.2993
3150.000000	94.712	-176.7312
3200.000000	94.828	-177.6194
3250.000000	94.921	-178.8759
3300.000000	94.967	179.6837
3350.000000	94.966	178.2418
3400.000000	94.932	176.8923
3450.000000	94.878	175.6755
3500.000000	94.813	174.5909
3550.000000	94.742	173.6295
3600.000000	94.669	172.7567
3650.000000	94.596	171.9440
3700.000000	94.523	171.1784
3750.000000	94.451	170.4500
3820.000000	94.350	169.5038
3870.000000	94.281	168.8664
3950.000000	94.177	167.8581
4000.000000	94.113	167.2419
4060.000000	94.039	166.5215
4120.000000	93.965	165.8212
4180.000000	93.887	165.1341
4250.000000	93.788	164.3416
4310.000000	93.695	163.6575
4370.000000	93.594	162.9775
4440.000000	93.468	162.1985
4500.000000	93.352	161.5478
4550.000000	93.249	161.0320
4620.000000	93.095	160.3702
4680.000000	92.954	159.8606
4750.000000	92.778	159.3400
4820.000000	92.595	158.9087
4870.000000	92.459	158.6550
4940.000000	92.261	158.3797
5000.000000	92.085	158.2247
5080.000000	91.844	158.1161
5150.000000	91.632	158.1100
5220.000000	91.422	158.1852
5300.000000	91.187	158.3719
5380.000000	90.957	158.6740
5450.000000	90.754	159.0331
5520.000000	90.549	159.4876
5600.000000	90.316	160.1196
5700.000000	90.036	161.0630
5800.000000	89.772	162.1691
5900.000000	89.533	163.5693
6000.000000	89.361	165.2006
6080.000000	89.275	166.3140
6150.000000	89.196	167.1128
6220.000000	89.105	167.9283
6300.000000	89.006	168.9637
6400.000000	88.909	170.3751
6500.000000	88.849	171.8683
6600.000000	88.835	173.3899
6700.000000	88.869	174.8873
6800.000000	88.957	176.3062
6900.000000	89.101	177.5981
7000.000000	89.297	178.6998
7100.000000	89.546	179.5603
7200.000000	89.851	-179.9212
7300.000000	90.216	-179.8770
7400.000000	90.636	179.5365
7500.000000	91.094	178.1460
7620.000000	91.647	175.1620
7750.000000	92.155	170.0003
7880.000000	92.434	162.7610
8000.000000	92.376	154.6978
8120.000000	91.949	146.3214
8250.000000	91.081	138.1821
8380.000000	89.893	131.9561
8500.000000	88.637	128.1659
8620.000000	87.331	126.0934
8750.000000	85.936	125.4161
8850.000000	84.904	125.7680
9000.000000	83.441	127.3613
9120.000000	82.348	129.3599
9250.000000	81.248	132.0621
9380.000000	80.228	135.2229
9500.000000	79.351	138.4759
9620.000000	78.535	141.9493
9750.000000	77.714	145.9371
9880.000000	76.954	150.0946
10000.000000	76.299	154.0437
10150.000000	75.536	159.1887
10300.000000	74.825	164.5836
10440.000000	74.194	169.9028
10600.000000	73.518	176.2108
10750.000000	72.936	-177.5936
10900.000000	72.392	-170.8297
11060.000000	71.870	-162.9162
11200.000000	71.513	-155.2730
11380.000000	71.297	-144.1723
11500.000000	71.421	-136.1286
11720.000000	72.425	-122.0477
11800.000000	73.002	-117.9798
12060.000000	74.993	-111.5656
12200.000000	75.809	-111.7500
12410.000000	76.547	-113.5254
12500.000000	76.724	-114.1089
12650.000000	76.920	-114.4155
12800.000000	77.081	-113.8835
13150.000000	77.618	-110.6705
13200.000000	77.729	-110.1169
13400.000000	78.284	-107.9577
13600.000000	79.047	-106.1949
13800.000000	80.050	-105.2957
14000.000000	81.257	-105.8245
14300.000000	83.301	-110.7357
14500.000000	84.646	-117.8703
14750.000000	85.881	-132.1534
15000.000000	86.157	-150.4332
15250.000000	85.393	-167.5985
15500.000000	83.949	179.6477
15750.000000	82.279	171.1358
16000.000000	80.651	165.3558
16250.000000	79.118	161.0134
16500.000000	77.637	157.4408
16750.000000	76.173	154.6765
17000.000000	74.720	152.5751
17250.000000	73.282	150.7801
17500.000000	71.773	148.3641
17750.000000	69.885	146.5221
18000.000000	67.447	151.2679
18250.000000	65.574	159.3817
18500.000000	64.548	165.0336
18750.000000	63.824	169.3113
19000.000000	63.263	172.5975
19250.000000	62.792	174.9527
19500.000000	62.394	176.9551
19750.000000	62.061	178.3062
