* Measurement data measured by REW V5.20.5
* Source: Input device not selected, no input selected, L, volume: no control
* Format: 128k Log Swept Sine, 1 sweep at -12.0 dBFS with no timing reference
* Dated: 06-Jul-2022 14:09:39
* REW Settings:
*  C-weighting compensation: Off
*  Target level: 75.0 dB
* Note: 
* Measurement: Aria Snow Edition (Grey) R
* Smoothing: 1/24 octave
* Frequency Step: 1/48 octave
* Start Frequency: 20.300 Hz
*
* Freq(Hz)	SPL(dB)	Phase(degrees)
20.299999	90.591	-132.4188
20.600000	90.637	-132.9814
20.900000	90.710	-134.1399
21.200001	90.714	-135.3622
21.400000	90.672	-136.1006
21.799999	90.520	-137.1317
22.000000	90.432	-137.3378
22.400000	90.288	-137.1340
22.700001	90.255	-136.6353
23.000000	90.308	-136.1292
23.299999	90.436	-135.8844
23.600000	90.610	-136.0889
24.000000	90.851	-137.1400
24.299999	90.998	-138.3932
24.700001	91.120	-140.3842
25.000000	91.153	-141.8883
25.400000	91.136	-143.6544
25.799999	91.083	-144.9859
26.200001	91.032	-145.8755
26.500000	91.012	-146.3253
26.900000	91.012	-146.7782
27.200001	91.029	-147.0876
27.600000	91.061	-147.5068
28.000000	91.091	-147.9000
28.500000	91.132	-148.2515
29.000000	91.200	-148.4750
29.500000	91.307	-148.8246
30.000000	91.417	-149.5780
30.400000	91.470	-150.4663
30.700001	91.474	-151.1950
31.100000	91.429	-152.0777
31.500000	91.345	-152.6915
32.000000	91.230	-152.9815
32.500000	91.154	-152.8714
33.000000	91.144	-152.7069
33.500000	91.181	-152.8015
34.000000	91.218	-153.2064
34.500000	91.230	-153.7010
35.000000	91.243	-154.1062
35.500000	91.289	-154.5809
36.000000	91.343	-155.4183
36.500000	91.346	-156.5233
37.000000	91.296	-157.3932
37.500000	91.285	-157.8601
38.200001	91.420	-159.2056
38.700001	91.451	-161.4594
39.500000	91.003	-164.6627
40.000000	90.581	-163.9778
40.599998	90.478	-161.0306
41.200001	90.878	-159.3867
41.799999	91.282	-160.6031
42.500000	91.403	-163.0548
43.099998	91.374	-164.0452
43.700001	91.413	-164.3961
44.400002	91.493	-165.0353
45.000000	91.503	-165.6054
45.500000	91.480	-165.8196
46.200001	91.444	-165.7524
46.799999	91.419	-165.5268
47.500000	91.387	-165.1565
48.200001	91.357	-164.6261
48.700001	91.362	-164.1380
49.400002	91.451	-163.6604
50.000000	91.574	-163.9800
50.799999	91.649	-165.5341
51.500000	91.578	-167.0249
52.200001	91.475	-168.0484
53.000000	91.411	-169.0063
53.799999	91.376	-170.0134
54.500000	91.356	-170.7733
55.200001	91.358	-171.4082
56.000000	91.368	-172.0226
57.000000	91.377	-172.4081
58.000000	91.420	-172.3830
59.000000	91.506	-172.4875
60.000000	91.553	-173.1992
60.799999	91.496	-173.9671
61.500000	91.391	-174.4522
62.200001	91.273	-174.7088
63.000000	91.154	-174.8127
64.000000	91.063	-174.7903
65.000000	91.056	-174.9220
66.000000	91.088	-175.3931
67.000000	91.118	-176.0504
68.000000	91.127	-176.7107
69.000000	91.118	-177.2509
70.000000	91.088	-177.6874
71.000000	91.047	-177.9321
72.000000	91.029	-178.1987
73.000000	90.998	-178.7148
74.000000	90.937	-179.1685
75.000000	90.891	-179.4789
76.199997	90.869	-179.7870
77.500000	90.898	179.8970
78.800003	90.965	179.4163
80.000000	91.010	178.5982
81.199997	90.941	177.9014
82.500000	90.850	177.8452
83.800003	90.781	177.7406
85.000000	90.699	177.5185
86.199997	90.607	177.2435
87.500000	90.554	176.9109
88.500000	90.553	176.3688
90.000000	90.555	175.1481
91.199997	90.490	174.1780
92.500000	90.357	173.9839
93.800003	90.251	174.5167
95.000000	90.181	175.2326
96.199997	90.118	175.7191
97.500000	89.986	176.0927
98.800003	89.860	176.8401
100.000000	89.836	177.4937
101.500000	89.864	178.0176
103.000000	89.956	178.6910
104.400002	90.099	179.1417
106.000000	90.242	179.1890
107.500000	90.311	178.7861
109.000000	90.306	178.0699
110.599998	90.245	177.3240
112.000000	90.209	176.9005
113.800003	90.230	176.3817
115.000000	90.251	175.8484
117.199997	90.244	174.6071
118.000000	90.233	173.9950
120.599998	90.111	171.9558
122.000000	90.036	171.4031
124.099998	89.870	171.6496
125.000000	89.782	172.2337
126.500000	89.651	173.2874
128.000000	89.553	173.7952
131.500000	89.648	169.6462
132.000000	89.637	168.6749
134.000000	89.494	166.7761
136.000000	89.448	168.5896
138.000000	89.550	171.0481
140.000000	89.570	172.1900
143.000000	89.636	172.3290
145.000000	89.741	171.3758
147.500000	89.641	170.9288
150.000000	89.610	171.3692
152.500000	89.611	170.6387
155.000000	89.538	169.8450
157.500000	89.459	169.6743
160.000000	89.427	169.4630
162.500000	89.385	169.4868
165.000000	89.348	169.8249
167.500000	89.269	170.0654
170.000000	89.183	170.0803
172.500000	89.112	169.8176
175.000000	89.062	169.6251
177.500000	89.041	169.7513
180.000000	89.018	170.3945
182.500000	89.016	171.1211
185.000000	89.002	170.9073
187.500000	88.931	170.2047
190.000000	88.883	169.7420
192.500000	88.859	169.5383
195.000000	88.819	169.5438
197.500000	88.780	169.9201
200.000000	88.774	170.2592
203.000000	88.726	170.2628
206.000000	88.680	170.0079
209.000000	88.649	169.7944
212.000000	88.640	169.6182
214.000000	88.609	169.5289
218.000000	88.549	169.9850
220.000000	88.494	170.2914
224.000000	88.322	170.7887
227.000000	88.241	170.4445
230.000000	88.167	169.7009
233.000000	88.176	169.1634
236.000000	88.260	169.0565
240.000000	88.253	169.9101
243.000000	88.177	170.3013
247.000000	88.123	170.3340
250.000000	88.081	170.4879
254.000000	88.027	170.5653
258.000000	87.989	170.6389
262.000000	87.943	170.3188
265.000000	87.978	169.9774
269.000000	87.978	170.1833
272.000000	87.890	170.3839
276.000000	87.804	170.4726
280.000000	87.774	170.9000
285.000000	87.718	171.3953
290.000000	87.674	171.6052
295.000000	87.651	171.7687
300.000000	87.608	171.8453
304.000000	87.582	172.0102
307.000000	87.570	172.1370
311.000000	87.531	172.3222
315.000000	87.493	172.6139
320.000000	87.456	172.8705
325.000000	87.415	172.9858
330.000000	87.374	173.1866
335.000000	87.344	173.5032
340.000000	87.326	173.6382
345.000000	87.295	173.7277
350.000000	87.235	173.7953
355.000000	87.200	174.0131
360.000000	87.184	174.4274
365.000000	87.169	174.7653
370.000000	87.154	175.0359
375.000000	87.143	175.2017
382.000000	87.104	175.3597
387.000000	87.067	175.5479
395.000000	87.053	175.9145
400.000000	87.046	176.3097
406.000000	87.010	176.6110
412.000000	86.974	176.6581
418.000000	86.938	176.9498
425.000000	86.900	177.3911
431.000000	86.881	177.7292
437.000000	86.868	178.0059
444.000000	86.852	178.3011
450.000000	86.836	178.5999
455.000000	86.824	178.8433
462.000000	86.808	179.1904
468.000000	86.795	179.4909
475.000000	86.777	179.8348
482.000000	86.758	-179.8089
487.000000	86.743	-179.5624
494.000000	86.723	-179.2183
500.000000	86.715	-178.9201
508.000000	86.703	-178.5595
515.000000	86.681	-178.2351
522.000000	86.667	-177.8729
530.000000	86.659	-177.4898
538.000000	86.654	-177.1502
545.000000	86.652	-176.7966
552.000000	86.648	-176.4356
560.000000	86.641	-176.0258
570.000000	86.626	-175.4652
580.000000	86.606	-174.9097
590.000000	86.595	-174.4170
600.000000	86.589	-173.9105
608.000000	86.583	-173.5481
615.000000	86.581	-173.2132
622.000000	86.581	-172.8428
630.000000	86.581	-172.4391
640.000000	86.583	-171.9441
650.000000	86.585	-171.3978
660.000000	86.590	-170.8497
670.000000	86.597	-170.2990
680.000000	86.604	-169.7821
690.000000	86.612	-169.2763
700.000000	86.616	-168.7279
710.000000	86.627	-168.1745
720.000000	86.642	-167.6234
730.000000	86.656	-167.0144
740.000000	86.679	-166.4371
750.000000	86.706	-165.9255
762.000000	86.741	-165.2990
775.000000	86.775	-164.5812
788.000000	86.798	-163.8899
800.000000	86.825	-163.2245
812.000000	86.860	-162.5604
825.000000	86.906	-161.8374
838.000000	86.967	-161.1101
850.000000	87.032	-160.4243
862.000000	87.112	-159.7801
875.000000	87.212	-159.3087
885.000000	87.275	-159.1914
900.000000	87.291	-159.0793
912.000000	87.277	-158.7105
925.000000	87.271	-158.1154
938.000000	87.261	-157.2701
950.000000	87.270	-156.2146
962.000000	87.337	-155.1021
975.000000	87.464	-154.1687
988.000000	87.596	-153.5445
1000.000000	87.702	-153.0909
1015.000000	87.825	-152.5573
1030.000000	87.951	-152.0390
1044.000000	88.068	-151.6090
1060.000000	88.186	-151.1425
1075.000000	88.283	-150.7906
1090.000000	88.385	-150.5118
1106.000000	88.509	-150.2362
1120.000000	88.614	-149.9584
1138.000000	88.733	-149.6404
1150.000000	88.814	-149.4836
1172.000000	88.963	-149.2350
1180.000000	89.015	-149.1715
1206.000000	89.190	-148.9756
1220.000000	89.296	-148.8955
1241.000000	89.461	-148.8318
1250.000000	89.530	-148.8263
1265.000000	89.642	-148.8333
1280.000000	89.751	-148.8412
1315.000000	89.997	-148.9381
1320.000000	90.031	-148.9622
1340.000000	90.162	-149.0562
1360.000000	90.289	-149.1414
1380.000000	90.419	-149.2523
1400.000000	90.551	-149.3808
1430.000000	90.742	-149.5804
1450.000000	90.863	-149.7348
1475.000000	91.012	-149.9324
1500.000000	91.156	-150.1198
1525.000000	91.288	-150.2977
1550.000000	91.409	-150.4711
1575.000000	91.525	-150.6465
1600.000000	91.638	-150.8208
1625.000000	91.750	-151.0065
1650.000000	91.861	-151.1922
1675.000000	91.971	-151.3688
1700.000000	92.080	-151.5594
1725.000000	92.189	-151.7627
1750.000000	92.301	-151.9630
1775.000000	92.414	-152.1617
1800.000000	92.528	-152.3826
1825.000000	92.643	-152.6301
1850.000000	92.755	-152.8975
1875.000000	92.867	-153.1835
1900.000000	92.979	-153.4819
1925.000000	93.087	-153.7908
1950.000000	93.192	-154.1133
1975.000000	93.297	-154.4540
2000.000000	93.402	-154.8138
2030.000000	93.525	-155.2788
2060.000000	93.644	-155.7780
2090.000000	93.759	-156.2882
2120.000000	93.871	-156.8015
2140.000000	93.944	-157.1548
2180.000000	94.084	-157.9051
2200.000000	94.150	-158.3009
2240.000000	94.279	-159.1120
2270.000000	94.370	-159.7291
2300.000000	94.457	-160.3615
2330.000000	94.539	-161.0145
2360.000000	94.618	-161.6877
2400.000000	94.717	-162.5974
2430.000000	94.784	-163.2809
2470.000000	94.866	-164.1902
2500.000000	94.921	-164.8823
2540.000000	94.987	-165.8079
2580.000000	95.045	-166.7229
2620.000000	95.097	-167.6341
2650.000000	95.131	-168.3241
2690.000000	95.171	-169.2356
2720.000000	95.196	-169.9025
2760.000000	95.222	-170.7651
2800.000000	95.240	-171.6001
2850.000000	95.253	-172.5947
2900.000000	95.258	-173.5334
2950.000000	95.260	-174.4277
3000.000000	95.259	-175.2670
3040.000000	95.257	-175.8822
3070.000000	95.256	-176.3095
3110.000000	95.260	-176.8533
3150.000000	95.267	-177.3878
3200.000000	95.279	-178.0748
3250.000000	95.290	-178.8062
3300.000000	95.295	-179.5603
3350.000000	95.296	179.6927
3400.000000	95.293	178.9600
3450.000000	95.288	178.2467
3500.000000	95.282	177.5705
3550.000000	95.276	176.9325
3600.000000	95.269	176.3054
3650.000000	95.264	175.6740
3700.000000	95.262	175.0415
3750.000000	95.266	174.3955
3820.000000	95.280	173.4193
3870.000000	95.298	172.6392
3950.000000	95.323	171.2261
4000.000000	95.326	170.2557
4060.000000	95.312	169.0372
4120.000000	95.278	167.7919
4180.000000	95.225	166.5451
4250.000000	95.142	165.1106
4310.000000	95.058	163.9014
4370.000000	94.964	162.7137
4440.000000	94.839	161.3458
4500.000000	94.716	160.1888
4550.000000	94.600	159.2396
4620.000000	94.415	157.9326
4680.000000	94.236	156.8555
4750.000000	93.999	155.6706
4820.000000	93.731	154.6170
4870.000000	93.518	153.9939
4940.000000	93.196	153.3563
5000.000000	92.908	153.0441
5080.000000	92.529	152.9533
5150.000000	92.210	153.1344
5220.000000	91.909	153.4864
5300.000000	91.588	154.0196
5380.000000	91.282	154.6459
5450.000000	91.019	155.2651
5520.000000	90.761	155.9593
5600.000000	90.474	156.8570
5700.000000	90.131	158.1550
5800.000000	89.805	159.6506
5900.000000	89.499	161.4157
6000.000000	89.247	163.4519
6080.000000	89.110	165.0027
6150.000000	89.004	166.1547
6220.000000	88.884	167.2644
6300.000000	88.744	168.6560
6400.000000	88.590	170.5935
6500.000000	88.472	172.6772
6600.000000	88.394	174.8811
6700.000000	88.370	177.1589
6800.000000	88.407	179.4346
6900.000000	88.516	-178.3782
7000.000000	88.695	-176.3456
7100.000000	88.938	-174.5384
7200.000000	89.246	-173.0444
7300.000000	89.623	-171.9682
7400.000000	90.057	-171.4258
7500.000000	90.539	-171.5635
7620.000000	91.156	-172.8385
7750.000000	91.805	-175.9336
7880.000000	92.328	178.8603
8000.000000	92.583	172.2530
8120.000000	92.517	164.5690
8250.000000	92.024	156.1962
8380.000000	91.128	149.1413
8500.000000	90.061	144.5426
8620.000000	88.890	141.8266
8750.000000	87.609	140.6573
8850.000000	86.656	140.7103
9000.000000	85.309	141.9017
9120.000000	84.306	143.6366
9250.000000	83.294	146.1862
9380.000000	82.361	149.2998
9500.000000	81.565	152.5279
9620.000000	80.832	156.0339
9750.000000	80.110	160.1094
9880.000000	79.461	164.3837
10000.000000	78.919	168.4743
10150.000000	78.301	173.8134
10300.000000	77.754	179.3690
10440.000000	77.302	-175.2776
10600.000000	76.847	-168.8925
10750.000000	76.478	-162.5451
10900.000000	76.174	-155.6671
11060.000000	75.938	-147.5598
11200.000000	75.864	-139.6971
11380.000000	76.118	-128.5196
11500.000000	76.637	-120.7301
11720.000000	78.438	-108.3209
11800.000000	79.281	-105.3213
12060.000000	81.925	-102.9772
12200.000000	83.047	-105.2009
12410.000000	84.356	-109.9964
12500.000000	84.841	-112.1163
12650.000000	85.629	-115.7280
12800.000000	86.432	-119.9034
13150.000000	88.081	-135.3221
13200.000000	88.228	-138.3429
13400.000000	88.409	-151.7401
13600.000000	87.879	-164.9163
13800.000000	86.801	-175.0805
14000.000000	85.476	178.6636
14300.000000	83.546	175.1040
14500.000000	82.482	175.1873
14750.000000	81.477	176.6024
15000.000000	80.808	178.4778
15250.000000	80.442	-179.7885
15500.000000	80.356	-178.8487
15750.000000	80.510	-179.5155
16000.000000	80.801	177.2890
16250.000000	81.039	170.7419
16500.000000	80.950	161.0044
16750.000000	80.279	149.6797
17000.000000	78.984	139.4890
17250.000000	77.240	132.0467
17500.000000	75.273	126.5820
17750.000000	73.048	122.4005
18000.000000	70.240	125.0571
18250.000000	67.743	133.9103
18500.000000	66.350	141.3112
18750.000000	65.438	146.7836
19000.000000	64.781	151.4026
19250.000000	64.365	155.3375
19500.000000	64.151	158.6505
19750.000000	64.027	161.1437
