* Measurement data measured by REW V5.20.13
* Source: EXCL: Mic in at rear panel (Pink)(Realtek(R) Audio), MICROPHONE (마스), L, volume: 0.500
* Format: 256k Log Swept Sine, 1 sweep at -12.0 dBFS with no timing reference
* Dated: 2022. 10. 1 오후 4:29:46
* REW Settings:
*  C-weighting compensation: Off
*  Target level: 75.0 dB
* Note: 
* Measurement: R_AET07
* Smoothing: 1/24 octave
* Frequency Step: 1/48 octave
* Start Frequency: 20.300 Hz
*
* Freq(Hz)	SPL(dB)	Phase(degrees)
20.299999	74.745	-137.0063
20.600000	74.784	-137.1355
20.900000	74.869	-137.3983
21.200001	74.959	-137.7457
21.400000	75.017	-138.0469
21.799999	75.122	-138.8134
22.000000	75.165	-139.2580
22.400000	75.227	-140.1827
22.700001	75.258	-140.8405
23.000000	75.283	-141.4349
23.299999	75.312	-141.9798
23.600000	75.347	-142.5056
24.000000	75.403	-143.2273
24.299999	75.448	-143.8051
24.700001	75.504	-144.6115
25.000000	75.539	-145.2141
25.400000	75.579	-145.9754
25.799999	75.615	-146.6686
26.200001	75.652	-147.3080
26.500000	75.680	-147.7721
26.900000	75.714	-148.3891
27.200001	75.735	-148.8506
27.600000	75.754	-149.4472
28.000000	75.767	-149.9967
28.500000	75.785	-150.6159
29.000000	75.811	-151.2345
29.500000	75.837	-151.9336
30.000000	75.847	-152.6845
30.400000	75.843	-153.2332
30.700001	75.839	-153.5786
31.100000	75.843	-153.9673
31.500000	75.865	-154.3490
32.000000	75.906	-154.9441
32.500000	75.938	-155.6830
33.000000	75.948	-156.4159
33.500000	75.950	-157.0158
34.000000	75.962	-157.5161
34.500000	75.982	-158.0348
35.000000	75.993	-158.5929
35.500000	75.990	-159.0947
36.000000	75.986	-159.4773
36.500000	75.997	-159.8083
37.000000	76.020	-160.2131
37.500000	76.040	-160.7346
38.200001	76.045	-161.5574
38.700001	76.036	-162.1367
39.500000	76.009	-162.9866
40.000000	75.993	-163.4232
40.599998	75.993	-163.8575
41.200001	76.021	-164.3529
41.799999	76.050	-165.0248
42.500000	76.046	-165.8118
43.099998	76.030	-166.1770
43.700001	76.053	-166.3303
44.400002	76.127	-166.6920
45.000000	76.174	-167.2846
45.500000	76.178	-167.7704
46.200001	76.167	-168.2012
46.799999	76.179	-168.4782
47.500000	76.201	-169.0168
48.200001	76.185	-169.7107
48.700001	76.147	-170.1152
49.400002	76.088	-170.4300
50.000000	76.059	-170.5403
50.799999	76.065	-170.6869
51.500000	76.098	-171.0079
52.200001	76.125	-171.5569
53.000000	76.122	-172.2637
53.799999	76.098	-172.8161
54.500000	76.084	-173.1943
55.200001	76.080	-173.5862
56.000000	76.074	-174.0834
57.000000	76.057	-174.7162
58.000000	76.029	-175.3123
59.000000	75.994	-175.8304
60.000000	75.956	-176.2946
60.799999	75.922	-176.6010
61.500000	75.899	-176.7930
62.200001	75.890	-176.9755
63.000000	75.890	-177.2737
64.000000	75.880	-177.7405
65.000000	75.865	-178.1957
66.000000	75.846	-178.6879
67.000000	75.813	-179.1343
68.000000	75.784	-179.4682
69.000000	75.763	-179.8058
70.000000	75.741	179.8185
71.000000	75.711	179.4439
72.000000	75.681	179.1363
73.000000	75.666	178.8103
74.000000	75.649	178.3652
75.000000	75.616	177.9228
76.199997	75.572	177.5277
77.500000	75.539	177.2498
78.800003	75.529	176.9470
80.000000	75.513	176.6030
81.199997	75.498	176.2808
82.500000	75.473	175.7899
83.800003	75.416	175.3897
85.000000	75.375	175.1453
86.199997	75.347	174.8289
87.500000	75.308	174.4328
88.500000	75.276	174.1703
90.000000	75.234	173.8110
91.199997	75.200	173.5967
92.500000	75.168	173.4149
93.800003	75.131	173.2347
95.000000	75.090	173.1044
96.199997	75.055	172.9513
97.500000	75.021	172.6287
98.800003	74.980	172.1909
100.000000	74.936	171.7948
101.500000	74.889	171.4913
103.000000	74.873	171.2719
104.400002	74.853	171.0444
106.000000	74.816	170.8718
107.500000	74.781	170.7245
109.000000	74.748	170.5660
110.599998	74.712	170.3517
112.000000	74.671	170.1491
113.800003	74.613	169.8640
115.000000	74.580	169.6052
117.199997	74.551	168.7710
118.000000	74.543	168.3447
120.599998	74.414	167.4282
122.000000	74.355	167.8038
124.099998	74.334	168.3516
125.000000	74.318	168.4347
126.500000	74.274	168.3854
128.000000	74.218	168.1974
131.500000	74.115	167.7245
132.000000	74.102	167.6988
134.000000	74.048	167.6565
136.000000	73.984	167.5847
138.000000	73.914	167.4232
140.000000	73.850	167.3219
143.000000	73.758	167.3413
145.000000	73.667	167.4105
147.500000	73.550	167.5726
150.000000	73.473	167.7495
152.500000	73.426	168.1573
155.000000	73.406	168.7233
157.500000	73.412	169.1839
160.000000	73.467	169.3729
162.500000	73.535	169.2379
165.000000	73.560	169.0200
167.500000	73.543	168.7777
170.000000	73.510	168.4642
172.500000	73.471	168.0970
175.000000	73.426	167.8246
177.500000	73.376	167.5896
180.000000	73.320	167.4202
182.500000	73.271	167.3244
185.000000	73.227	167.2823
187.500000	73.183	167.2635
190.000000	73.133	167.1865
192.500000	73.078	167.0577
195.000000	73.026	166.9092
197.500000	72.977	166.8426
200.000000	72.935	166.9203
203.000000	72.887	167.0144
206.000000	72.835	167.0542
209.000000	72.790	167.0677
212.000000	72.747	167.0527
214.000000	72.712	167.0695
218.000000	72.643	167.1758
220.000000	72.609	167.1810
224.000000	72.545	167.1416
227.000000	72.501	167.2433
230.000000	72.459	167.4402
233.000000	72.420	167.5359
236.000000	72.376	167.5726
240.000000	72.310	167.7435
243.000000	72.266	167.8079
247.000000	72.211	167.7965
250.000000	72.161	167.9120
254.000000	72.087	168.2499
258.000000	72.022	168.4512
262.000000	71.965	168.5578
265.000000	71.929	168.7148
269.000000	71.886	168.9632
272.000000	71.854	169.1632
276.000000	71.818	169.4730
280.000000	71.790	169.7574
285.000000	71.756	170.0523
290.000000	71.725	170.2205
295.000000	71.703	170.3297
300.000000	71.672	170.4539
304.000000	71.638	170.6375
307.000000	71.608	170.7726
311.000000	71.565	170.9127
315.000000	71.529	171.0574
320.000000	71.499	171.2836
325.000000	71.467	171.5010
330.000000	71.424	171.7100
335.000000	71.387	171.9569
340.000000	71.355	172.1953
345.000000	71.323	172.4738
350.000000	71.281	172.7715
355.000000	71.236	173.0527
360.000000	71.201	173.3606
365.000000	71.168	173.6009
370.000000	71.127	173.8117
375.000000	71.092	174.0823
382.000000	71.046	174.4391
387.000000	71.007	174.6682
395.000000	70.952	175.1127
400.000000	70.921	175.4054
406.000000	70.882	175.7838
412.000000	70.857	176.1400
418.000000	70.832	176.4520
425.000000	70.792	176.8710
431.000000	70.750	177.2109
437.000000	70.713	177.5586
444.000000	70.679	177.9850
450.000000	70.660	178.3167
455.000000	70.648	178.5443
462.000000	70.624	178.8920
468.000000	70.598	179.2596
475.000000	70.571	179.6694
482.000000	70.549	-179.9511
487.000000	70.534	-179.6524
494.000000	70.515	-179.2308
500.000000	70.503	-178.9009
508.000000	70.478	-178.4876
515.000000	70.448	-178.1214
522.000000	70.422	-177.6909
530.000000	70.412	-177.1880
538.000000	70.406	-176.6964
545.000000	70.390	-176.2579
552.000000	70.380	-175.8456
560.000000	70.359	-175.3563
570.000000	70.329	-174.7459
580.000000	70.308	-174.1925
590.000000	70.288	-173.6204
600.000000	70.273	-172.9709
608.000000	70.272	-172.5002
615.000000	70.269	-172.0805
622.000000	70.261	-171.6577
630.000000	70.252	-171.1600
640.000000	70.237	-170.5726
650.000000	70.221	-170.0236
660.000000	70.216	-169.4558
670.000000	70.213	-168.8386
680.000000	70.210	-168.2327
690.000000	70.217	-167.5873
700.000000	70.222	-166.9404
710.000000	70.221	-166.3129
720.000000	70.223	-165.6700
730.000000	70.226	-165.0349
740.000000	70.232	-164.4363
750.000000	70.245	-163.8514
762.000000	70.263	-163.1087
775.000000	70.280	-162.2536
788.000000	70.300	-161.4027
800.000000	70.317	-160.6115
812.000000	70.343	-159.8761
825.000000	70.384	-159.0669
838.000000	70.424	-158.2383
850.000000	70.464	-157.4541
862.000000	70.507	-156.6693
875.000000	70.562	-155.8545
885.000000	70.616	-155.1502
900.000000	70.720	-154.0800
912.000000	70.846	-153.3643
925.000000	70.992	-153.0410
938.000000	71.070	-152.9799
950.000000	71.094	-152.7060
962.000000	71.119	-152.2343
975.000000	71.170	-151.6145
988.000000	71.244	-150.9882
1000.000000	71.317	-150.4243
1015.000000	71.396	-149.7048
1030.000000	71.483	-149.0970
1044.000000	71.576	-148.6203
1060.000000	71.695	-148.1384
1075.000000	71.803	-147.7295
1090.000000	71.921	-147.3414
1106.000000	72.052	-146.9637
1120.000000	72.159	-146.6732
1138.000000	72.295	-146.3423
1150.000000	72.388	-146.1615
1172.000000	72.561	-145.9454
1180.000000	72.624	-145.8914
1206.000000	72.818	-145.7393
1220.000000	72.918	-145.7007
1241.000000	73.063	-145.6183
1250.000000	73.125	-145.5968
1265.000000	73.228	-145.6105
1280.000000	73.325	-145.6547
1315.000000	73.532	-145.7743
1320.000000	73.560	-145.7990
1340.000000	73.661	-145.8964
1360.000000	73.752	-145.9819
1380.000000	73.845	-146.0380
1400.000000	73.939	-146.0787
1430.000000	74.071	-146.1916
1450.000000	74.155	-146.2744
1475.000000	74.262	-146.3442
1500.000000	74.364	-146.4092
1525.000000	74.461	-146.4693
1550.000000	74.557	-146.5203
1575.000000	74.655	-146.5681
1600.000000	74.753	-146.5888
1625.000000	74.845	-146.5935
1650.000000	74.938	-146.6086
1675.000000	75.034	-146.6263
1700.000000	75.130	-146.6683
1725.000000	75.223	-146.7238
1750.000000	75.311	-146.7808
1775.000000	75.400	-146.8249
1800.000000	75.490	-146.8741
1825.000000	75.582	-146.9451
1850.000000	75.675	-147.0049
1875.000000	75.768	-147.0654
1900.000000	75.862	-147.1490
1925.000000	75.954	-147.2576
1950.000000	76.041	-147.3816
1975.000000	76.129	-147.5079
2000.000000	76.222	-147.6468
2030.000000	76.332	-147.8310
2060.000000	76.440	-148.0342
2090.000000	76.548	-148.2523
2120.000000	76.656	-148.4880
2140.000000	76.726	-148.6616
2180.000000	76.865	-149.0294
2200.000000	76.933	-149.2244
2240.000000	77.067	-149.6449
2270.000000	77.168	-149.9882
2300.000000	77.267	-150.3581
2330.000000	77.363	-150.7474
2360.000000	77.456	-151.1497
2400.000000	77.575	-151.6854
2430.000000	77.662	-152.0918
2470.000000	77.780	-152.6586
2500.000000	77.868	-153.1065
2540.000000	77.983	-153.7543
2580.000000	78.093	-154.4358
2620.000000	78.198	-155.1533
2650.000000	78.275	-155.7148
2690.000000	78.370	-156.4803
2720.000000	78.435	-157.0707
2760.000000	78.518	-157.8722
2800.000000	78.599	-158.6804
2850.000000	78.690	-159.6901
2900.000000	78.771	-160.7089
2950.000000	78.843	-161.7299
3000.000000	78.912	-162.7745
3040.000000	78.963	-163.6278
3070.000000	78.998	-164.2724
3110.000000	79.042	-165.1408
3150.000000	79.082	-166.0050
3200.000000	79.127	-167.0793
3250.000000	79.163	-168.1586
3300.000000	79.192	-169.2548
3350.000000	79.216	-170.3573
3400.000000	79.235	-171.4497
3450.000000	79.254	-172.5426
3500.000000	79.272	-173.6368
3550.000000	79.285	-174.7328
3600.000000	79.293	-175.8330
3650.000000	79.294	-176.9281
3700.000000	79.285	-178.0179
3750.000000	79.269	-179.1047
3820.000000	79.231	179.4166
3870.000000	79.194	178.3884
3950.000000	79.118	176.8261
4000.000000	79.069	175.8994
4060.000000	79.013	174.7968
4120.000000	78.953	173.6564
4180.000000	78.883	172.4756
4250.000000	78.786	171.0721
4310.000000	78.685	169.8950
4370.000000	78.562	168.7443
4440.000000	78.396	167.4510
4500.000000	78.241	166.3920
4550.000000	78.105	165.5388
4620.000000	77.905	164.4283
4680.000000	77.723	163.5643
4750.000000	77.499	162.6592
4820.000000	77.269	161.8698
4870.000000	77.102	161.3756
4940.000000	76.862	160.7734
5000.000000	76.654	160.3436
5080.000000	76.379	159.8870
5150.000000	76.141	159.5723
5220.000000	75.902	159.3237
5300.000000	75.627	159.1469
5380.000000	75.353	159.0991
5450.000000	75.119	159.1832
5520.000000	74.888	159.3729
5600.000000	74.631	159.7165
5700.000000	74.332	160.3105
5800.000000	74.054	161.0275
5900.000000	73.789	161.9230
6000.000000	73.547	163.0187
6080.000000	73.375	164.0099
6150.000000	73.249	164.9552
6220.000000	73.147	165.9688
6300.000000	73.063	167.1576
6400.000000	72.998	168.6160
6500.000000	72.980	170.0056
6600.000000	73.005	171.3275
6700.000000	73.068	172.5437
6800.000000	73.173	173.6117
6900.000000	73.333	174.5410
7000.000000	73.552	175.3416
7100.000000	73.821	175.9666
7200.000000	74.144	176.3544
7300.000000	74.530	176.4193
7400.000000	74.981	175.9744
7500.000000	75.485	174.8112
7620.000000	76.141	172.1969
7750.000000	76.827	167.4727
7880.000000	77.297	160.6298
8000.000000	77.431	152.7734
8120.000000	77.217	144.2461
8250.000000	76.581	135.4780
8380.000000	75.601	128.2671
8500.000000	74.501	123.4238
8620.000000	73.310	120.2709
8750.000000	72.001	118.5277
8850.000000	71.016	118.1629
9000.000000	69.617	118.8382
9120.000000	68.577	120.1951
9250.000000	67.533	122.2552
9380.000000	66.569	124.8019
9500.000000	65.742	127.5165
9620.000000	64.969	130.4672
9750.000000	64.201	133.9562
9880.000000	63.509	137.7113
10000.000000	62.918	141.3549
10150.000000	62.236	146.0824
10300.000000	61.605	151.0259
10440.000000	61.077	155.9388
10600.000000	60.549	162.0043
10750.000000	60.109	168.0459
10900.000000	59.728	174.5159
11060.000000	59.458	-177.9256
11200.000000	59.395	-170.8012
11380.000000	59.620	-161.5159
11500.000000	59.989	-155.7328
11720.000000	60.970	-147.0855
11800.000000	61.368	-144.7302
12060.000000	62.579	-139.7186
12200.000000	63.127	-138.0304
12410.000000	63.824	-135.9077
12500.000000	64.100	-135.0141
12650.000000	64.570	-133.4378
12800.000000	65.092	-131.8124
13150.000000	66.662	-128.7135
13200.000000	66.936	-128.4700
13400.000000	68.174	-128.4367
13600.000000	69.613	-130.6329
13800.000000	71.106	-136.3438
14000.000000	72.332	-146.5367
14300.000000	72.932	-167.8141
14500.000000	72.380	178.6844
14750.000000	71.010	166.7454
15000.000000	69.444	160.1131
15250.000000	68.075	156.7446
15500.000000	67.051	154.7860
15750.000000	66.326	152.9214
16000.000000	65.745	150.2944
16250.000000	65.161	146.5821
16500.000000	64.429	141.9785
16750.000000	63.450	137.3797
17000.000000	62.210	133.8466
17250.000000	60.775	131.9672
17500.000000	59.271	131.8781
17750.000000	57.772	133.4645
18000.000000	56.258	137.0239
18250.000000	54.816	143.1024
18500.000000	53.657	150.9769
18750.000000	52.879	159.6655
19000.000000	52.442	168.5504
19250.000000	52.285	176.9314
19500.000000	52.387	-175.9346
19750.000000	52.679	-170.9090
20000.000000	52.939	-168.3749
