* Measurement data measured by REW V5.20.13
* Source: EXCL: Mic in at rear panel (Pink)(Realtek(R) Audio), MICROPHONE (마스), L, volume: 0.500
* Format: 256k Log Swept Sine, 1 sweep at -12.0 dBFS with no timing reference
* Dated: 2022. 10. 1 오후 4:15:28
* REW Settings:
*  C-weighting compensation: Off
*  Target level: 75.0 dB
* Note: 
* Measurement: R_Final
* Smoothing: 1/24 octave
* Frequency Step: 1/48 octave
* Start Frequency: 20.300 Hz
*
* Freq(Hz)	SPL(dB)	Phase(degrees)
20.299999	74.963	-137.4156
20.600000	74.978	-137.6543
20.900000	75.014	-138.0640
21.200001	75.061	-138.4285
21.400000	75.100	-138.6954
21.799999	75.183	-139.3829
22.000000	75.221	-139.8230
22.400000	75.275	-140.8399
22.700001	75.294	-141.6274
23.000000	75.301	-142.3582
23.299999	75.306	-143.0127
23.600000	75.317	-143.6142
24.000000	75.346	-144.3971
24.299999	75.373	-145.0089
24.700001	75.407	-145.8495
25.000000	75.426	-146.4533
25.400000	75.445	-147.1557
25.799999	75.469	-147.7120
26.200001	75.508	-148.1632
26.500000	75.547	-148.4800
26.900000	75.607	-148.9238
27.200001	75.653	-149.2920
27.600000	75.711	-149.8339
28.000000	75.760	-150.4205
28.500000	75.803	-151.1754
29.000000	75.826	-151.8926
29.500000	75.838	-152.5338
30.000000	75.850	-153.1253
30.400000	75.862	-153.6085
30.700001	75.870	-153.9925
31.100000	75.876	-154.5273
31.500000	75.875	-155.0621
32.000000	75.867	-155.6826
32.500000	75.860	-156.2236
33.000000	75.866	-156.7065
33.500000	75.893	-157.1975
34.000000	75.934	-157.7885
34.500000	75.969	-158.5227
35.000000	75.979	-159.3248
35.500000	75.962	-160.0203
36.000000	75.939	-160.4966
36.500000	75.938	-160.8191
37.000000	75.961	-161.1700
37.500000	75.989	-161.6510
38.200001	76.005	-162.4187
38.700001	76.003	-162.9029
39.500000	76.009	-163.6057
40.000000	76.016	-164.0800
40.599998	76.017	-164.6620
41.200001	76.013	-165.2006
41.799999	76.009	-165.6937
42.500000	76.007	-166.1940
43.099998	76.018	-166.5437
43.700001	76.051	-166.9466
44.400002	76.086	-167.6665
45.000000	76.076	-168.3943
45.500000	76.039	-168.8630
46.200001	75.986	-169.1818
46.799999	75.975	-169.3177
47.500000	75.995	-169.6227
48.200001	76.011	-170.1288
48.700001	76.010	-170.5262
49.400002	75.999	-171.0099
50.000000	75.996	-171.3502
50.799999	76.010	-171.8664
51.500000	76.012	-172.4437
52.200001	75.990	-172.9496
53.000000	75.969	-173.3156
53.799999	75.972	-173.6841
54.500000	75.973	-174.1138
55.200001	75.962	-174.5886
56.000000	75.926	-175.1042
57.000000	75.868	-175.4448
58.000000	75.868	-175.6231
59.000000	75.883	-176.1332
60.000000	75.870	-176.6365
60.799999	75.869	-177.0396
61.500000	75.859	-177.4986
62.200001	75.824	-177.9262
63.000000	75.771	-178.2116
64.000000	75.733	-178.3613
65.000000	75.737	-178.6727
66.000000	75.727	-179.3030
67.000000	75.677	-179.9250
68.000000	75.629	179.6154
69.000000	75.598	179.1219
70.000000	75.557	178.6065
71.000000	75.512	178.2629
72.000000	75.489	178.0211
73.000000	75.473	177.7373
74.000000	75.452	177.4747
75.000000	75.433	177.1556
76.199997	75.383	176.6595
77.500000	75.312	176.1683
78.800003	75.243	175.6556
80.000000	75.205	175.3324
81.199997	75.235	174.8419
82.500000	75.231	173.9372
83.800003	75.160	173.5169
85.000000	75.100	173.5778
86.199997	75.052	173.7930
87.500000	74.997	173.9666
88.500000	74.958	174.0363
90.000000	74.902	173.7565
91.199997	74.844	173.5966
92.500000	74.862	173.3937
93.800003	74.858	172.5206
95.000000	74.725	172.0234
96.199997	74.593	172.3927
97.500000	74.555	173.0646
98.800003	74.595	173.2961
100.000000	74.629	173.0916
101.500000	74.641	172.6437
103.000000	74.598	172.1499
104.400002	74.517	171.9033
106.000000	74.446	171.5712
107.500000	74.378	170.9146
109.000000	74.301	170.4465
110.599998	74.258	170.4831
112.000000	74.229	170.7442
113.800003	74.116	171.1343
115.000000	74.002	171.1394
117.199997	73.781	169.6790
118.000000	73.687	168.6927
120.599998	73.361	168.7976
122.000000	73.605	170.7957
124.099998	74.066	172.0731
125.000000	74.178	172.3501
126.500000	74.276	172.5962
128.000000	74.301	172.4102
131.500000	74.272	171.1535
132.000000	74.269	171.0013
134.000000	74.246	170.5511
136.000000	74.203	170.1809
138.000000	74.156	169.6479
140.000000	74.113	169.1107
143.000000	74.075	168.6324
145.000000	74.026	168.3627
147.500000	73.948	168.0134
150.000000	73.873	167.6708
152.500000	73.807	167.5232
155.000000	73.751	167.3910
157.500000	73.692	167.2575
160.000000	73.635	167.1937
162.500000	73.577	167.1264
165.000000	73.516	167.0107
167.500000	73.463	166.9130
170.000000	73.410	166.7943
172.500000	73.344	166.7336
175.000000	73.285	166.7387
177.500000	73.234	166.7378
180.000000	73.179	166.6802
182.500000	73.120	166.6066
185.000000	73.068	166.5849
187.500000	73.023	166.5841
190.000000	72.971	166.5323
192.500000	72.909	166.4985
195.000000	72.864	166.5642
197.500000	72.834	166.6334
200.000000	72.794	166.6785
203.000000	72.734	166.7175
206.000000	72.675	166.7111
209.000000	72.620	166.7120
212.000000	72.573	166.7340
214.000000	72.546	166.7642
218.000000	72.490	166.8933
220.000000	72.459	166.9684
224.000000	72.387	167.0878
227.000000	72.338	167.1479
230.000000	72.293	167.1638
233.000000	72.251	167.2706
236.000000	72.217	167.4119
240.000000	72.158	167.5679
243.000000	72.111	167.6966
247.000000	72.047	167.8315
250.000000	72.002	167.9427
254.000000	71.955	168.1388
258.000000	71.901	168.3194
262.000000	71.844	168.4679
265.000000	71.810	168.6088
269.000000	71.770	168.8386
272.000000	71.739	168.9684
276.000000	71.686	169.1161
280.000000	71.636	169.2894
285.000000	71.592	169.5397
290.000000	71.546	169.8853
295.000000	71.506	170.1571
300.000000	71.465	170.3682
304.000000	71.417	170.5130
307.000000	71.382	170.6606
311.000000	71.345	170.9147
315.000000	71.311	171.1178
320.000000	71.275	171.3400
325.000000	71.242	171.6482
330.000000	71.206	171.9226
335.000000	71.174	172.1771
340.000000	71.138	172.4789
345.000000	71.103	172.8308
350.000000	71.062	173.1225
355.000000	71.023	173.3606
360.000000	70.988	173.5970
365.000000	70.948	173.9223
370.000000	70.910	174.2545
375.000000	70.878	174.5142
382.000000	70.839	174.9030
387.000000	70.806	175.1798
395.000000	70.734	175.6739
400.000000	70.699	175.9826
406.000000	70.674	176.3345
412.000000	70.649	176.7391
418.000000	70.618	177.1406
425.000000	70.583	177.5305
431.000000	70.549	177.8164
437.000000	70.519	178.1270
444.000000	70.493	178.5521
450.000000	70.474	178.9661
455.000000	70.454	179.3364
462.000000	70.424	179.7996
468.000000	70.400	-179.9157
475.000000	70.365	-179.5247
482.000000	70.330	-179.0988
487.000000	70.319	-178.8057
494.000000	70.314	-178.3955
500.000000	70.309	-178.0444
508.000000	70.296	-177.5599
515.000000	70.273	-177.1144
522.000000	70.247	-176.6451
530.000000	70.221	-176.1532
538.000000	70.202	-175.7079
545.000000	70.188	-175.2976
552.000000	70.178	-174.8885
560.000000	70.171	-174.3835
570.000000	70.155	-173.7536
580.000000	70.139	-173.1352
590.000000	70.126	-172.5181
600.000000	70.119	-171.9453
608.000000	70.108	-171.4598
615.000000	70.097	-170.9959
622.000000	70.088	-170.5307
630.000000	70.076	-170.0442
640.000000	70.065	-169.4058
650.000000	70.062	-168.7634
660.000000	70.057	-168.1348
670.000000	70.055	-167.5684
680.000000	70.058	-166.9477
690.000000	70.066	-166.2591
700.000000	70.070	-165.5939
710.000000	70.070	-164.9389
720.000000	70.067	-164.2553
730.000000	70.069	-163.6155
740.000000	70.085	-163.0462
750.000000	70.103	-162.4698
762.000000	70.112	-161.6705
775.000000	70.123	-160.7891
788.000000	70.151	-159.9634
800.000000	70.179	-159.1528
812.000000	70.209	-158.3508
825.000000	70.249	-157.5135
838.000000	70.291	-156.6485
850.000000	70.332	-155.8600
862.000000	70.374	-155.1117
875.000000	70.430	-154.2830
885.000000	70.485	-153.6294
900.000000	70.591	-152.5278
912.000000	70.712	-151.7498
925.000000	70.861	-151.4172
938.000000	70.945	-151.3585
950.000000	70.972	-151.1089
962.000000	70.995	-150.6396
975.000000	71.031	-150.0067
988.000000	71.075	-149.3255
1000.000000	71.125	-148.7643
1015.000000	71.224	-148.1483
1030.000000	71.334	-147.5132
1044.000000	71.430	-146.9587
1060.000000	71.543	-146.4263
1075.000000	71.649	-146.0024
1090.000000	71.756	-145.5795
1106.000000	71.878	-145.1300
1120.000000	71.988	-144.7984
1138.000000	72.132	-144.4447
1150.000000	72.227	-144.2461
1172.000000	72.409	-143.9640
1180.000000	72.478	-143.8744
1206.000000	72.690	-143.6586
1220.000000	72.793	-143.5950
1241.000000	72.943	-143.5569
1250.000000	73.005	-143.5564
1265.000000	73.105	-143.5626
1280.000000	73.200	-143.5923
1315.000000	73.404	-143.7638
1320.000000	73.430	-143.7850
1340.000000	73.530	-143.8573
1360.000000	73.620	-143.9106
1380.000000	73.710	-143.9615
1400.000000	73.800	-144.0308
1430.000000	73.933	-144.1232
1450.000000	74.019	-144.1843
1475.000000	74.119	-144.2622
1500.000000	74.217	-144.3219
1525.000000	74.318	-144.3752
1550.000000	74.416	-144.4309
1575.000000	74.511	-144.4448
1600.000000	74.600	-144.4850
1625.000000	74.685	-144.5182
1650.000000	74.772	-144.5311
1675.000000	74.858	-144.5675
1700.000000	74.945	-144.6035
1725.000000	75.028	-144.6502
1750.000000	75.108	-144.7140
1775.000000	75.188	-144.7794
1800.000000	75.266	-144.8428
1825.000000	75.341	-144.9060
1850.000000	75.417	-144.9855
1875.000000	75.492	-145.0764
1900.000000	75.566	-145.1838
1925.000000	75.634	-145.3123
1950.000000	75.699	-145.4296
1975.000000	75.762	-145.5266
2000.000000	75.824	-145.6367
2030.000000	75.895	-145.8076
2060.000000	75.962	-145.9740
2090.000000	76.020	-146.1219
2120.000000	76.074	-146.2548
2140.000000	76.109	-146.3259
2180.000000	76.177	-146.3952
2200.000000	76.213	-146.4087
2240.000000	76.277	-146.3930
2270.000000	76.317	-146.3885
2300.000000	76.350	-146.3526
2330.000000	76.373	-146.2118
2360.000000	76.393	-145.9008
2400.000000	76.443	-145.1326
2430.000000	76.526	-144.3345
2470.000000	76.728	-143.2695
2500.000000	76.937	-142.7182
2540.000000	77.247	-142.4699
2580.000000	77.554	-142.7212
2620.000000	77.836	-143.3724
2650.000000	78.027	-144.0521
2690.000000	78.249	-145.1410
2720.000000	78.392	-146.0487
2760.000000	78.547	-147.3213
2800.000000	78.664	-148.5934
2850.000000	78.765	-150.1002
2900.000000	78.828	-151.4590
2950.000000	78.869	-152.6003
3000.000000	78.905	-153.5232
3040.000000	78.940	-154.1135
3070.000000	78.975	-154.4993
3110.000000	79.035	-154.9846
3150.000000	79.112	-155.5080
3200.000000	79.223	-156.3013
3250.000000	79.333	-157.2198
3300.000000	79.433	-158.2215
3350.000000	79.524	-159.2839
3400.000000	79.610	-160.4038
3450.000000	79.691	-161.6082
3500.000000	79.764	-162.8908
3550.000000	79.822	-164.2087
3600.000000	79.861	-165.5134
3650.000000	79.880	-166.7759
3700.000000	79.887	-167.9564
3750.000000	79.892	-169.0489
3820.000000	79.907	-170.4848
3870.000000	79.921	-171.5222
3950.000000	79.947	-173.2976
4000.000000	79.959	-174.5138
4060.000000	79.958	-176.0830
4120.000000	79.936	-177.7290
4180.000000	79.891	-179.4328
4250.000000	79.805	178.5253
4310.000000	79.698	176.7996
4370.000000	79.558	175.1457
4440.000000	79.363	173.3253
4500.000000	79.177	171.8453
4550.000000	79.011	170.6689
4620.000000	78.760	169.1194
4680.000000	78.527	167.8787
4750.000000	78.236	166.5618
4820.000000	77.926	165.4399
4870.000000	77.695	164.7568
4940.000000	77.360	163.9678
5000.000000	77.065	163.4579
5080.000000	76.670	163.0071
5150.000000	76.331	162.8005
5220.000000	75.995	162.7710
5300.000000	75.614	162.9467
5380.000000	75.243	163.3513
5450.000000	74.930	163.8910
5520.000000	74.631	164.5920
5600.000000	74.310	165.5244
5700.000000	73.947	166.8920
5800.000000	73.622	168.4557
5900.000000	73.339	170.1823
6000.000000	73.096	172.0470
6080.000000	72.928	173.5780
6150.000000	72.807	174.9564
6220.000000	72.711	176.3878
6300.000000	72.632	178.0408
6400.000000	72.576	-179.8817
6500.000000	72.567	-177.8293
6600.000000	72.610	-175.8367
6700.000000	72.702	-173.9369
6800.000000	72.851	-172.1768
6900.000000	73.073	-170.5817
7000.000000	73.368	-169.1984
7100.000000	73.727	-168.1238
7200.000000	74.144	-167.4310
7300.000000	74.617	-167.2334
7400.000000	75.143	-167.6868
7500.000000	75.705	-168.9441
7620.000000	76.400	-171.7113
7750.000000	77.089	-176.5356
7880.000000	77.526	176.7099
8000.000000	77.617	169.1788
8120.000000	77.363	161.2250
8250.000000	76.706	153.3079
8380.000000	75.737	147.0821
8500.000000	74.678	143.1670
8620.000000	73.557	140.9131
8750.000000	72.343	140.0890
8850.000000	71.443	140.3992
9000.000000	70.192	142.0480
9120.000000	69.298	144.1053
9250.000000	68.426	146.8317
9380.000000	67.642	149.9246
9500.000000	66.989	153.0176
9620.000000	66.399	156.3057
9750.000000	65.839	160.0757
9880.000000	65.353	164.0675
10000.000000	64.956	167.9295
10150.000000	64.527	172.9439
10300.000000	64.188	178.1631
10440.000000	63.958	-176.8269
10600.000000	63.784	-170.8583
10750.000000	63.731	-164.9639
10900.000000	63.816	-158.7644
11060.000000	64.121	-151.9119
11200.000000	64.628	-145.8863
11380.000000	65.681	-138.7337
11500.000000	66.642	-134.9597
11720.000000	68.797	-131.9079
11800.000000	69.630	-132.4176
12060.000000	72.095	-140.8304
12200.000000	73.037	-149.4846
12410.000000	73.604	-166.2105
12500.000000	73.492	-173.7769
12650.000000	72.860	174.6958
12800.000000	71.788	165.7433
13150.000000	68.594	156.0740
13200.000000	68.142	155.7178
13400.000000	66.460	155.9453
13600.000000	65.032	158.0264
13800.000000	63.854	161.2026
14000.000000	62.925	165.0606
14300.000000	61.918	171.4942
14500.000000	61.478	175.8373
14750.000000	61.179	-178.8185
15000.000000	61.144	-173.8634
15250.000000	61.418	-169.6741
15500.000000	62.091	-166.8527
15750.000000	63.175	-166.5611
16000.000000	64.500	-170.6313
16250.000000	65.640	178.7969
16500.000000	65.941	161.8427
16750.000000	65.009	143.7862
17000.000000	63.023	130.7124
17250.000000	60.531	123.9459
17500.000000	58.042	121.6360
17750.000000	55.739	121.7900
18000.000000	53.511	123.8474
18250.000000	51.280	128.4146
18500.000000	49.218	135.3914
18750.000000	47.432	143.6790
19000.000000	45.891	152.7721
19250.000000	44.585	163.1654
19500.000000	43.514	174.8915
19750.000000	42.653	-173.9224
20000.000000	42.064	-167.0104
