* Measurement data measured by REW V5.20.5
* Source: ??? (Realtek(R) Audio), MICROPHONE (Master Volume), L, volume: 0.250
* Format: 128k Log Swept Sine, 4 sweeps at -12.0 dBFS with no timing reference
* Dated: 01-Apr-2022 03:17:36
* REW Settings:
*  C-weighting compensation: Off
*  Target level: 75.0 dB
* Note: 
* Measurement: Aria (2021) R
* Smoothing: 1/24 octave
* Frequency Step: 1/48 octave
* Start Frequency: 20.300 Hz
*
* Freq(Hz)	SPL(dB)	Phase(degrees)
20.299999	75.409
20.600000	75.439
20.900000	75.496
21.200001	75.547
21.400000	75.577
21.799999	75.635
22.000000	75.663
22.400000	75.714
22.700001	75.748
23.000000	75.781
23.299999	75.813
23.600000	75.846
24.000000	75.894
24.299999	75.931
24.700001	75.980
25.000000	76.016
25.400000	76.064
25.799999	76.113
26.200001	76.163
26.500000	76.200
26.900000	76.247
27.200001	76.277
27.600000	76.312
28.000000	76.342
28.500000	76.374
29.000000	76.404
29.500000	76.430
30.000000	76.453
30.400000	76.471
30.700001	76.485
31.100000	76.503
31.500000	76.519
32.000000	76.536
32.500000	76.550
33.000000	76.565
33.500000	76.585
34.000000	76.609
34.500000	76.635
35.000000	76.658
35.500000	76.678
36.000000	76.696
36.500000	76.712
37.000000	76.725
37.500000	76.737
38.200001	76.749
38.700001	76.755
39.500000	76.761
40.000000	76.763
40.599998	76.765
41.200001	76.766
41.799999	76.766
42.500000	76.765
43.099998	76.765
43.700001	76.766
44.400002	76.768
45.000000	76.767
45.500000	76.765
46.200001	76.758
46.799999	76.751
47.500000	76.743
48.200001	76.736
48.700001	76.734
49.400002	76.733
50.000000	76.732
50.799999	76.726
51.500000	76.714
52.200001	76.699
53.000000	76.680
53.799999	76.662
54.500000	76.646
55.200001	76.629
56.000000	76.609
57.000000	76.589
58.000000	76.572
59.000000	76.559
60.000000	76.538
60.799999	76.510
61.500000	76.486
62.200001	76.463
63.000000	76.430
64.000000	76.376
65.000000	76.291
66.000000	76.217
67.000000	76.232
68.000000	76.262
69.000000	76.280
70.000000	76.299
71.000000	76.241
72.000000	76.160
73.000000	76.115
74.000000	76.089
75.000000	76.094
76.199997	76.093
77.500000	76.039
78.800003	75.989
80.000000	75.952
81.199997	75.912
82.500000	75.872
83.800003	75.832
85.000000	75.791
86.199997	75.749
87.500000	75.703
88.500000	75.666
90.000000	75.609
91.199997	75.567
92.500000	75.522
93.800003	75.478
95.000000	75.438
96.199997	75.396
97.500000	75.350
98.800003	75.304
100.000000	75.262
101.500000	75.209
103.000000	75.156
104.400002	75.107
106.000000	75.050
107.500000	74.995
109.000000	74.940
110.599998	74.886
112.000000	74.837
113.800003	74.771
115.000000	74.725
117.199997	74.642
118.000000	74.612
120.599998	74.514
122.000000	74.453
124.099998	74.359
125.000000	74.320
126.500000	74.258
128.000000	74.201
131.500000	74.061
132.000000	74.038
134.000000	73.950
136.000000	73.875
138.000000	73.824
140.000000	73.789
143.000000	73.734
145.000000	73.719
147.500000	73.750
150.000000	73.803
152.500000	73.853
155.000000	73.856
157.500000	73.833
160.000000	73.786
162.500000	73.707
165.000000	73.641
167.500000	73.583
170.000000	73.517
172.500000	73.448
175.000000	73.381
177.500000	73.313
180.000000	73.249
182.500000	73.193
185.000000	73.137
187.500000	73.078
190.000000	73.017
192.500000	72.960
195.000000	72.908
197.500000	72.854
200.000000	72.797
203.000000	72.727
206.000000	72.662
209.000000	72.596
212.000000	72.535
214.000000	72.501
218.000000	72.434
220.000000	72.400
224.000000	72.331
227.000000	72.290
230.000000	72.250
233.000000	72.206
236.000000	72.159
240.000000	72.091
243.000000	72.043
247.000000	71.983
250.000000	71.938
254.000000	71.879
258.000000	71.826
262.000000	71.777
265.000000	71.742
269.000000	71.695
272.000000	71.660
276.000000	71.613
280.000000	71.566
285.000000	71.506
290.000000	71.448
295.000000	71.389
300.000000	71.333
304.000000	71.290
307.000000	71.259
311.000000	71.219
315.000000	71.179
320.000000	71.130
325.000000	71.085
330.000000	71.037
335.000000	70.991
340.000000	70.948
345.000000	70.905
350.000000	70.860
355.000000	70.818
360.000000	70.778
365.000000	70.740
370.000000	70.703
375.000000	70.665
382.000000	70.613
387.000000	70.580
395.000000	70.530
400.000000	70.498
406.000000	70.462
412.000000	70.426
418.000000	70.392
425.000000	70.354
431.000000	70.325
437.000000	70.297
444.000000	70.264
450.000000	70.235
455.000000	70.212
462.000000	70.183
468.000000	70.159
475.000000	70.132
482.000000	70.107
487.000000	70.090
494.000000	70.069
500.000000	70.050
508.000000	70.026
515.000000	70.005
522.000000	69.986
530.000000	69.967
538.000000	69.947
545.000000	69.928
552.000000	69.908
560.000000	69.887
570.000000	69.865
580.000000	69.844
590.000000	69.824
600.000000	69.803
608.000000	69.791
615.000000	69.781
622.000000	69.771
630.000000	69.761
640.000000	69.751
650.000000	69.742
660.000000	69.734
670.000000	69.729
680.000000	69.725
690.000000	69.724
700.000000	69.726
710.000000	69.729
720.000000	69.733
730.000000	69.738
740.000000	69.746
750.000000	69.757
762.000000	69.771
775.000000	69.788
788.000000	69.811
800.000000	69.836
812.000000	69.864
825.000000	69.898
838.000000	69.934
850.000000	69.971
862.000000	70.010
875.000000	70.057
885.000000	70.094
900.000000	70.155
912.000000	70.208
925.000000	70.270
938.000000	70.336
950.000000	70.399
962.000000	70.463
975.000000	70.532
988.000000	70.601
1000.000000	70.666
1015.000000	70.754
1030.000000	70.863
1044.000000	70.981
1060.000000	71.113
1075.000000	71.226
1090.000000	71.329
1106.000000	71.436
1120.000000	71.528
1138.000000	71.646
1150.000000	71.723
1172.000000	71.862
1180.000000	71.911
1206.000000	72.073
1220.000000	72.165
1241.000000	72.310
1250.000000	72.372
1265.000000	72.476
1280.000000	72.577
1315.000000	72.803
1320.000000	72.833
1340.000000	72.953
1360.000000	73.074
1380.000000	73.196
1400.000000	73.317
1430.000000	73.491
1450.000000	73.602
1475.000000	73.736
1500.000000	73.865
1525.000000	73.985
1550.000000	74.091
1575.000000	74.191
1600.000000	74.288
1625.000000	74.383
1650.000000	74.478
1675.000000	74.572
1700.000000	74.666
1725.000000	74.762
1750.000000	74.860
1775.000000	74.957
1800.000000	75.054
1825.000000	75.151
1850.000000	75.248
1875.000000	75.344
1900.000000	75.440
1925.000000	75.535
1950.000000	75.630
1975.000000	75.724
2000.000000	75.818
2030.000000	75.928
2060.000000	76.037
2090.000000	76.146
2120.000000	76.253
2140.000000	76.322
2180.000000	76.459
2200.000000	76.526
2240.000000	76.658
2270.000000	76.753
2300.000000	76.845
2330.000000	76.935
2360.000000	77.022
2400.000000	77.134
2430.000000	77.216
2470.000000	77.322
2500.000000	77.398
2540.000000	77.492
2580.000000	77.581
2620.000000	77.662
2650.000000	77.718
2690.000000	77.786
2720.000000	77.832
2760.000000	77.886
2800.000000	77.931
2850.000000	77.977
2900.000000	78.009
2950.000000	78.029
3000.000000	78.036
3040.000000	78.033
3070.000000	78.026
3110.000000	78.010
3150.000000	77.988
3200.000000	77.951
3250.000000	77.905
3300.000000	77.849
3350.000000	77.786
3400.000000	77.717
3450.000000	77.643
3500.000000	77.565
3550.000000	77.484
3600.000000	77.403
3650.000000	77.320
3700.000000	77.237
3750.000000	77.155
3820.000000	77.044
3870.000000	76.970
3950.000000	76.862
4000.000000	76.795
4060.000000	76.716
4120.000000	76.639
4180.000000	76.562
4250.000000	76.471
4310.000000	76.392
4370.000000	76.313
4440.000000	76.222
4500.000000	76.146
4550.000000	76.080
4620.000000	75.983
4680.000000	75.893
4750.000000	75.780
4820.000000	75.655
4870.000000	75.556
4940.000000	75.401
5000.000000	75.258
5080.000000	75.053
5150.000000	74.864
5220.000000	74.666
5300.000000	74.428
5380.000000	74.177
5450.000000	73.946
5520.000000	73.704
5600.000000	73.420
5700.000000	73.065
5800.000000	72.732
5900.000000	72.431
6000.000000	72.137
6080.000000	71.901
6150.000000	71.698
6220.000000	71.502
6300.000000	71.289
6400.000000	71.042
6500.000000	70.823
6600.000000	70.635
6700.000000	70.477
6800.000000	70.353
6900.000000	70.269
7000.000000	70.225
7100.000000	70.223
7200.000000	70.260
7300.000000	70.332
7400.000000	70.437
7500.000000	70.572
7620.000000	70.775
7750.000000	71.035
7880.000000	71.342
8000.000000	71.683
8120.000000	72.096
8250.000000	72.636
8380.000000	73.273
8500.000000	73.929
8620.000000	74.594
8750.000000	75.203
8850.000000	75.487
9000.000000	75.441
9120.000000	74.937
9250.000000	73.983
9380.000000	72.753
9500.000000	71.517
9620.000000	70.287
9750.000000	69.026
9880.000000	67.867
10000.000000	66.890
10150.000000	65.783
10300.000000	64.785
10440.000000	63.937
10600.000000	63.056
10750.000000	62.313
10900.000000	61.645
11060.000000	61.022
11200.000000	60.575
11380.000000	60.240
11500.000000	60.265
11720.000000	61.070
11800.000000	61.602
12060.000000	63.636
12200.000000	64.596
12410.000000	65.672
12500.000000	66.036
12650.000000	66.595
12800.000000	67.176
13150.000000	68.922
13200.000000	69.226
13400.000000	70.531
13600.000000	71.797
13800.000000	72.644
14000.000000	72.697
14300.000000	71.254
14500.000000	69.747
14750.000000	67.842
15000.000000	66.231
15250.000000	64.992
15500.000000	64.097
15750.000000	63.511
16000.000000	63.200
16250.000000	63.117
16500.000000	63.204
16750.000000	63.342
17000.000000	63.260
17250.000000	62.482
17500.000000	60.976
17750.000000	59.722
18000.000000	58.810
18250.000000	57.714
18500.000000	56.453
18750.000000	55.309
19000.000000	54.526
19250.000000	54.126
19500.000000	53.947
19750.000000	53.776
20000.000000	53.598
