* Measurement data measured by REW V5.20.13
* Source: EXCL: Mic in at rear panel (Pink)(Realtek(R) Audio), MICROPHONE (마스), L, volume: 0.500
* Format: 256k Log Swept Sine, 1 sweep at -12.0 dBFS with no timing reference
* Dated: 2022. 10. 1 오후 4:27:47
* REW Settings:
*  C-weighting compensation: Off
*  Target level: 75.0 dB
* Note: 
* Measurement: L_AEX70
* Smoothing: 1/24 octave
* Frequency Step: 1/48 octave
* Start Frequency: 20.300 Hz
*
* Freq(Hz)	SPL(dB)	Phase(degrees)
20.299999	75.075	-138.5451
20.600000	75.062	-138.8303
20.900000	75.044	-139.2770
21.200001	75.054	-139.5631
21.400000	75.076	-139.7379
21.799999	75.145	-140.2130
22.000000	75.182	-140.5569
22.400000	75.239	-141.4123
22.700001	75.263	-142.0984
23.000000	75.276	-142.7407
23.299999	75.287	-143.3181
23.600000	75.304	-143.8514
24.000000	75.338	-144.5485
24.299999	75.368	-145.0884
24.700001	75.407	-145.8133
25.000000	75.433	-146.3240
25.400000	75.469	-146.9305
25.799999	75.514	-147.4845
26.200001	75.567	-148.0625
26.500000	75.601	-148.5335
26.900000	75.628	-149.1728
27.200001	75.633	-149.5960
27.600000	75.629	-150.0081
28.000000	75.634	-150.2457
28.500000	75.675	-150.4795
29.000000	75.745	-150.9243
29.500000	75.804	-151.6725
30.000000	75.825	-152.5688
30.400000	75.817	-153.2536
30.700001	75.805	-153.7146
31.100000	75.788	-154.2695
31.500000	75.776	-154.7905
32.000000	75.768	-155.4454
32.500000	75.765	-156.1297
33.000000	75.764	-156.8308
33.500000	75.764	-157.5080
34.000000	75.769	-158.1257
34.500000	75.784	-158.7086
35.000000	75.804	-159.3210
35.500000	75.815	-159.9624
36.000000	75.808	-160.5082
36.500000	75.797	-160.8324
37.000000	75.812	-160.9821
37.500000	75.861	-161.1633
38.200001	75.935	-161.7208
38.700001	75.961	-162.2174
39.500000	75.988	-162.8336
40.000000	76.023	-163.2455
40.599998	76.061	-164.0128
41.200001	76.043	-164.9522
41.799999	75.969	-165.6343
42.500000	75.900	-165.8972
43.099998	75.906	-166.0933
43.700001	75.920	-166.6158
44.400002	75.876	-167.2996
45.000000	75.815	-167.4729
45.500000	75.807	-167.3963
46.200001	75.866	-167.5146
46.799999	75.916	-168.0690
47.500000	75.908	-168.8881
48.200001	75.850	-169.4241
48.700001	75.813	-169.5428
49.400002	75.813	-169.4963
50.000000	75.872	-169.6010
50.799999	75.961	-170.3249
51.500000	75.976	-171.1842
52.200001	75.958	-171.7772
53.000000	75.966	-172.2699
53.799999	75.979	-172.9345
54.500000	75.957	-173.5207
55.200001	75.918	-173.9677
56.000000	75.863	-174.3469
57.000000	75.797	-174.5583
58.000000	75.782	-174.7967
59.000000	75.760	-175.4304
60.000000	75.715	-175.9796
60.799999	75.708	-176.4392
61.500000	75.702	-176.9024
62.200001	75.702	-177.2685
63.000000	75.729	-177.6795
64.000000	75.736	-178.3756
65.000000	75.678	-178.6057
66.000000	75.672	-178.3940
67.000000	75.683	-178.6273
68.000000	75.602	-179.0373
69.000000	75.504	-179.1022
70.000000	75.461	-179.3718
71.000000	75.417	-179.9516
72.000000	75.395	179.5015
73.000000	75.411	178.8788
74.000000	75.442	178.2675
75.000000	75.476	177.6535
76.199997	75.460	177.0304
77.500000	75.396	176.8936
78.800003	75.341	176.8707
80.000000	75.280	176.7331
81.199997	75.236	176.4903
82.500000	75.216	175.9467
83.800003	75.183	175.1626
85.000000	75.109	174.6942
86.199997	75.063	174.7198
87.500000	75.072	174.6823
88.500000	75.068	174.4676
90.000000	75.043	174.1774
91.199997	75.031	173.8942
92.500000	75.010	173.4863
93.800003	74.960	173.1228
95.000000	74.900	173.0319
96.199997	74.860	173.0753
97.500000	74.832	173.0461
98.800003	74.810	172.9826
100.000000	74.816	172.8464
101.500000	74.821	172.3154
103.000000	74.764	171.7477
104.400002	74.685	171.4415
106.000000	74.595	171.2477
107.500000	74.527	171.0475
109.000000	74.478	170.8814
110.599998	74.468	170.7070
112.000000	74.464	170.4695
113.800003	74.425	170.2364
115.000000	74.378	170.1602
117.199997	74.257	169.9894
118.000000	74.199	169.9435
120.599998	74.074	170.0734
122.000000	74.062	169.9076
124.099998	74.017	169.4742
125.000000	73.989	169.3550
126.500000	73.938	169.2526
128.000000	73.881	169.2419
131.500000	73.730	169.6130
132.000000	73.712	169.7161
134.000000	73.667	170.1463
136.000000	73.667	170.4404
138.000000	73.682	170.5659
140.000000	73.692	170.7081
143.000000	73.695	171.0947
145.000000	73.704	171.2988
147.500000	73.727	171.2295
150.000000	73.758	170.7790
152.500000	73.759	170.2146
155.000000	73.725	169.8157
157.500000	73.687	169.4820
160.000000	73.663	169.0905
162.500000	73.641	168.7161
165.000000	73.601	168.5007
167.500000	73.550	168.3789
170.000000	73.507	168.1985
172.500000	73.461	167.9918
175.000000	73.403	167.8952
177.500000	73.340	167.8219
180.000000	73.282	167.6774
182.500000	73.236	167.5245
185.000000	73.190	167.4705
187.500000	73.139	167.5168
190.000000	73.087	167.4970
192.500000	73.037	167.3954
195.000000	72.989	167.2644
197.500000	72.936	167.2035
200.000000	72.891	167.2270
203.000000	72.851	167.2796
206.000000	72.806	167.3372
209.000000	72.752	167.4001
212.000000	72.700	167.4407
214.000000	72.665	167.4687
218.000000	72.590	167.5664
220.000000	72.556	167.5925
224.000000	72.500	167.6185
227.000000	72.460	167.6973
230.000000	72.422	167.7838
233.000000	72.397	167.8529
236.000000	72.379	167.9384
240.000000	72.329	168.0415
243.000000	72.262	168.1010
247.000000	72.173	168.2514
250.000000	72.123	168.4145
254.000000	72.073	168.6118
258.000000	72.029	168.7726
262.000000	71.982	168.9103
265.000000	71.946	169.0299
269.000000	71.897	169.1801
272.000000	71.858	169.2661
276.000000	71.809	169.4190
280.000000	71.769	169.6202
285.000000	71.735	169.8537
290.000000	71.687	170.0190
295.000000	71.629	170.2665
300.000000	71.589	170.5609
304.000000	71.559	170.8544
307.000000	71.534	171.0567
311.000000	71.498	171.2470
315.000000	71.457	171.3763
320.000000	71.408	171.5560
325.000000	71.382	171.8675
330.000000	71.360	172.1996
335.000000	71.327	172.4516
340.000000	71.292	172.6846
345.000000	71.250	172.9760
350.000000	71.204	173.2534
355.000000	71.158	173.4955
360.000000	71.117	173.7695
365.000000	71.091	174.0216
370.000000	71.062	174.2248
375.000000	71.028	174.4861
382.000000	70.978	174.9306
387.000000	70.939	175.2452
395.000000	70.895	175.6788
400.000000	70.873	175.9221
406.000000	70.844	176.2857
412.000000	70.807	176.6754
418.000000	70.760	177.0043
425.000000	70.723	177.3360
431.000000	70.701	177.7209
437.000000	70.680	178.1436
444.000000	70.650	178.5892
450.000000	70.624	178.9097
455.000000	70.601	179.1494
462.000000	70.569	179.5634
468.000000	70.541	179.9980
475.000000	70.514	-179.5325
482.000000	70.503	-179.1184
487.000000	70.488	-178.8318
494.000000	70.454	-178.4434
500.000000	70.431	-178.1320
508.000000	70.414	-177.7591
515.000000	70.393	-177.3736
522.000000	70.367	-176.9204
530.000000	70.353	-176.3844
538.000000	70.341	-175.8778
545.000000	70.324	-175.4281
552.000000	70.306	-174.9581
560.000000	70.291	-174.5188
570.000000	70.283	-173.9950
580.000000	70.262	-173.4381
590.000000	70.233	-172.8499
600.000000	70.220	-172.2537
608.000000	70.223	-171.7475
615.000000	70.215	-171.2691
622.000000	70.199	-170.7862
630.000000	70.188	-170.3086
640.000000	70.187	-169.7458
650.000000	70.189	-169.0698
660.000000	70.183	-168.3636
670.000000	70.175	-167.7722
680.000000	70.168	-167.2019
690.000000	70.157	-166.5956
700.000000	70.155	-166.0097
710.000000	70.163	-165.3802
720.000000	70.173	-164.6823
730.000000	70.179	-164.0220
740.000000	70.184	-163.3947
750.000000	70.190	-162.7562
762.000000	70.199	-161.9723
775.000000	70.214	-161.1783
788.000000	70.239	-160.3727
800.000000	70.267	-159.5368
812.000000	70.292	-158.6933
825.000000	70.328	-157.7854
838.000000	70.369	-156.9062
850.000000	70.398	-156.1343
862.000000	70.434	-155.3233
875.000000	70.495	-154.4070
885.000000	70.550	-153.6924
900.000000	70.657	-152.7758
912.000000	70.746	-152.2982
925.000000	70.808	-151.8026
938.000000	70.862	-151.1209
950.000000	70.920	-150.4648
962.000000	70.984	-149.8581
975.000000	71.056	-149.1768
988.000000	71.124	-148.4495
1000.000000	71.197	-147.8241
1015.000000	71.324	-147.1815
1030.000000	71.454	-146.5465
1044.000000	71.571	-145.9381
1060.000000	71.709	-145.3195
1075.000000	71.844	-144.8606
1090.000000	71.984	-144.4834
1106.000000	72.147	-144.1238
1120.000000	72.293	-143.8846
1138.000000	72.475	-143.6627
1150.000000	72.590	-143.5541
1172.000000	72.787	-143.5172
1180.000000	72.855	-143.5580
1206.000000	73.058	-143.7325
1220.000000	73.158	-143.8356
1241.000000	73.294	-144.0081
1250.000000	73.346	-144.0736
1265.000000	73.430	-144.1721
1280.000000	73.511	-144.2571
1315.000000	73.695	-144.4238
1320.000000	73.718	-144.4479
1340.000000	73.806	-144.5392
1360.000000	73.890	-144.5996
1380.000000	73.975	-144.6170
1400.000000	74.062	-144.6428
1430.000000	74.189	-144.7252
1450.000000	74.270	-144.7585
1475.000000	74.372	-144.8069
1500.000000	74.475	-144.8182
1525.000000	74.576	-144.8216
1550.000000	74.674	-144.8092
1575.000000	74.769	-144.7990
1600.000000	74.861	-144.8210
1625.000000	74.953	-144.8295
1650.000000	75.047	-144.7923
1675.000000	75.137	-144.7686
1700.000000	75.229	-144.7460
1725.000000	75.323	-144.6983
1750.000000	75.413	-144.6537
1775.000000	75.503	-144.6032
1800.000000	75.596	-144.5476
1825.000000	75.693	-144.4644
1850.000000	75.795	-144.3516
1875.000000	75.903	-144.2443
1900.000000	76.020	-144.1877
1925.000000	76.149	-144.1852
1950.000000	76.285	-144.2511
1975.000000	76.418	-144.4023
2000.000000	76.545	-144.6513
2030.000000	76.689	-145.0202
2060.000000	76.824	-145.4275
2090.000000	76.949	-145.8597
2120.000000	77.067	-146.2843
2140.000000	77.144	-146.5582
2180.000000	77.288	-147.1254
2200.000000	77.356	-147.4215
2240.000000	77.487	-148.0310
2270.000000	77.584	-148.4885
2300.000000	77.678	-148.9511
2330.000000	77.771	-149.4286
2360.000000	77.862	-149.9252
2400.000000	77.980	-150.6113
2430.000000	78.063	-151.1413
2470.000000	78.170	-151.8703
2500.000000	78.247	-152.4292
2540.000000	78.348	-153.1732
2580.000000	78.444	-153.9330
2620.000000	78.535	-154.7290
2650.000000	78.598	-155.3302
2690.000000	78.677	-156.1349
2720.000000	78.733	-156.7571
2760.000000	78.801	-157.6031
2800.000000	78.860	-158.4468
2850.000000	78.927	-159.4822
2900.000000	78.991	-160.5050
2950.000000	79.048	-161.5463
3000.000000	79.099	-162.5886
3040.000000	79.135	-163.4070
3070.000000	79.160	-164.0210
3110.000000	79.192	-164.8399
3150.000000	79.221	-165.6611
3200.000000	79.253	-166.6981
3250.000000	79.280	-167.7446
3300.000000	79.300	-168.8012
3350.000000	79.314	-169.8680
3400.000000	79.325	-170.9351
3450.000000	79.335	-172.0025
3500.000000	79.343	-173.0699
3550.000000	79.346	-174.1299
3600.000000	79.343	-175.1873
3650.000000	79.337	-176.2428
3700.000000	79.327	-177.2937
3750.000000	79.308	-178.3388
3820.000000	79.268	-179.7969
3870.000000	79.229	179.1718
3950.000000	79.147	177.5223
4000.000000	79.087	176.5061
4060.000000	79.006	175.2938
4120.000000	78.914	174.0883
4180.000000	78.811	172.9075
4250.000000	78.673	171.5817
4310.000000	78.537	170.4733
4370.000000	78.381	169.3936
4440.000000	78.176	168.2149
4500.000000	77.988	167.2853
4550.000000	77.824	166.5659
4620.000000	77.586	165.6411
4680.000000	77.376	164.9500
4750.000000	77.123	164.2747
4820.000000	76.866	163.7287
4870.000000	76.680	163.4062
4940.000000	76.414	163.0576
5000.000000	76.184	162.8724
5080.000000	75.879	162.7973
5150.000000	75.619	162.8635
5220.000000	75.366	163.0251
5300.000000	75.081	163.3131
5380.000000	74.810	163.7341
5450.000000	74.585	164.2022
5520.000000	74.370	164.7700
5600.000000	74.137	165.5446
5700.000000	73.867	166.6459
5800.000000	73.628	167.8690
5900.000000	73.420	169.2108
6000.000000	73.242	170.6370
6080.000000	73.126	171.8215
6150.000000	73.047	172.8739
6220.000000	72.987	173.9311
6300.000000	72.940	175.1157
6400.000000	72.915	176.5385
6500.000000	72.924	177.9433
6600.000000	72.969	179.3094
6700.000000	73.049	-179.3970
6800.000000	73.171	-178.1848
6900.000000	73.355	-177.1014
7000.000000	73.610	-176.2092
7100.000000	73.918	-175.5481
7200.000000	74.272	-175.1558
7300.000000	74.677	-175.1774
7400.000000	75.130	-175.7683
7500.000000	75.618	-177.0438
7620.000000	76.237	-179.6412
7750.000000	76.883	175.9589
7880.000000	77.338	169.7050
8000.000000	77.496	162.4886
8120.000000	77.343	154.4939
8250.000000	76.801	146.0012
8380.000000	75.913	138.7610
8500.000000	74.879	133.7592
8620.000000	73.730	130.4343
8750.000000	72.439	128.5428
8850.000000	71.459	128.1185
9000.000000	70.070	128.7747
9120.000000	69.037	129.9969
9250.000000	67.967	131.9173
9380.000000	66.948	134.4864
9500.000000	66.058	137.3351
9620.000000	65.219	140.6227
9750.000000	64.377	144.6888
9880.000000	63.608	149.2437
10000.000000	62.949	153.9268
10150.000000	62.195	160.5358
10300.000000	61.565	168.0644
10440.000000	61.176	175.9287
10600.000000	61.046	-174.5571
10750.000000	61.272	-165.9221
10900.000000	61.814	-158.5025
11060.000000	62.618	-152.7527
11200.000000	63.340	-149.8629
11380.000000	64.069	-148.3936
11500.000000	64.385	-148.0560
11720.000000	64.691	-147.2831
11800.000000	64.756	-146.7500
12060.000000	64.949	-143.9901
12200.000000	65.082	-141.9846
12410.000000	65.350	-138.5333
12500.000000	65.506	-136.9690
12650.000000	65.840	-134.3780
12800.000000	66.276	-131.9120
13150.000000	67.775	-127.4594
13200.000000	68.048	-127.0844
13400.000000	69.284	-126.6795
13600.000000	70.716	-128.8244
13800.000000	72.165	-134.8283
14000.000000	73.282	-145.5459
14300.000000	73.601	-167.0518
14500.000000	72.831	-179.8032
14750.000000	71.222	170.0786
15000.000000	69.501	165.8040
15250.000000	68.067	165.0848
15500.000000	67.063	166.0750
15750.000000	66.475	167.6290
16000.000000	66.247	168.9262
16250.000000	66.319	169.0182
16500.000000	66.568	166.8317
16750.000000	66.760	161.5839
17000.000000	66.605	153.7654
17250.000000	65.935	145.4186
17500.000000	64.820	138.7906
17750.000000	63.477	134.7531
18000.000000	62.109	132.7356
18250.000000	60.766	131.8288
18500.000000	59.335	132.5998
18750.000000	57.929	136.1108
19000.000000	56.861	141.0240
19250.000000	56.091	145.7747
19500.000000	55.491	149.8090
19750.000000	55.043	152.8055
20000.000000	54.772	154.4696
