* Measurement data measured by REW V5.20.13
* Source: EXCL: Mic in at rear panel (Pink)(Realtek(R) Audio), MICROPHONE (마스), L, volume: 0.500
* Format: 256k Log Swept Sine, 1 sweep at -12.0 dBFS with no timing reference
* Dated: 2022. 10. 1 오후 4:05:55
* REW Settings:
*  C-weighting compensation: Off
*  Target level: 75.0 dB
* Note: 
* Measurement: L_Spring
* Smoothing: 1/24 octave
* Frequency Step: 1/48 octave
* Start Frequency: 20.300 Hz
*
* Freq(Hz)	SPL(dB)	Phase(degrees)
20.299999	74.555	-138.1353
20.600000	74.566	-137.5179
20.900000	74.621	-136.5579
21.200001	74.743	-136.0739
21.400000	74.841	-136.0982
21.799999	75.028	-136.8501
22.000000	75.095	-137.4726
22.400000	75.162	-138.9251
22.700001	75.168	-139.9800
23.000000	75.159	-140.8812
23.299999	75.157	-141.6515
23.600000	75.172	-142.3654
24.000000	75.220	-143.3572
24.299999	75.265	-144.1805
24.700001	75.316	-145.3362
25.000000	75.344	-146.1579
25.400000	75.374	-147.0865
25.799999	75.413	-147.7973
26.200001	75.474	-148.3729
26.500000	75.532	-148.7924
26.900000	75.613	-149.4023
27.200001	75.668	-149.9074
27.600000	75.722	-150.6131
28.000000	75.751	-151.2887
28.500000	75.759	-151.9952
29.000000	75.753	-152.5072
29.500000	75.755	-152.8950
30.000000	75.772	-153.3200
30.400000	75.788	-153.7702
30.700001	75.795	-154.1716
31.100000	75.793	-154.7366
31.500000	75.782	-155.2719
32.000000	75.771	-155.8629
32.500000	75.778	-156.4359
33.000000	75.798	-157.0760
33.500000	75.823	-157.7637
34.000000	75.848	-158.4316
34.500000	75.877	-159.0806
35.000000	75.903	-159.7480
35.500000	75.912	-160.3862
36.000000	75.909	-160.8883
36.500000	75.914	-161.2658
37.000000	75.930	-161.6953
37.500000	75.929	-162.2886
38.200001	75.850	-163.0793
38.700001	75.764	-163.2813
39.500000	75.711	-163.1566
40.000000	75.748	-163.3000
40.599998	75.814	-164.0450
41.200001	75.832	-165.3658
41.799999	75.749	-166.8248
42.500000	75.547	-167.7153
43.099998	75.439	-167.3566
43.700001	75.525	-166.7970
44.400002	75.761	-167.2935
45.000000	75.878	-168.6573
45.500000	75.875	-169.6844
46.200001	75.826	-170.3073
46.799999	75.840	-170.3781
47.500000	75.910	-170.6261
48.200001	75.957	-171.1756
48.700001	75.954	-171.5623
49.400002	75.921	-171.8333
50.000000	75.909	-171.8557
50.799999	75.930	-172.0274
51.500000	75.935	-172.4451
52.200001	75.913	-172.8382
53.000000	75.902	-173.2108
53.799999	75.906	-173.7457
54.500000	75.898	-174.2759
55.200001	75.889	-174.7778
56.000000	75.872	-175.3154
57.000000	75.849	-175.6812
58.000000	75.880	-175.9963
59.000000	75.876	-176.6837
60.000000	75.791	-177.1985
60.799999	75.709	-177.3965
61.500000	75.647	-177.5022
62.200001	75.605	-177.7382
63.000000	75.538	-178.3436
64.000000	75.370	-178.7993
65.000000	75.318	-178.4028
66.000000	75.452	-178.7176
67.000000	75.526	-179.9760
68.000000	75.486	179.1976
69.000000	75.479	179.2060
70.000000	75.552	179.1540
71.000000	75.580	178.6743
72.000000	75.541	178.2955
73.000000	75.488	177.9136
74.000000	75.397	177.4531
75.000000	75.300	177.1993
76.199997	75.252	176.9575
77.500000	75.268	176.3719
78.800003	75.287	175.5288
80.000000	75.271	174.8845
81.199997	75.239	174.5750
82.500000	75.209	174.4121
83.800003	75.136	174.1851
85.000000	75.038	174.1491
86.199997	74.962	174.1664
87.500000	74.945	173.9343
88.500000	74.949	173.2815
90.000000	74.880	172.2413
91.199997	74.825	171.9552
92.500000	74.806	171.9524
93.800003	74.795	172.0971
95.000000	74.782	172.2191
96.199997	74.743	172.2600
97.500000	74.685	172.3799
98.800003	74.666	172.5589
100.000000	74.677	172.4064
101.500000	74.611	172.0862
103.000000	74.522	172.1519
104.400002	74.446	171.8654
106.000000	74.334	171.2242
107.500000	74.259	170.3829
109.000000	74.200	169.9489
110.599998	74.209	170.0764
112.000000	74.194	170.3657
113.800003	74.138	170.4944
115.000000	74.100	169.9333
117.199997	74.212	166.9492
118.000000	74.284	165.0969
120.599998	73.943	162.2596
122.000000	73.833	165.3926
124.099998	73.994	169.1157
125.000000	74.005	169.9219
126.500000	73.935	170.6139
128.000000	73.849	170.7942
131.500000	73.950	170.6899
132.000000	73.986	170.6681
134.000000	74.083	170.5731
136.000000	74.096	170.3024
138.000000	74.063	169.7588
140.000000	74.026	169.1259
143.000000	73.955	168.6651
145.000000	73.915	168.4613
147.500000	73.847	168.0973
150.000000	73.791	167.9314
152.500000	73.745	167.7499
155.000000	73.684	167.4542
157.500000	73.619	167.0862
160.000000	73.567	166.8636
162.500000	73.516	166.7375
165.000000	73.454	166.7111
167.500000	73.396	166.6493
170.000000	73.336	166.5273
172.500000	73.277	166.4474
175.000000	73.220	166.4350
177.500000	73.165	166.3925
180.000000	73.110	166.2944
182.500000	73.060	166.2652
185.000000	73.020	166.2789
187.500000	72.974	166.2301
190.000000	72.916	166.1553
192.500000	72.859	166.1866
195.000000	72.812	166.2914
197.500000	72.764	166.3674
200.000000	72.717	166.3553
203.000000	72.667	166.2836
206.000000	72.615	166.2863
209.000000	72.559	166.3717
212.000000	72.504	166.4457
214.000000	72.470	166.4738
218.000000	72.403	166.4576
220.000000	72.371	166.4388
224.000000	72.320	166.5525
227.000000	72.283	166.7673
230.000000	72.236	166.9392
233.000000	72.178	167.0304
236.000000	72.124	167.1525
240.000000	72.068	167.3578
243.000000	72.034	167.4399
247.000000	71.988	167.5144
250.000000	71.953	167.6130
254.000000	71.908	167.7470
258.000000	71.858	167.9180
262.000000	71.807	168.0666
265.000000	71.768	168.1260
269.000000	71.720	168.2619
272.000000	71.687	168.4077
276.000000	71.642	168.5983
280.000000	71.600	168.7512
285.000000	71.542	168.9324
290.000000	71.489	169.2243
295.000000	71.441	169.5853
300.000000	71.388	169.8715
304.000000	71.353	170.0059
307.000000	71.331	170.1140
311.000000	71.304	170.3048
315.000000	71.278	170.5175
320.000000	71.241	170.7472
325.000000	71.205	170.9943
330.000000	71.171	171.3116
335.000000	71.135	171.6318
340.000000	71.093	171.8686
345.000000	71.046	172.0922
350.000000	71.004	172.4103
355.000000	70.964	172.7404
360.000000	70.932	173.0309
365.000000	70.902	173.2991
370.000000	70.872	173.5491
375.000000	70.840	173.7627
382.000000	70.793	174.0945
387.000000	70.760	174.3657
395.000000	70.705	174.7883
400.000000	70.673	175.0632
406.000000	70.634	175.4290
412.000000	70.597	175.7712
418.000000	70.563	176.1191
425.000000	70.524	176.4985
431.000000	70.497	176.8484
437.000000	70.475	177.2296
444.000000	70.444	177.6357
450.000000	70.419	177.9720
455.000000	70.393	178.2427
462.000000	70.356	178.6530
468.000000	70.336	179.0110
475.000000	70.311	179.4150
482.000000	70.279	179.8484
487.000000	70.264	-179.8378
494.000000	70.251	-179.3896
500.000000	70.239	-179.0619
508.000000	70.213	-178.6778
515.000000	70.189	-178.2489
522.000000	70.178	-177.7960
530.000000	70.167	-177.3477
538.000000	70.149	-176.9146
545.000000	70.134	-176.5162
552.000000	70.116	-176.0690
560.000000	70.093	-175.5411
570.000000	70.073	-174.9611
580.000000	70.057	-174.3715
590.000000	70.036	-173.7646
600.000000	70.014	-173.1399
608.000000	70.000	-172.7086
615.000000	69.995	-172.3461
622.000000	69.991	-171.9642
630.000000	69.987	-171.4994
640.000000	69.979	-170.8746
650.000000	69.964	-170.2289
660.000000	69.961	-169.5668
670.000000	69.972	-168.9434
680.000000	69.969	-168.3651
690.000000	69.955	-167.7274
700.000000	69.945	-167.1132
710.000000	69.949	-166.5371
720.000000	69.954	-165.8842
730.000000	69.953	-165.2556
740.000000	69.954	-164.6884
750.000000	69.959	-164.1003
762.000000	69.976	-163.3270
775.000000	69.996	-162.4847
788.000000	70.017	-161.5792
800.000000	70.036	-160.8121
812.000000	70.055	-160.0765
825.000000	70.086	-159.2315
838.000000	70.117	-158.4150
850.000000	70.148	-157.6646
862.000000	70.197	-156.8465
875.000000	70.262	-155.9113
885.000000	70.327	-155.2026
900.000000	70.445	-154.4126
912.000000	70.518	-153.9977
925.000000	70.565	-153.4715
938.000000	70.616	-152.7970
950.000000	70.671	-152.1626
962.000000	70.732	-151.5383
975.000000	70.805	-150.8833
988.000000	70.881	-150.1898
1000.000000	70.953	-149.5502
1015.000000	71.054	-148.9164
1030.000000	71.167	-148.3046
1044.000000	71.277	-147.7486
1060.000000	71.412	-147.1582
1075.000000	71.544	-146.7092
1090.000000	71.684	-146.3056
1106.000000	71.841	-145.9619
1120.000000	71.976	-145.7663
1138.000000	72.148	-145.6098
1150.000000	72.258	-145.5564
1172.000000	72.449	-145.5352
1180.000000	72.512	-145.5464
1206.000000	72.694	-145.6717
1220.000000	72.785	-145.7732
1241.000000	72.913	-145.8859
1250.000000	72.965	-145.9243
1265.000000	73.051	-145.9869
1280.000000	73.132	-146.0495
1315.000000	73.316	-146.2409
1320.000000	73.341	-146.2719
1340.000000	73.434	-146.4060
1360.000000	73.511	-146.5311
1380.000000	73.584	-146.5959
1400.000000	73.660	-146.6470
1430.000000	73.776	-146.7148
1450.000000	73.854	-146.7403
1475.000000	73.949	-146.7740
1500.000000	74.038	-146.7976
1525.000000	74.127	-146.8297
1550.000000	74.211	-146.8560
1575.000000	74.296	-146.8350
1600.000000	74.385	-146.8068
1625.000000	74.475	-146.8061
1650.000000	74.567	-146.8165
1675.000000	74.655	-146.8392
1700.000000	74.738	-146.8737
1725.000000	74.822	-146.9011
1750.000000	74.901	-146.9535
1775.000000	74.979	-147.0218
1800.000000	75.055	-147.0626
1825.000000	75.124	-147.0894
1850.000000	75.193	-147.1163
1875.000000	75.264	-147.1506
1900.000000	75.332	-147.2160
1925.000000	75.391	-147.2620
1950.000000	75.444	-147.2462
1975.000000	75.500	-147.1833
2000.000000	75.557	-147.0587
2030.000000	75.630	-146.8025
2060.000000	75.726	-146.4527
2090.000000	75.857	-146.1084
2120.000000	76.018	-145.9381
2140.000000	76.130	-145.9769
2180.000000	76.334	-146.3735
2200.000000	76.415	-146.6455
2240.000000	76.535	-147.1381
2270.000000	76.608	-147.3844
2300.000000	76.676	-147.4878
2330.000000	76.748	-147.4989
2360.000000	76.828	-147.4542
2400.000000	76.951	-147.2491
2430.000000	77.072	-146.9705
2470.000000	77.297	-146.5584
2500.000000	77.518	-146.4304
2540.000000	77.853	-146.7702
2580.000000	78.172	-147.7635
2620.000000	78.431	-149.2274
2650.000000	78.579	-150.4509
2690.000000	78.720	-152.0623
2720.000000	78.798	-153.1809
2760.000000	78.884	-154.5520
2800.000000	78.963	-155.8247
2850.000000	79.056	-157.3217
2900.000000	79.145	-158.8265
2950.000000	79.220	-160.3523
3000.000000	79.276	-161.8926
3040.000000	79.308	-163.1275
3070.000000	79.323	-164.0385
3110.000000	79.337	-165.2213
3150.000000	79.344	-166.3555
3200.000000	79.344	-167.7050
3250.000000	79.337	-169.0214
3300.000000	79.322	-170.3009
3350.000000	79.301	-171.5519
3400.000000	79.275	-172.7620
3450.000000	79.249	-173.9177
3500.000000	79.223	-175.0179
3550.000000	79.200	-176.0783
3600.000000	79.180	-177.1337
3650.000000	79.158	-178.2243
3700.000000	79.131	-179.3448
3750.000000	79.095	179.5193
3820.000000	79.024	177.9279
3870.000000	78.957	176.8274
3950.000000	78.824	175.1740
4000.000000	78.733	174.2045
4060.000000	78.621	173.0800
4120.000000	78.500	171.9847
4180.000000	78.371	170.9208
4250.000000	78.207	169.7404
4310.000000	78.057	168.8088
4370.000000	77.896	167.9317
4440.000000	77.688	166.9590
4500.000000	77.501	166.1835
4550.000000	77.343	165.6012
4620.000000	77.113	164.8624
4680.000000	76.911	164.2845
4750.000000	76.671	163.7095
4820.000000	76.428	163.2515
4870.000000	76.253	163.0000
4940.000000	76.004	162.7639
5000.000000	75.793	162.6540
5080.000000	75.516	162.6032
5150.000000	75.281	162.6468
5220.000000	75.049	162.7812
5300.000000	74.786	163.0402
5380.000000	74.537	163.4321
5450.000000	74.333	163.8647
5520.000000	74.136	164.3701
5600.000000	73.922	165.0330
5700.000000	73.672	165.9834
5800.000000	73.446	167.0582
5900.000000	73.254	168.2217
6000.000000	73.094	169.4753
6080.000000	72.994	170.5344
6150.000000	72.928	171.4574
6220.000000	72.878	172.3598
6300.000000	72.837	173.3753
6400.000000	72.817	174.5999
6500.000000	72.830	175.7748
6600.000000	72.870	176.8727
6700.000000	72.943	177.8600
6800.000000	73.058	178.7623
6900.000000	73.225	179.5480
7000.000000	73.448	-179.8065
7100.000000	73.719	-179.3279
7200.000000	74.042	-179.0648
7300.000000	74.420	-179.1592
7400.000000	74.844	-179.7393
7500.000000	75.311	179.0652
7620.000000	75.918	176.5770
7750.000000	76.575	172.3376
7880.000000	77.070	166.1624
8000.000000	77.286	158.8072
8120.000000	77.193	150.4420
8250.000000	76.691	141.3008
8380.000000	75.809	133.2964
8500.000000	74.748	127.5875
8620.000000	73.546	123.6373
8750.000000	72.181	121.2006
8850.000000	71.140	120.4771
9000.000000	69.655	120.8051
9120.000000	68.553	121.8090
9250.000000	67.421	123.5165
9380.000000	66.351	125.8535
9500.000000	65.414	128.5091
9620.000000	64.517	131.6167
9750.000000	63.604	135.4494
9880.000000	62.756	139.7659
10000.000000	62.037	144.2372
10150.000000	61.217	150.5813
10300.000000	60.497	157.8917
10440.000000	60.003	165.5197
10600.000000	59.758	174.7593
10750.000000	59.881	-176.7207
10900.000000	60.329	-169.4316
11060.000000	61.020	-163.9787
11200.000000	61.628	-161.3444
11380.000000	62.198	-160.1526
11500.000000	62.407	-159.9847
11720.000000	62.518	-159.4866
11800.000000	62.501	-159.0203
12060.000000	62.357	-156.3343
12200.000000	62.279	-154.2627
12410.000000	62.212	-150.5540
12500.000000	62.211	-148.8256
12650.000000	62.260	-145.8577
12800.000000	62.376	-142.8403
13150.000000	62.964	-135.9506
13200.000000	63.090	-135.0266
13400.000000	63.684	-131.5973
13600.000000	64.447	-128.7686
13800.000000	65.410	-126.7936
14000.000000	66.585	-126.1179
14300.000000	68.679	-129.1878
14500.000000	70.121	-135.4009
14750.000000	71.495	-149.4180
15000.000000	71.804	-168.3442
15250.000000	70.914	174.1735
15500.000000	69.305	162.4576
15750.000000	67.589	156.1973
16000.000000	66.085	153.3203
16250.000000	64.887	152.0426
16500.000000	63.975	150.9495
16750.000000	63.217	149.0877
17000.000000	62.444	146.3106
17250.000000	61.543	143.2753
17500.000000	60.505	140.7959
17750.000000	59.385	139.3656
18000.000000	58.263	138.8294
18250.000000	57.136	138.5925
18500.000000	55.883	139.4098
18750.000000	54.652	142.3857
19000.000000	53.737	145.8424
19250.000000	53.039	148.4665
19500.000000	52.439	149.8852
19750.000000	51.874	149.9501
20000.000000	51.410	149.5618
