* Measurement data measured by REW V5.20.13
* Source: EXCL: Mic in at rear panel (Pink)(Realtek(R) Audio), MICROPHONE (마스), L, volume: 0.500
* Format: 256k Log Swept Sine, 1 sweep at -12.0 dBFS with no timing reference
* Dated: 2022. 10. 1 오후 4:21:43
* REW Settings:
*  C-weighting compensation: Off
*  Target level: 75.0 dB
* Note: 
* Measurement: L_UC
* Smoothing: 1/24 octave
* Frequency Step: 1/48 octave
* Start Frequency: 20.300 Hz
*
* Freq(Hz)	SPL(dB)	Phase(degrees)
20.299999	74.995	-137.6440
20.600000	75.035	-138.0266
20.900000	75.108	-138.7237
21.200001	75.152	-139.4135
21.400000	75.168	-139.8458
21.799999	75.178	-140.6349
22.000000	75.178	-140.9892
22.400000	75.184	-141.6245
22.700001	75.196	-142.0796
23.000000	75.217	-142.5676
23.299999	75.243	-143.1118
23.600000	75.270	-143.7077
24.000000	75.303	-144.5453
24.299999	75.326	-145.1636
24.700001	75.359	-145.9379
25.000000	75.389	-146.4848
25.400000	75.440	-147.2066
25.799999	75.498	-147.9702
26.200001	75.549	-148.7845
26.500000	75.576	-149.3942
26.900000	75.594	-150.1358
27.200001	75.597	-150.5941
27.600000	75.602	-151.0581
28.000000	75.619	-151.4103
28.500000	75.660	-151.8540
29.000000	75.703	-152.4280
29.500000	75.722	-153.0748
30.000000	75.721	-153.6253
30.400000	75.723	-153.9549
30.700001	75.734	-154.1779
31.100000	75.764	-154.5388
31.500000	75.796	-155.0354
32.000000	75.817	-155.8080
32.500000	75.808	-156.5559
33.000000	75.793	-157.1172
33.500000	75.801	-157.5444
34.000000	75.838	-158.0223
34.500000	75.879	-158.6475
35.000000	75.902	-159.3518
35.500000	75.908	-160.0094
36.000000	75.905	-160.5626
36.500000	75.901	-161.0147
37.000000	75.900	-161.3756
37.500000	75.910	-161.6727
38.200001	75.945	-162.1427
38.700001	75.970	-162.6143
39.500000	75.973	-163.4482
40.000000	75.963	-163.8688
40.599998	75.965	-164.3116
41.200001	75.980	-164.8609
41.799999	75.983	-165.5398
42.500000	75.957	-166.3169
43.099998	75.922	-166.8521
43.700001	75.888	-167.2407
44.400002	75.866	-167.5371
45.000000	75.874	-167.7900
45.500000	75.888	-168.1167
46.200001	75.887	-168.7067
46.799999	75.860	-169.1176
47.500000	75.843	-169.3807
48.200001	75.865	-169.6758
48.700001	75.891	-170.0393
49.400002	75.908	-170.7002
50.000000	75.903	-171.2621
50.799999	75.886	-171.8924
51.500000	75.875	-172.3440
52.200001	75.872	-172.7477
53.000000	75.873	-173.1925
53.799999	75.870	-173.6249
54.500000	75.859	-173.9650
55.200001	75.842	-174.2038
56.000000	75.840	-174.3565
57.000000	75.876	-174.7263
58.000000	75.888	-175.4443
59.000000	75.858	-176.1618
60.000000	75.805	-176.7530
60.799999	75.764	-177.0545
61.500000	75.745	-177.2361
62.200001	75.740	-177.4462
63.000000	75.734	-177.7098
64.000000	75.732	-178.0033
65.000000	75.735	-178.3914
66.000000	75.715	-178.8764
67.000000	75.676	-179.2639
68.000000	75.651	-179.6269
69.000000	75.626	179.8723
70.000000	75.587	179.3773
71.000000	75.554	178.9410
72.000000	75.522	178.5269
73.000000	75.492	178.2017
74.000000	75.471	177.9623
75.000000	75.465	177.7574
76.199997	75.464	177.3364
77.500000	75.417	176.8145
78.800003	75.355	176.5136
80.000000	75.318	176.2350
81.199997	75.273	175.7986
82.500000	75.203	175.4708
83.800003	75.177	175.2927
85.000000	75.177	174.8848
86.199997	75.144	174.4116
87.500000	75.097	174.1532
88.500000	75.074	173.9908
90.000000	75.035	173.6252
91.199997	74.991	173.3191
92.500000	74.950	172.9830
93.800003	74.904	172.6378
95.000000	74.865	172.4693
96.199997	74.844	172.3846
97.500000	74.831	172.2377
98.800003	74.801	171.9661
100.000000	74.750	171.7576
101.500000	74.702	171.5840
103.000000	74.672	171.2983
104.400002	74.640	171.0289
106.000000	74.588	170.8173
107.500000	74.533	170.6241
109.000000	74.473	170.3103
110.599998	74.420	169.9488
112.000000	74.395	169.7222
113.800003	74.363	169.7538
115.000000	74.308	169.9715
117.199997	74.037	170.5855
118.000000	73.885	171.0246
120.599998	73.735	172.6221
122.000000	73.830	171.3553
124.099998	73.827	169.3474
125.000000	73.822	169.0454
126.500000	73.811	169.1163
128.000000	73.777	169.5984
131.500000	73.697	170.6447
132.000000	73.700	170.7121
134.000000	73.751	170.8389
136.000000	73.821	170.8611
138.000000	73.858	170.7938
140.000000	73.867	170.5633
143.000000	73.867	169.9550
145.000000	73.864	169.6408
147.500000	73.847	169.2754
150.000000	73.795	168.8595
152.500000	73.744	168.5072
155.000000	73.691	168.2141
157.500000	73.625	168.0223
160.000000	73.563	167.9275
162.500000	73.522	167.7860
165.000000	73.471	167.5361
167.500000	73.408	167.4125
170.000000	73.350	167.3550
172.500000	73.294	167.3059
175.000000	73.246	167.2376
177.500000	73.199	167.1220
180.000000	73.138	167.0219
182.500000	73.073	167.0094
185.000000	73.019	166.9940
187.500000	72.966	166.9775
190.000000	72.918	167.0102
192.500000	72.875	167.0353
195.000000	72.827	167.0485
197.500000	72.777	167.0972
200.000000	72.737	167.1384
203.000000	72.697	167.1364
206.000000	72.644	167.1876
209.000000	72.574	167.3248
212.000000	72.514	167.4263
214.000000	72.484	167.4480
218.000000	72.429	167.6062
220.000000	72.399	167.7183
224.000000	72.332	167.8161
227.000000	72.270	167.8967
230.000000	72.201	168.1285
233.000000	72.144	168.3825
236.000000	72.102	168.5750
240.000000	72.070	168.9504
243.000000	72.068	169.2694
247.000000	72.067	169.5393
250.000000	72.056	169.6324
254.000000	72.025	169.6913
258.000000	71.987	169.7052
262.000000	71.952	169.6901
265.000000	71.918	169.7415
269.000000	71.866	169.9091
272.000000	71.830	170.0097
276.000000	71.788	170.1052
280.000000	71.746	170.2505
285.000000	71.693	170.4020
290.000000	71.632	170.5555
295.000000	71.583	170.6974
300.000000	71.534	170.9195
304.000000	71.495	171.1801
307.000000	71.470	171.3481
311.000000	71.438	171.5180
315.000000	71.407	171.6890
320.000000	71.366	171.9489
325.000000	71.325	172.2430
330.000000	71.297	172.5240
335.000000	71.271	172.8063
340.000000	71.235	173.0577
345.000000	71.185	173.2638
350.000000	71.140	173.4505
355.000000	71.103	173.7638
360.000000	71.077	174.0741
365.000000	71.047	174.3159
370.000000	71.004	174.5731
375.000000	70.968	174.9052
382.000000	70.925	175.4343
387.000000	70.888	175.7303
395.000000	70.825	176.2004
400.000000	70.801	176.5377
406.000000	70.769	176.8705
412.000000	70.730	177.1642
418.000000	70.697	177.5058
425.000000	70.660	177.9168
431.000000	70.642	178.2354
437.000000	70.621	178.5573
444.000000	70.586	179.0061
450.000000	70.559	179.4345
455.000000	70.541	179.7470
462.000000	70.507	-179.8751
468.000000	70.474	-179.5756
475.000000	70.450	-179.2095
482.000000	70.435	-178.7824
487.000000	70.420	-178.4411
494.000000	70.399	-177.9944
500.000000	70.384	-177.6389
508.000000	70.357	-177.1543
515.000000	70.330	-176.7239
522.000000	70.319	-176.3354
530.000000	70.311	-175.8645
538.000000	70.288	-175.3572
545.000000	70.267	-174.9328
552.000000	70.246	-174.5173
560.000000	70.230	-174.0474
570.000000	70.214	-173.4374
580.000000	70.205	-172.7645
590.000000	70.195	-172.1351
600.000000	70.176	-171.5185
608.000000	70.166	-170.9833
615.000000	70.159	-170.5409
622.000000	70.155	-170.1398
630.000000	70.152	-169.6573
640.000000	70.145	-169.0365
650.000000	70.134	-168.4861
660.000000	70.121	-167.8569
670.000000	70.121	-167.2031
680.000000	70.124	-166.5792
690.000000	70.119	-165.8872
700.000000	70.111	-165.1935
710.000000	70.116	-164.5663
720.000000	70.126	-163.8973
730.000000	70.137	-163.2320
740.000000	70.146	-162.6204
750.000000	70.151	-162.0090
762.000000	70.161	-161.2053
775.000000	70.179	-160.3347
788.000000	70.189	-159.5065
800.000000	70.212	-158.6943
812.000000	70.240	-157.8557
825.000000	70.271	-156.9454
838.000000	70.309	-156.0587
850.000000	70.352	-155.2548
862.000000	70.399	-154.4325
875.000000	70.459	-153.4965
885.000000	70.522	-152.8141
900.000000	70.636	-151.9356
912.000000	70.717	-151.4276
925.000000	70.769	-150.9014
938.000000	70.820	-150.2111
950.000000	70.884	-149.5698
962.000000	70.952	-148.9862
975.000000	71.026	-148.3430
988.000000	71.111	-147.7328
1000.000000	71.196	-147.1839
1015.000000	71.304	-146.3662
1030.000000	71.419	-145.5565
1044.000000	71.531	-144.9175
1060.000000	71.674	-144.2969
1075.000000	71.821	-143.7724
1090.000000	71.970	-143.3298
1106.000000	72.132	-142.9717
1120.000000	72.275	-142.7348
1138.000000	72.455	-142.5357
1150.000000	72.572	-142.4686
1172.000000	72.774	-142.4785
1180.000000	72.841	-142.5120
1206.000000	73.039	-142.6288
1220.000000	73.137	-142.7149
1241.000000	73.268	-142.8221
1250.000000	73.322	-142.8666
1265.000000	73.410	-142.9535
1280.000000	73.493	-143.0332
1315.000000	73.677	-143.1464
1320.000000	73.702	-143.1640
1340.000000	73.801	-143.2406
1360.000000	73.888	-143.3024
1380.000000	73.968	-143.3328
1400.000000	74.054	-143.3601
1430.000000	74.188	-143.4219
1450.000000	74.277	-143.4428
1475.000000	74.383	-143.4370
1500.000000	74.486	-143.4241
1525.000000	74.589	-143.4150
1550.000000	74.688	-143.4180
1575.000000	74.786	-143.4139
1600.000000	74.886	-143.3719
1625.000000	74.990	-143.3655
1650.000000	75.099	-143.3684
1675.000000	75.204	-143.3779
1700.000000	75.304	-143.3720
1725.000000	75.404	-143.3736
1750.000000	75.507	-143.4031
1775.000000	75.609	-143.4624
1800.000000	75.708	-143.5416
1825.000000	75.805	-143.6151
1850.000000	75.905	-143.6873
1875.000000	76.003	-143.7833
1900.000000	76.098	-143.9002
1925.000000	76.194	-144.0413
1950.000000	76.290	-144.1899
1975.000000	76.387	-144.3357
2000.000000	76.482	-144.4899
2030.000000	76.593	-144.7096
2060.000000	76.702	-144.9619
2090.000000	76.812	-145.2240
2120.000000	76.922	-145.4955
2140.000000	76.994	-145.6882
2180.000000	77.134	-146.1257
2200.000000	77.201	-146.3520
2240.000000	77.331	-146.8434
2270.000000	77.424	-147.2527
2300.000000	77.514	-147.6668
2330.000000	77.602	-148.0950
2360.000000	77.689	-148.5435
2400.000000	77.801	-149.1804
2430.000000	77.880	-149.6688
2470.000000	77.983	-150.3213
2500.000000	78.056	-150.8202
2540.000000	78.148	-151.4995
2580.000000	78.233	-152.1830
2620.000000	78.312	-152.8905
2650.000000	78.365	-153.4163
2690.000000	78.431	-154.1141
2720.000000	78.478	-154.6432
2760.000000	78.537	-155.3595
2800.000000	78.594	-156.0593
2850.000000	78.661	-156.9269
2900.000000	78.721	-157.8046
2950.000000	78.774	-158.7054
3000.000000	78.818	-159.6019
3040.000000	78.847	-160.2974
3070.000000	78.865	-160.8157
3110.000000	78.886	-161.5014
3150.000000	78.905	-162.1596
3200.000000	78.928	-162.9323
3250.000000	78.951	-163.6805
3300.000000	78.976	-164.4075
3350.000000	79.003	-165.1245
3400.000000	79.034	-165.8528
3450.000000	79.073	-166.5965
3500.000000	79.121	-167.3580
3550.000000	79.172	-168.1580
3600.000000	79.224	-169.0183
3650.000000	79.275	-169.9555
3700.000000	79.319	-170.9782
3750.000000	79.352	-172.0623
3820.000000	79.374	-173.6421
3870.000000	79.370	-174.8020
3950.000000	79.331	-176.6685
4000.000000	79.289	-177.8164
4060.000000	79.227	-179.1799
4120.000000	79.150	179.4872
4180.000000	79.059	178.1909
4250.000000	78.936	176.7208
4310.000000	78.807	175.5124
4370.000000	78.657	174.3609
4440.000000	78.465	173.1021
4500.000000	78.282	172.0804
4550.000000	78.119	171.2815
4620.000000	77.882	170.2734
4680.000000	77.673	169.5057
4750.000000	77.419	168.7424
4820.000000	77.158	168.1245
4870.000000	76.968	167.7567
4940.000000	76.694	167.3383
5000.000000	76.455	167.0870
5080.000000	76.137	166.9372
5150.000000	75.864	166.9694
5220.000000	75.601	167.1300
5300.000000	75.306	167.4547
5380.000000	75.022	167.9291
5450.000000	74.784	168.4668
5520.000000	74.557	169.0925
5600.000000	74.314	169.9140
5700.000000	74.038	171.0716
5800.000000	73.794	172.3465
5900.000000	73.578	173.7686
6000.000000	73.398	175.3273
6080.000000	73.283	176.6136
6150.000000	73.203	177.7298
6220.000000	73.148	178.8414
6300.000000	73.110	-179.8928
6400.000000	73.088	-178.3365
6500.000000	73.100	-176.8387
6600.000000	73.148	-175.4271
6700.000000	73.238	-174.1232
6800.000000	73.373	-172.9425
6900.000000	73.565	-171.9077
7000.000000	73.819	-171.0567
7100.000000	74.121	-170.4558
7200.000000	74.466	-170.2047
7300.000000	74.855	-170.4082
7400.000000	75.274	-171.1414
7500.000000	75.711	-172.4972
7620.000000	76.249	-175.1187
7750.000000	76.782	-179.3617
7880.000000	77.116	174.9207
8000.000000	77.188	168.5552
8120.000000	76.994	161.6415
8250.000000	76.467	154.3433
8380.000000	75.649	148.1010
8500.000000	74.700	143.7509
8620.000000	73.642	140.8859
8750.000000	72.446	139.3502
8850.000000	71.531	139.1362
9000.000000	70.237	140.0338
9120.000000	69.275	141.4434
9250.000000	68.276	143.5707
9380.000000	67.329	146.3098
9500.000000	66.514	149.3425
9620.000000	65.746	152.7996
9750.000000	64.966	157.0063
9880.000000	64.265	161.6888
10000.000000	63.679	166.4646
10150.000000	63.024	173.1964
10300.000000	62.504	-179.1989
10440.000000	62.210	-171.3667
10600.000000	62.198	-161.7968
10750.000000	62.553	-153.1085
10900.000000	63.245	-145.5785
11060.000000	64.199	-139.8156
11200.000000	65.039	-136.9613
11380.000000	65.942	-135.5161
11500.000000	66.400	-135.2602
11720.000000	67.019	-134.7817
11800.000000	67.210	-134.4244
12060.000000	67.876	-132.5116
12200.000000	68.318	-131.1930
12410.000000	69.152	-129.3795
12500.000000	69.594	-128.8668
12650.000000	70.459	-128.6787
12800.000000	71.482	-129.7690
13150.000000	74.025	-141.4292
13200.000000	74.313	-144.5029
13400.000000	74.948	-159.8946
13600.000000	74.546	-176.6966
13800.000000	73.227	170.2779
14000.000000	71.454	162.9450
14300.000000	68.847	160.0764
14500.000000	67.423	161.2870
14750.000000	66.049	164.4974
15000.000000	65.069	168.6272
15250.000000	64.467	172.9942
15500.000000	64.251	177.1732
15750.000000	64.426	-179.3114
16000.000000	64.970	-177.1184
16250.000000	65.821	-177.5245
16500.000000	66.772	177.8383
16750.000000	67.419	168.1611
17000.000000	67.352	155.1552
17250.000000	66.469	142.7462
17500.000000	65.036	133.8976
17750.000000	63.431	128.6456
18000.000000	61.890	125.3214
18250.000000	60.412	122.5804
18500.000000	58.819	121.0387
18750.000000	57.173	122.0166
19000.000000	55.735	124.1906
19250.000000	54.453	126.1903
19500.000000	53.179	128.0408
19750.000000	51.939	129.6564
20000.000000	51.028	130.7193
