* Measurement data measured by REW V5.20.5
* Source: ??? (Realtek(R) Audio), MICROPHONE (Master Volume), L, volume: 0.250
* Format: 128k Log Swept Sine, 4 sweeps at -12.0 dBFS with no timing reference
* Dated: 01-Apr-2022 03:16:16
* REW Settings:
*  C-weighting compensation: Off
*  Target level: 75.0 dB
* Note: 
* Measurement: Aria (2021) L
* Smoothing: 1/24 octave
* Frequency Step: 1/48 octave
* Start Frequency: 20.300 Hz
*
* Freq(Hz)	SPL(dB)	Phase(degrees)
20.299999	76.278
20.600000	76.298
20.900000	76.335
21.200001	76.368
21.400000	76.387
21.799999	76.422
22.000000	76.437
22.400000	76.464
22.700001	76.482
23.000000	76.499
23.299999	76.516
23.600000	76.536
24.000000	76.565
24.299999	76.589
24.700001	76.621
25.000000	76.646
25.400000	76.680
25.799999	76.715
26.200001	76.750
26.500000	76.775
26.900000	76.804
27.200001	76.823
27.600000	76.845
28.000000	76.864
28.500000	76.885
29.000000	76.901
29.500000	76.911
30.000000	76.918
30.400000	76.922
30.700001	76.925
31.100000	76.929
31.500000	76.932
32.000000	76.935
32.500000	76.938
33.000000	76.942
33.500000	76.948
34.000000	76.957
34.500000	76.968
35.000000	76.980
35.500000	76.992
36.000000	77.003
36.500000	77.013
37.000000	77.022
37.500000	77.029
38.200001	77.035
38.700001	77.035
39.500000	77.028
40.000000	77.022
40.599998	77.016
41.200001	77.010
41.799999	77.001
42.500000	76.990
43.099998	76.982
43.700001	76.977
44.400002	76.971
45.000000	76.964
45.500000	76.957
46.200001	76.947
46.799999	76.938
47.500000	76.927
48.200001	76.916
48.700001	76.908
49.400002	76.896
50.000000	76.884
50.799999	76.865
51.500000	76.851
52.200001	76.837
53.000000	76.821
53.799999	76.803
54.500000	76.789
55.200001	76.775
56.000000	76.759
57.000000	76.736
58.000000	76.706
59.000000	76.680
60.000000	76.663
60.799999	76.641
61.500000	76.614
62.200001	76.585
63.000000	76.557
64.000000	76.528
65.000000	76.506
66.000000	76.485
67.000000	76.461
68.000000	76.435
69.000000	76.403
70.000000	76.365
71.000000	76.324
72.000000	76.279
73.000000	76.227
74.000000	76.144
75.000000	76.079
76.199997	76.098
77.500000	76.116
78.800003	76.109
80.000000	76.088
81.199997	76.042
82.500000	75.984
83.800003	75.929
85.000000	75.884
86.199997	75.845
87.500000	75.807
88.500000	75.778
90.000000	75.729
91.199997	75.686
92.500000	75.640
93.800003	75.593
95.000000	75.551
96.199997	75.511
97.500000	75.469
98.800003	75.426
100.000000	75.384
101.500000	75.331
103.000000	75.277
104.400002	75.227
106.000000	75.172
107.500000	75.120
109.000000	75.067
110.599998	75.010
112.000000	74.955
113.800003	74.878
115.000000	74.826
117.199997	74.730
118.000000	74.695
120.599998	74.573
122.000000	74.514
124.099998	74.431
125.000000	74.398
126.500000	74.354
128.000000	74.323
131.500000	74.272
132.000000	74.263
134.000000	74.229
136.000000	74.207
138.000000	74.192
140.000000	74.176
143.000000	74.154
145.000000	74.149
147.500000	74.140
150.000000	74.119
152.500000	74.088
155.000000	74.019
157.500000	73.905
160.000000	73.811
162.500000	73.761
165.000000	73.750
167.500000	73.759
170.000000	73.739
172.500000	73.689
175.000000	73.636
177.500000	73.585
180.000000	73.527
182.500000	73.468
185.000000	73.417
187.500000	73.364
190.000000	73.306
192.500000	73.255
195.000000	73.208
197.500000	73.158
200.000000	73.105
203.000000	73.042
206.000000	72.981
209.000000	72.923
212.000000	72.868
214.000000	72.831
218.000000	72.757
220.000000	72.720
224.000000	72.645
227.000000	72.595
230.000000	72.546
233.000000	72.495
236.000000	72.444
240.000000	72.380
243.000000	72.334
247.000000	72.274
250.000000	72.233
254.000000	72.183
258.000000	72.131
262.000000	72.085
265.000000	72.056
269.000000	72.013
272.000000	71.977
276.000000	71.934
280.000000	71.892
285.000000	71.841
290.000000	71.792
295.000000	71.739
300.000000	71.685
304.000000	71.646
307.000000	71.618
311.000000	71.579
315.000000	71.541
320.000000	71.495
325.000000	71.448
330.000000	71.403
335.000000	71.361
340.000000	71.320
345.000000	71.280
350.000000	71.239
355.000000	71.201
360.000000	71.162
365.000000	71.123
370.000000	71.086
375.000000	71.051
382.000000	71.002
387.000000	70.969
395.000000	70.920
400.000000	70.889
406.000000	70.853
412.000000	70.819
418.000000	70.787
425.000000	70.751
431.000000	70.722
437.000000	70.694
444.000000	70.663
450.000000	70.637
455.000000	70.614
462.000000	70.586
468.000000	70.563
475.000000	70.539
482.000000	70.514
487.000000	70.497
494.000000	70.475
500.000000	70.457
508.000000	70.433
515.000000	70.413
522.000000	70.396
530.000000	70.376
538.000000	70.356
545.000000	70.339
552.000000	70.323
560.000000	70.304
570.000000	70.283
580.000000	70.261
590.000000	70.241
600.000000	70.223
608.000000	70.210
615.000000	70.200
622.000000	70.191
630.000000	70.182
640.000000	70.174
650.000000	70.167
660.000000	70.161
670.000000	70.155
680.000000	70.152
690.000000	70.151
700.000000	70.153
710.000000	70.157
720.000000	70.161
730.000000	70.167
740.000000	70.174
750.000000	70.186
762.000000	70.203
775.000000	70.225
788.000000	70.249
800.000000	70.272
812.000000	70.299
825.000000	70.336
838.000000	70.378
850.000000	70.418
862.000000	70.460
875.000000	70.508
885.000000	70.549
900.000000	70.616
912.000000	70.674
925.000000	70.742
938.000000	70.815
950.000000	70.885
962.000000	70.956
975.000000	71.029
988.000000	71.089
1000.000000	71.124
1015.000000	71.147
1030.000000	71.208
1044.000000	71.340
1060.000000	71.532
1075.000000	71.696
1090.000000	71.832
1106.000000	71.961
1120.000000	72.072
1138.000000	72.211
1150.000000	72.301
1172.000000	72.461
1180.000000	72.519
1206.000000	72.707
1220.000000	72.812
1241.000000	72.971
1250.000000	73.038
1265.000000	73.147
1280.000000	73.252
1315.000000	73.479
1320.000000	73.510
1340.000000	73.631
1360.000000	73.750
1380.000000	73.869
1400.000000	73.986
1430.000000	74.154
1450.000000	74.263
1475.000000	74.396
1500.000000	74.523
1525.000000	74.642
1550.000000	74.752
1575.000000	74.854
1600.000000	74.955
1625.000000	75.055
1650.000000	75.154
1675.000000	75.254
1700.000000	75.354
1725.000000	75.457
1750.000000	75.559
1775.000000	75.663
1800.000000	75.767
1825.000000	75.872
1850.000000	75.975
1875.000000	76.078
1900.000000	76.180
1925.000000	76.281
1950.000000	76.381
1975.000000	76.479
2000.000000	76.578
2030.000000	76.694
2060.000000	76.808
2090.000000	76.921
2120.000000	77.032
2140.000000	77.103
2180.000000	77.242
2200.000000	77.309
2240.000000	77.440
2270.000000	77.534
2300.000000	77.625
2330.000000	77.711
2360.000000	77.794
2400.000000	77.899
2430.000000	77.973
2470.000000	78.066
2500.000000	78.131
2540.000000	78.211
2580.000000	78.282
2620.000000	78.345
2650.000000	78.386
2690.000000	78.435
2720.000000	78.467
2760.000000	78.503
2800.000000	78.531
2850.000000	78.555
2900.000000	78.568
2950.000000	78.570
3000.000000	78.563
3040.000000	78.552
3070.000000	78.541
3110.000000	78.523
3150.000000	78.500
3200.000000	78.466
3250.000000	78.425
3300.000000	78.380
3350.000000	78.332
3400.000000	78.280
3450.000000	78.226
3500.000000	78.168
3550.000000	78.109
3600.000000	78.048
3650.000000	77.987
3700.000000	77.923
3750.000000	77.860
3820.000000	77.772
3870.000000	77.713
3950.000000	77.625
4000.000000	77.571
4060.000000	77.508
4120.000000	77.448
4180.000000	77.394
4250.000000	77.339
4310.000000	77.296
4370.000000	77.254
4440.000000	77.199
4500.000000	77.143
4550.000000	77.088
4620.000000	76.997
4680.000000	76.905
4750.000000	76.782
4820.000000	76.638
4870.000000	76.520
4940.000000	76.335
5000.000000	76.161
5080.000000	75.914
5150.000000	75.687
5220.000000	75.453
5300.000000	75.177
5380.000000	74.892
5450.000000	74.635
5520.000000	74.368
5600.000000	74.055
5700.000000	73.666
5800.000000	73.307
5900.000000	72.963
6000.000000	72.602
6080.000000	72.315
6150.000000	72.073
6220.000000	71.843
6300.000000	71.598
6400.000000	71.317
6500.000000	71.064
6600.000000	70.838
6700.000000	70.640
6800.000000	70.468
6900.000000	70.328
7000.000000	70.222
7100.000000	70.151
7200.000000	70.118
7300.000000	70.120
7400.000000	70.154
7500.000000	70.220
7620.000000	70.341
7750.000000	70.512
7880.000000	70.732
8000.000000	70.994
8120.000000	71.322
8250.000000	71.764
8380.000000	72.309
8500.000000	72.904
8620.000000	73.576
8750.000000	74.350
8850.000000	74.926
9000.000000	75.611
9120.000000	75.854
9250.000000	75.694
9380.000000	75.079
9500.000000	74.185
9620.000000	73.096
9750.000000	71.830
9880.000000	70.571
10000.000000	69.461
10150.000000	68.169
10300.000000	66.995
10440.000000	65.999
10600.000000	64.967
10750.000000	64.088
10900.000000	63.291
11060.000000	62.533
11200.000000	61.962
11380.000000	61.423
11500.000000	61.264
11720.000000	61.659
11800.000000	62.064
12060.000000	63.964
12200.000000	64.982
12410.000000	66.151
12500.000000	66.526
12650.000000	67.059
12800.000000	67.577
13150.000000	69.159
13200.000000	69.449
13400.000000	70.757
13600.000000	72.141
13800.000000	73.195
14000.000000	73.433
14300.000000	72.010
14500.000000	70.344
14750.000000	68.187
15000.000000	66.359
15250.000000	64.956
15500.000000	63.923
15750.000000	63.199
16000.000000	62.741
16250.000000	62.507
16500.000000	62.427
16750.000000	62.310
17000.000000	61.897
17250.000000	61.250
17500.000000	60.604
17750.000000	59.898
18000.000000	59.016
18250.000000	57.952
18500.000000	56.839
18750.000000	55.854
19000.000000	55.148
19250.000000	54.772
19500.000000	54.612
19750.000000	54.468
20000.000000	54.311