* Measurement data measured by REW V5.20.13
* Source: EXCL: Mic in at rear panel (Pink)(Realtek(R) Audio), MICROPHONE (마스), L, volume: 0.500
* Format: 256k Log Swept Sine, 1 sweep at -12.0 dBFS with no timing reference
* Dated: 2022. 10. 1 오후 4:23:29
* REW Settings:
*  C-weighting compensation: Off
*  Target level: 75.0 dB
* Note: 
* Measurement: R_UC
* Smoothing: 1/24 octave
* Frequency Step: 1/48 octave
* Start Frequency: 20.300 Hz
*
* Freq(Hz)	SPL(dB)	Phase(degrees)
20.299999	74.858	-136.2033
20.600000	74.909	-136.5505
20.900000	75.008	-137.1907
21.200001	75.092	-137.8522
21.400000	75.138	-138.3032
21.799999	75.212	-139.2394
22.000000	75.241	-139.7211
22.400000	75.285	-140.6819
22.700001	75.308	-141.3823
23.000000	75.324	-142.0540
23.299999	75.338	-142.6895
23.600000	75.352	-143.2884
24.000000	75.375	-144.0386
24.299999	75.397	-144.5788
24.700001	75.433	-145.2855
25.000000	75.460	-145.8069
25.400000	75.496	-146.4748
25.799999	75.531	-147.0791
26.200001	75.570	-147.5992
26.500000	75.606	-147.9461
26.900000	75.665	-148.3980
27.200001	75.716	-148.7777
27.600000	75.785	-149.3951
28.000000	75.840	-150.1559
28.500000	75.867	-151.2058
29.000000	75.840	-152.1145
29.500000	75.788	-152.6711
30.000000	75.762	-152.9027
30.400000	75.779	-153.0370
30.700001	75.811	-153.2130
31.100000	75.861	-153.6161
31.500000	75.902	-154.1819
32.000000	75.929	-154.9625
32.500000	75.940	-155.6709
33.000000	75.959	-156.3071
33.500000	75.992	-156.9784
34.000000	76.021	-157.7297
34.500000	76.032	-158.4719
35.000000	76.031	-159.0918
35.500000	76.034	-159.5714
36.000000	76.052	-159.9995
36.500000	76.077	-160.4642
37.000000	76.096	-160.9757
37.500000	76.103	-161.4834
38.200001	76.098	-162.1245
38.700001	76.088	-162.5377
39.500000	76.066	-163.0986
40.000000	76.060	-163.3697
40.599998	76.077	-163.7061
41.200001	76.109	-164.2047
41.799999	76.131	-164.8544
42.500000	76.140	-165.6010
43.099998	76.153	-166.1850
43.700001	76.169	-166.8214
44.400002	76.163	-167.5679
45.000000	76.142	-167.9974
45.500000	76.141	-168.1878
46.200001	76.185	-168.4931
46.799999	76.237	-169.0710
47.500000	76.244	-170.0845
48.200001	76.163	-171.0190
48.700001	76.071	-171.3651
49.400002	75.962	-171.3207
50.000000	75.934	-171.0781
50.799999	75.975	-171.0517
51.500000	76.018	-171.4332
52.200001	76.035	-171.9386
53.000000	76.044	-172.4566
53.799999	76.054	-172.9787
54.500000	76.050	-173.4488
55.200001	76.033	-173.8060
56.000000	76.024	-174.0628
57.000000	76.036	-174.4476
58.000000	76.035	-175.0102
59.000000	76.005	-175.6462
60.000000	75.951	-176.2207
60.799999	75.912	-176.6411
61.500000	75.878	-177.0216
62.200001	75.839	-177.3374
63.000000	75.810	-177.5658
64.000000	75.812	-177.8549
65.000000	75.826	-178.3526
66.000000	75.807	-178.9440
67.000000	75.760	-179.3290
68.000000	75.734	-179.5329
69.000000	75.735	-179.9116
70.000000	75.717	179.4242
71.000000	75.648	178.8269
72.000000	75.588	178.6287
73.000000	75.595	178.5133
74.000000	75.632	178.1249
75.000000	75.647	177.5140
76.199997	75.597	176.9159
77.500000	75.537	176.8531
78.800003	75.531	176.7222
80.000000	75.489	176.3577
81.199997	75.427	176.1836
82.500000	75.388	175.9299
83.800003	75.338	175.5597
85.000000	75.297	175.2343
86.199997	75.257	174.8438
87.500000	75.207	174.4337
88.500000	75.172	174.1674
90.000000	75.143	173.7989
91.199997	75.132	173.4140
92.500000	75.108	172.9763
93.800003	75.069	172.6918
95.000000	75.042	172.5718
96.199997	75.023	172.4182
97.500000	74.990	172.1729
98.800003	74.938	171.9397
100.000000	74.889	171.8185
101.500000	74.851	171.6778
103.000000	74.823	171.4058
104.400002	74.787	171.0883
106.000000	74.728	170.7696
107.500000	74.678	170.5580
109.000000	74.640	170.3485
110.599998	74.612	170.1275
112.000000	74.589	169.9094
113.800003	74.544	169.6358
115.000000	74.501	169.4611
117.199997	74.400	169.0729
118.000000	74.356	168.8993
120.599998	74.215	168.6125
122.000000	74.192	168.5828
124.099998	74.177	168.3620
125.000000	74.158	168.2809
126.500000	74.111	168.2345
128.000000	74.055	168.2690
131.500000	73.959	168.2815
132.000000	73.948	168.2384
134.000000	73.887	168.1150
136.000000	73.825	168.2838
138.000000	73.784	168.4608
140.000000	73.731	168.5659
143.000000	73.678	168.8325
145.000000	73.675	168.9681
147.500000	73.687	169.0580
150.000000	73.690	168.9380
152.500000	73.675	168.7024
155.000000	73.657	168.4074
157.500000	73.624	168.1144
160.000000	73.580	167.8749
162.500000	73.526	167.6602
165.000000	73.469	167.5181
167.500000	73.413	167.4273
170.000000	73.351	167.3031
172.500000	73.288	167.1899
175.000000	73.225	167.1704
177.500000	73.162	167.2492
180.000000	73.105	167.3324
182.500000	73.060	167.3829
185.000000	73.024	167.4784
187.500000	72.987	167.5840
190.000000	72.943	167.5640
192.500000	72.902	167.4703
195.000000	72.877	167.4082
197.500000	72.852	167.4116
200.000000	72.811	167.5012
203.000000	72.760	167.5959
206.000000	72.712	167.5977
209.000000	72.667	167.6534
212.000000	72.613	167.7503
214.000000	72.565	167.8220
218.000000	72.479	167.9664
220.000000	72.454	168.0307
224.000000	72.413	168.2274
227.000000	72.379	168.4554
230.000000	72.352	168.6945
233.000000	72.340	168.8600
236.000000	72.334	168.8911
240.000000	72.316	168.9234
243.000000	72.285	168.9823
247.000000	72.236	168.9282
250.000000	72.215	168.8376
254.000000	72.179	168.8346
258.000000	72.119	168.9722
262.000000	72.063	169.0583
265.000000	72.021	169.1221
269.000000	71.970	169.2345
272.000000	71.940	169.3158
276.000000	71.895	169.4561
280.000000	71.838	169.6833
285.000000	71.773	169.9168
290.000000	71.715	170.1702
295.000000	71.664	170.4956
300.000000	71.628	170.6587
304.000000	71.594	170.7657
307.000000	71.566	170.9012
311.000000	71.530	171.0935
315.000000	71.497	171.2602
320.000000	71.457	171.4872
325.000000	71.412	171.7383
330.000000	71.373	172.0156
335.000000	71.339	172.3339
340.000000	71.310	172.6079
345.000000	71.277	172.8669
350.000000	71.228	173.1409
355.000000	71.185	173.4409
360.000000	71.153	173.7157
365.000000	71.123	173.9772
370.000000	71.091	174.2880
375.000000	71.055	174.5792
382.000000	71.001	174.8971
387.000000	70.961	175.1441
395.000000	70.913	175.7011
400.000000	70.884	176.0508
406.000000	70.845	176.3777
412.000000	70.814	176.7167
418.000000	70.780	177.0752
425.000000	70.745	177.4202
431.000000	70.713	177.7311
437.000000	70.676	178.0624
444.000000	70.637	178.4636
450.000000	70.615	178.8298
455.000000	70.596	179.1078
462.000000	70.576	179.4890
468.000000	70.562	179.8571
475.000000	70.532	-179.6625
482.000000	70.500	-179.2080
487.000000	70.484	-178.9473
494.000000	70.466	-178.5590
500.000000	70.452	-178.2054
508.000000	70.429	-177.7359
515.000000	70.402	-177.2669
522.000000	70.385	-176.8297
530.000000	70.379	-176.4309
538.000000	70.371	-176.0037
545.000000	70.351	-175.5336
552.000000	70.326	-175.0699
560.000000	70.300	-174.6031
570.000000	70.292	-174.0620
580.000000	70.284	-173.4219
590.000000	70.260	-172.8074
600.000000	70.244	-172.2115
608.000000	70.227	-171.6995
615.000000	70.214	-171.2729
622.000000	70.211	-170.8705
630.000000	70.209	-170.3944
640.000000	70.197	-169.7735
650.000000	70.193	-169.1348
660.000000	70.193	-168.4683
670.000000	70.196	-167.8591
680.000000	70.194	-167.2077
690.000000	70.195	-166.5780
700.000000	70.194	-165.9370
710.000000	70.188	-165.3064
720.000000	70.193	-164.6966
730.000000	70.200	-164.0362
740.000000	70.212	-163.3688
750.000000	70.223	-162.7189
762.000000	70.232	-161.9774
775.000000	70.251	-161.0864
788.000000	70.281	-160.1911
800.000000	70.307	-159.3821
812.000000	70.335	-158.6264
825.000000	70.371	-157.8428
838.000000	70.414	-157.0719
850.000000	70.453	-156.3457
862.000000	70.495	-155.5485
875.000000	70.547	-154.6568
885.000000	70.598	-153.9324
900.000000	70.705	-152.8192
912.000000	70.828	-152.0314
925.000000	70.965	-151.6058
938.000000	71.050	-151.5268
950.000000	71.085	-151.3132
962.000000	71.111	-150.8486
975.000000	71.150	-150.1775
988.000000	71.203	-149.4712
1000.000000	71.265	-148.8604
1015.000000	71.365	-148.2702
1030.000000	71.470	-147.7099
1044.000000	71.570	-147.1894
1060.000000	71.684	-146.6600
1075.000000	71.787	-146.2052
1090.000000	71.903	-145.7877
1106.000000	72.041	-145.3923
1120.000000	72.157	-145.1212
1138.000000	72.301	-144.8649
1150.000000	72.397	-144.6889
1172.000000	72.566	-144.3845
1180.000000	72.626	-144.3044
1206.000000	72.825	-144.1265
1220.000000	72.925	-144.0979
1241.000000	73.076	-144.0487
1250.000000	73.138	-144.0246
1265.000000	73.233	-144.0227
1280.000000	73.325	-144.0527
1315.000000	73.529	-144.1059
1320.000000	73.555	-144.1093
1340.000000	73.658	-144.1564
1360.000000	73.754	-144.2337
1380.000000	73.849	-144.2972
1400.000000	73.947	-144.3603
1430.000000	74.089	-144.4344
1450.000000	74.177	-144.4791
1475.000000	74.277	-144.5109
1500.000000	74.371	-144.5306
1525.000000	74.472	-144.5438
1550.000000	74.572	-144.5754
1575.000000	74.670	-144.5900
1600.000000	74.770	-144.5802
1625.000000	74.868	-144.5814
1650.000000	74.965	-144.6090
1675.000000	75.060	-144.6200
1700.000000	75.152	-144.6199
1725.000000	75.249	-144.6346
1750.000000	75.344	-144.6492
1775.000000	75.435	-144.6765
1800.000000	75.526	-144.7345
1825.000000	75.618	-144.7980
1850.000000	75.710	-144.8572
1875.000000	75.799	-144.9237
1900.000000	75.886	-145.0088
1925.000000	75.977	-145.0981
1950.000000	76.066	-145.1960
1975.000000	76.155	-145.3154
2000.000000	76.245	-145.4453
2030.000000	76.353	-145.6013
2060.000000	76.461	-145.7608
2090.000000	76.566	-145.9731
2120.000000	76.670	-146.2081
2140.000000	76.738	-146.3636
2180.000000	76.871	-146.7133
2200.000000	76.936	-146.9008
2240.000000	77.064	-147.2874
2270.000000	77.159	-147.6022
2300.000000	77.252	-147.9413
2330.000000	77.342	-148.2892
2360.000000	77.428	-148.6380
2400.000000	77.535	-149.1274
2430.000000	77.614	-149.5222
2470.000000	77.720	-150.0577
2500.000000	77.796	-150.4620
2540.000000	77.896	-151.0214
2580.000000	77.988	-151.5883
2620.000000	78.074	-152.1452
2650.000000	78.140	-152.5581
2690.000000	78.230	-153.1069
2720.000000	78.297	-153.5308
2760.000000	78.386	-154.1139
2800.000000	78.471	-154.7410
2850.000000	78.573	-155.5939
2900.000000	78.667	-156.5038
2950.000000	78.749	-157.4413
3000.000000	78.823	-158.3769
3040.000000	78.876	-159.1143
3070.000000	78.912	-159.6646
3110.000000	78.959	-160.3936
3150.000000	79.002	-161.1227
3200.000000	79.049	-162.0512
3250.000000	79.092	-162.9837
3300.000000	79.132	-163.9029
3350.000000	79.166	-164.8168
3400.000000	79.199	-165.7183
3450.000000	79.234	-166.6149
3500.000000	79.273	-167.5028
3550.000000	79.313	-168.3879
3600.000000	79.352	-169.2891
3650.000000	79.390	-170.2253
3700.000000	79.424	-171.2010
3750.000000	79.453	-172.2220
3820.000000	79.481	-173.7156
3870.000000	79.487	-174.8196
3950.000000	79.465	-176.5983
4000.000000	79.439	-177.6981
4060.000000	79.395	-179.0128
4120.000000	79.340	179.6823
4180.000000	79.274	178.3914
4250.000000	79.182	176.8995
4310.000000	79.087	175.6460
4370.000000	78.969	174.4174
4440.000000	78.807	173.0245
4500.000000	78.655	171.8892
4550.000000	78.519	170.9847
4620.000000	78.316	169.7877
4680.000000	78.129	168.8289
4750.000000	77.898	167.7947
4820.000000	77.658	166.8848
4870.000000	77.479	166.3174
4940.000000	77.220	165.6452
5000.000000	76.995	165.1649
5080.000000	76.690	164.6524
5150.000000	76.424	164.3483
5220.000000	76.157	164.1763
5300.000000	75.856	164.1394
5380.000000	75.559	164.2866
5450.000000	75.304	164.5301
5520.000000	75.060	164.8678
5600.000000	74.793	165.3884
5700.000000	74.477	166.2389
5800.000000	74.189	167.2834
5900.000000	73.932	168.4564
6000.000000	73.710	169.7320
6080.000000	73.563	170.8134
6150.000000	73.454	171.7765
6220.000000	73.363	172.7690
6300.000000	73.279	173.9515
6400.000000	73.207	175.4380
6500.000000	73.170	176.8869
6600.000000	73.177	178.3061
6700.000000	73.229	179.6739
6800.000000	73.324	-179.0422
6900.000000	73.483	-177.9164
7000.000000	73.708	-177.0078
7100.000000	73.981	-176.3661
7200.000000	74.298	-176.0118
7300.000000	74.659	-176.0202
7400.000000	75.058	-176.5067
7500.000000	75.490	-177.5914
7620.000000	76.048	-179.8498
7750.000000	76.638	176.2305
7880.000000	77.056	170.5418
8000.000000	77.202	163.8763
8120.000000	77.055	156.4006
8250.000000	76.527	148.4319
8380.000000	75.659	141.6688
8500.000000	74.652	137.0765
8620.000000	73.545	134.1552
8750.000000	72.311	132.6298
8850.000000	71.381	132.4099
9000.000000	70.061	133.3284
9120.000000	69.082	134.8421
9250.000000	68.094	137.0825
9380.000000	67.184	139.8489
9500.000000	66.415	142.7766
9620.000000	65.711	145.9448
9750.000000	65.017	149.6190
9880.000000	64.395	153.5326
10000.000000	63.873	157.3629
10150.000000	63.281	162.3785
10300.000000	62.753	167.6452
10440.000000	62.316	172.9003
10600.000000	61.902	179.2186
10750.000000	61.601	-174.5356
10900.000000	61.385	-167.8255
11060.000000	61.301	-160.0588
11200.000000	61.418	-152.8445
11380.000000	61.907	-143.5784
11500.000000	62.451	-137.8705
11720.000000	63.804	-129.6024
11800.000000	64.360	-127.4683
12060.000000	66.142	-123.4772
12200.000000	67.031	-122.6507
12410.000000	68.328	-122.3756
12500.000000	68.909	-122.5875
12650.000000	69.955	-123.5768
12800.000000	71.108	-125.7984
13150.000000	73.783	-140.1509
13200.000000	74.069	-143.5922
13400.000000	74.653	-160.1908
13600.000000	74.172	-177.5340
13800.000000	72.805	169.4471
14000.000000	71.044	162.2079
14300.000000	68.544	159.0369
14500.000000	67.211	159.6285
14750.000000	65.936	161.7144
15000.000000	65.009	164.3859
15250.000000	64.412	167.0936
15500.000000	64.150	169.2524
15750.000000	64.162	170.2041
16000.000000	64.334	169.3922
16250.000000	64.519	166.3557
16500.000000	64.540	160.9752
16750.000000	64.230	153.9438
17000.000000	63.517	146.6337
17250.000000	62.451	140.4217
17500.000000	61.172	135.8877
17750.000000	59.773	132.7525
18000.000000	58.234	131.1594
18250.000000	56.587	131.8787
18500.000000	55.020	134.2670
18750.000000	53.552	137.4693
19000.000000	52.113	141.5424
19250.000000	50.695	147.1274
19500.000000	49.365	154.2769
19750.000000	48.201	161.7231
20000.000000	47.386	166.7723
