* Measurement data measured by REW V5.20.13
* Source: EXCL: Mic in at rear panel (Pink)(Realtek(R) Audio), MICROPHONE (마스), L, volume: 0.500
* Format: 256k Log Swept Sine, 1 sweep at -12.0 dBFS with no timing reference
* Dated: 2022. 10. 1 오후 4:25:48
* REW Settings:
*  C-weighting compensation: Off
*  Target level: 75.0 dB
* Note: 
* Measurement: R_AEX70
* Smoothing: 1/24 octave
* Frequency Step: 1/48 octave
* Start Frequency: 20.300 Hz
*
* Freq(Hz)	SPL(dB)	Phase(degrees)
20.299999	74.941	-138.0841
20.600000	74.955	-138.2999
20.900000	74.989	-138.6664
21.200001	75.032	-138.9803
21.400000	75.066	-139.1986
21.799999	75.138	-139.7375
22.000000	75.173	-140.0773
22.400000	75.230	-140.8667
22.700001	75.259	-141.5013
23.000000	75.280	-142.1291
23.299999	75.296	-142.7322
23.600000	75.314	-143.3102
24.000000	75.341	-144.0518
24.299999	75.367	-144.5951
24.700001	75.405	-145.3058
25.000000	75.437	-145.8275
25.400000	75.483	-146.5081
25.799999	75.530	-147.1736
26.200001	75.577	-147.8185
26.500000	75.609	-148.2785
26.900000	75.650	-148.8480
27.200001	75.680	-149.2438
27.600000	75.724	-149.7518
28.000000	75.773	-150.2827
28.500000	75.833	-151.0394
29.000000	75.876	-151.9020
29.500000	75.893	-152.7956
30.000000	75.889	-153.6192
30.400000	75.879	-154.1934
30.700001	75.874	-154.5815
31.100000	75.872	-155.0758
31.500000	75.874	-155.5792
32.000000	75.874	-156.2368
32.500000	75.863	-156.8606
33.000000	75.849	-157.3532
33.500000	75.852	-157.7151
34.000000	75.876	-158.0662
34.500000	75.905	-158.5038
35.000000	75.920	-158.9773
35.500000	75.924	-159.3583
36.000000	75.938	-159.6360
36.500000	75.973	-159.9597
37.000000	76.010	-160.4746
37.500000	76.023	-161.1415
38.200001	75.993	-161.9944
38.700001	75.967	-162.4191
39.500000	75.973	-163.0304
40.000000	75.997	-163.5305
40.599998	76.026	-164.2265
41.200001	76.056	-164.9102
41.799999	76.099	-165.5955
42.500000	76.155	-166.5628
43.099998	76.164	-167.5052
43.700001	76.116	-168.2236
44.400002	76.039	-168.4378
45.000000	76.016	-168.2000
45.500000	76.046	-167.9825
46.200001	76.137	-168.0012
46.799999	76.221	-168.5214
47.500000	76.250	-169.7037
48.200001	76.150	-170.9239
48.700001	76.027	-171.3616
49.400002	75.895	-171.2697
50.000000	75.878	-171.0699
50.799999	75.923	-171.3280
51.500000	75.937	-171.8257
52.200001	75.939	-172.1929
53.000000	75.962	-172.5345
53.799999	75.985	-172.9942
54.500000	75.981	-173.4429
55.200001	75.951	-173.8150
56.000000	75.907	-174.0320
57.000000	75.892	-174.2328
58.000000	75.883	-174.7964
59.000000	75.845	-175.3284
60.000000	75.846	-175.8505
60.799999	75.847	-176.5018
61.500000	75.824	-177.0456
62.200001	75.795	-177.4227
63.000000	75.777	-177.6960
64.000000	75.791	-177.9951
65.000000	75.821	-178.5582
66.000000	75.801	-179.2830
67.000000	75.751	-179.7176
68.000000	75.725	179.9865
69.000000	75.704	179.6223
70.000000	75.673	179.1838
71.000000	75.604	178.7232
72.000000	75.511	178.5134
73.000000	75.440	178.4034
74.000000	75.376	178.2309
75.000000	75.329	178.1162
76.199997	75.321	177.8284
77.500000	75.319	177.2238
78.800003	75.294	176.6849
80.000000	75.299	176.3926
81.199997	75.335	175.7246
82.500000	75.290	174.7678
83.800003	75.225	174.2930
85.000000	75.209	174.0490
86.199997	75.213	173.7224
87.500000	75.147	173.5273
88.500000	75.083	173.8997
90.000000	75.042	174.4836
91.199997	74.983	174.7179
92.500000	74.936	174.9280
93.800003	74.929	174.6152
95.000000	74.891	173.9750
96.199997	74.838	173.5085
97.500000	74.806	173.1730
98.800003	74.791	172.8531
100.000000	74.773	172.5024
101.500000	74.740	172.1405
103.000000	74.720	171.7448
104.400002	74.672	171.4431
106.000000	74.612	171.3953
107.500000	74.555	171.3154
109.000000	74.492	171.1061
110.599998	74.448	170.7237
112.000000	74.434	170.3914
113.800003	74.426	170.2966
115.000000	74.389	170.4984
117.199997	74.150	171.5240
118.000000	74.025	172.2194
120.599998	73.968	173.7455
122.000000	74.011	172.2506
124.099998	73.938	170.1721
125.000000	73.922	169.8106
126.500000	73.924	169.6954
128.000000	73.921	169.8603
131.500000	73.865	170.2675
132.000000	73.864	170.2931
134.000000	73.893	170.4114
136.000000	73.948	170.6262
138.000000	73.979	170.8521
140.000000	73.976	170.9041
143.000000	73.915	170.4939
145.000000	73.866	170.1633
147.500000	73.850	169.8012
150.000000	73.857	169.3113
152.500000	73.838	169.0300
155.000000	73.799	168.8795
157.500000	73.739	168.6238
160.000000	73.677	168.2961
162.500000	73.626	168.0522
165.000000	73.587	167.8843
167.500000	73.544	167.7038
170.000000	73.494	167.5609
172.500000	73.450	167.4399
175.000000	73.405	167.3007
177.500000	73.353	167.2276
180.000000	73.297	167.2216
182.500000	73.240	167.2094
185.000000	73.186	167.2041
187.500000	73.135	167.2059
190.000000	73.075	167.2395
192.500000	73.021	167.2624
195.000000	72.983	167.2101
197.500000	72.949	167.1318
200.000000	72.907	167.1305
203.000000	72.858	167.1853
206.000000	72.814	167.2772
209.000000	72.767	167.4699
212.000000	72.721	167.5698
214.000000	72.694	167.4830
218.000000	72.643	167.3199
220.000000	72.620	167.3483
224.000000	72.566	167.5360
227.000000	72.520	167.6509
230.000000	72.462	167.6826
233.000000	72.407	167.7344
236.000000	72.369	167.8014
240.000000	72.329	167.8416
243.000000	72.289	167.8670
247.000000	72.223	168.0436
250.000000	72.185	168.2056
254.000000	72.138	168.3444
258.000000	72.081	168.4873
262.000000	72.033	168.5882
265.000000	71.992	168.6499
269.000000	71.939	168.8112
272.000000	71.906	168.9709
276.000000	71.853	169.1715
280.000000	71.797	169.3462
285.000000	71.746	169.5148
290.000000	71.694	169.7076
295.000000	71.639	169.9314
300.000000	71.586	170.1547
304.000000	71.561	170.3819
307.000000	71.549	170.5413
311.000000	71.533	170.7450
315.000000	71.504	170.9673
320.000000	71.454	171.2365
325.000000	71.413	171.4740
330.000000	71.378	171.6761
335.000000	71.344	171.9382
340.000000	71.308	172.2375
345.000000	71.273	172.5372
350.000000	71.237	172.7935
355.000000	71.204	173.0225
360.000000	71.169	173.2714
365.000000	71.123	173.5303
370.000000	71.080	173.8246
375.000000	71.050	174.1423
382.000000	71.001	174.5767
387.000000	70.961	174.8419
395.000000	70.910	175.2687
400.000000	70.870	175.6072
406.000000	70.835	176.0190
412.000000	70.806	176.2853
418.000000	70.777	176.5518
425.000000	70.747	176.9883
431.000000	70.718	177.3279
437.000000	70.697	177.6464
444.000000	70.657	178.0663
450.000000	70.616	178.4141
455.000000	70.593	178.7032
462.000000	70.581	179.1525
468.000000	70.568	179.5364
475.000000	70.536	179.8766
482.000000	70.509	-179.7844
487.000000	70.499	-179.5015
494.000000	70.478	-179.1092
500.000000	70.452	-178.7834
508.000000	70.430	-178.2932
515.000000	70.414	-177.8557
522.000000	70.399	-177.4564
530.000000	70.379	-176.9989
538.000000	70.355	-176.5364
545.000000	70.337	-176.0776
552.000000	70.328	-175.6309
560.000000	70.318	-175.1336
570.000000	70.294	-174.5231
580.000000	70.271	-173.9451
590.000000	70.258	-173.3632
600.000000	70.242	-172.7737
608.000000	70.231	-172.3392
615.000000	70.228	-171.9599
622.000000	70.226	-171.5458
630.000000	70.226	-171.0411
640.000000	70.220	-170.3875
650.000000	70.210	-169.7300
660.000000	70.198	-169.1596
670.000000	70.181	-168.5662
680.000000	70.168	-167.8923
690.000000	70.171	-167.2636
700.000000	70.178	-166.7016
710.000000	70.178	-166.1360
720.000000	70.176	-165.5123
730.000000	70.187	-164.8795
740.000000	70.203	-164.2301
750.000000	70.215	-163.5955
762.000000	70.229	-162.7910
775.000000	70.240	-161.9486
788.000000	70.259	-161.1343
800.000000	70.282	-160.3553
812.000000	70.311	-159.5453
825.000000	70.355	-158.6730
838.000000	70.395	-157.8500
850.000000	70.436	-157.1586
862.000000	70.480	-156.3755
875.000000	70.532	-155.4502
885.000000	70.586	-154.7408
900.000000	70.698	-153.6821
912.000000	70.825	-152.9709
925.000000	70.961	-152.6822
938.000000	71.032	-152.6456
950.000000	71.058	-152.3669
962.000000	71.086	-151.8699
975.000000	71.129	-151.2245
988.000000	71.182	-150.4910
1000.000000	71.247	-149.8437
1015.000000	71.352	-149.2537
1030.000000	71.452	-148.7041
1044.000000	71.541	-148.2272
1060.000000	71.650	-147.7494
1075.000000	71.762	-147.3231
1090.000000	71.877	-146.9675
1106.000000	72.003	-146.6121
1120.000000	72.118	-146.2972
1138.000000	72.265	-145.9529
1150.000000	72.359	-145.7778
1172.000000	72.529	-145.5410
1180.000000	72.592	-145.4757
1206.000000	72.787	-145.3288
1220.000000	72.881	-145.2726
1241.000000	73.024	-145.2414
1250.000000	73.084	-145.2335
1265.000000	73.181	-145.2166
1280.000000	73.274	-145.2072
1315.000000	73.477	-145.3026
1320.000000	73.504	-145.3239
1340.000000	73.609	-145.4015
1360.000000	73.704	-145.4799
1380.000000	73.796	-145.5524
1400.000000	73.889	-145.6226
1430.000000	74.023	-145.7614
1450.000000	74.103	-145.8190
1475.000000	74.205	-145.8830
1500.000000	74.310	-145.9383
1525.000000	74.406	-145.9680
1550.000000	74.496	-145.9873
1575.000000	74.586	-146.0108
1600.000000	74.679	-146.0312
1625.000000	74.770	-146.0571
1650.000000	74.856	-146.0658
1675.000000	74.944	-146.0621
1700.000000	75.030	-146.0506
1725.000000	75.115	-146.0279
1750.000000	75.200	-146.0023
1775.000000	75.285	-145.9798
1800.000000	75.366	-145.9497
1825.000000	75.447	-145.9151
1850.000000	75.532	-145.8586
1875.000000	75.619	-145.7738
1900.000000	75.713	-145.6852
1925.000000	75.819	-145.5833
1950.000000	75.931	-145.5085
1975.000000	76.051	-145.4969
2000.000000	76.179	-145.5572
2030.000000	76.330	-145.7509
2060.000000	76.469	-146.0487
2090.000000	76.598	-146.4026
2120.000000	76.719	-146.7818
2140.000000	76.794	-147.0303
2180.000000	76.937	-147.5111
2200.000000	77.007	-147.7493
2240.000000	77.142	-148.2367
2270.000000	77.238	-148.6172
2300.000000	77.330	-149.0167
2330.000000	77.425	-149.4381
2360.000000	77.517	-149.8711
2400.000000	77.635	-150.4830
2430.000000	77.722	-150.9432
2470.000000	77.836	-151.5358
2500.000000	77.919	-151.9987
2540.000000	78.028	-152.6476
2580.000000	78.132	-153.3315
2620.000000	78.230	-154.0364
2650.000000	78.301	-154.5745
2690.000000	78.391	-155.3098
2720.000000	78.454	-155.8664
2760.000000	78.533	-156.6187
2800.000000	78.607	-157.3737
2850.000000	78.693	-158.3167
2900.000000	78.774	-159.2835
2950.000000	78.851	-160.2636
3000.000000	78.921	-161.2284
3040.000000	78.976	-161.9981
3070.000000	79.013	-162.5870
3110.000000	79.059	-163.3770
3150.000000	79.104	-164.1650
3200.000000	79.160	-165.1594
3250.000000	79.212	-166.1744
3300.000000	79.258	-167.2201
3350.000000	79.298	-168.2977
3400.000000	79.332	-169.3987
3450.000000	79.362	-170.5065
3500.000000	79.390	-171.6095
3550.000000	79.413	-172.7132
3600.000000	79.429	-173.8156
3650.000000	79.438	-174.9215
3700.000000	79.441	-176.0174
3750.000000	79.440	-177.1022
3820.000000	79.425	-178.6384
3870.000000	79.402	-179.7266
3950.000000	79.348	178.5491
4000.000000	79.303	177.4693
4060.000000	79.241	176.1785
4120.000000	79.169	174.9006
4180.000000	79.086	173.6454
4250.000000	78.976	172.2187
4310.000000	78.867	171.0275
4370.000000	78.737	169.8604
4440.000000	78.564	168.5467
4500.000000	78.404	167.4768
4550.000000	78.264	166.6311
4620.000000	78.057	165.5257
4680.000000	77.870	164.6393
4750.000000	77.642	163.6938
4820.000000	77.406	162.8649
4870.000000	77.232	162.3296
4940.000000	76.982	161.6702
5000.000000	76.765	161.1961
5080.000000	76.469	160.7050
5150.000000	76.205	160.4152
5220.000000	75.941	160.2635
5300.000000	75.644	160.2487
5380.000000	75.359	160.3734
5450.000000	75.118	160.5956
5520.000000	74.883	160.9185
5600.000000	74.627	161.3984
5700.000000	74.329	162.1493
5800.000000	74.055	163.0882
5900.000000	73.805	164.1652
6000.000000	73.590	165.3082
6080.000000	73.443	166.2750
6150.000000	73.333	167.1749
6220.000000	73.239	168.1343
6300.000000	73.150	169.2750
6400.000000	73.070	170.7173
6500.000000	73.033	172.1526
6600.000000	73.042	173.5751
6700.000000	73.094	174.9597
6800.000000	73.193	176.2814
6900.000000	73.363	177.4923
7000.000000	73.609	178.5283
7100.000000	73.922	179.3176
7200.000000	74.298	179.7618
7300.000000	74.732	179.7562
7400.000000	75.218	179.1301
7500.000000	75.743	177.7357
7620.000000	76.404	174.8437
7750.000000	77.080	169.8736
7880.000000	77.529	162.8325
8000.000000	77.638	154.8393
8120.000000	77.391	146.2430
8250.000000	76.716	137.4944
8380.000000	75.698	130.4190
8500.000000	74.572	125.7737
8620.000000	73.370	122.8856
8750.000000	72.062	121.4222
8850.000000	71.083	121.2312
9000.000000	69.691	122.1131
9120.000000	68.657	123.6221
9250.000000	67.623	125.8430
9380.000000	66.671	128.5302
9500.000000	65.861	131.3395
9620.000000	65.113	134.3976
9750.000000	64.366	137.9198
9880.000000	63.670	141.6630
10000.000000	63.081	145.3629
10150.000000	62.424	150.2946
10300.000000	61.828	155.4931
10440.000000	61.326	160.5099
10600.000000	60.824	166.5506
10750.000000	60.408	172.6456
10900.000000	60.076	179.2488
11060.000000	59.862	-173.0036
11200.000000	59.828	-165.7546
11380.000000	60.084	-156.4529
11500.000000	60.464	-150.6320
11720.000000	61.508	-141.8216
11800.000000	61.945	-139.4218
12060.000000	63.308	-134.3451
12200.000000	63.929	-132.7200
12410.000000	64.736	-130.7479
12500.000000	65.066	-129.9314
12650.000000	65.641	-128.5813
12800.000000	66.281	-127.3087
13150.000000	68.197	-125.6915
13200.000000	68.529	-125.7864
13400.000000	69.990	-127.6672
13600.000000	71.554	-133.0874
13800.000000	72.894	-143.3361
14000.000000	73.583	-157.9948
14300.000000	72.970	179.3378
14500.000000	71.754	168.8532
14750.000000	69.985	161.6194
15000.000000	68.390	158.5763
15250.000000	67.140	157.5952
15500.000000	66.264	157.2228
15750.000000	65.687	156.4642
16000.000000	65.254	154.7160
16250.000000	64.822	151.6972
16500.000000	64.252	147.6231
16750.000000	63.431	143.2882
17000.000000	62.346	139.6441
17250.000000	61.066	137.4139
17500.000000	59.715	136.9104
17750.000000	58.366	137.9048
18000.000000	56.980	140.6114
18250.000000	55.636	145.6812
18500.000000	54.579	152.3542
18750.000000	53.881	159.5287
19000.000000	53.475	166.3810
19250.000000	53.257	172.1101
19500.000000	53.128	176.3494
19750.000000	53.021	179.0219
20000.000000	52.906	-179.6320
