* Measurement data measured by REW V5.20.9
* Source: Mic in at rear panel (Pink)(Realtek(R) Audio), MICROPHONE (마스), L, volume: 0.500
* Format: 256k Log Swept Sine, 1 sweep at -12.0 dBFS with no timing reference
* Dated: 2022. 9. 24 오후 12:13:04
* REW Settings:
*  C-weighting compensation: Off
*  Target level: 75.0 dB
* Note: 
* Measurement: R_Spring
* Smoothing: 1/24 octave
* Frequency Step: 1/48 octave
* Start Frequency: 20.300 Hz
*
* Freq(Hz)	SPL(dB)	Phase(degrees)
20.299999	68.905	40.9255
20.600000	68.983	40.3025
20.900000	69.111	39.0406
21.200001	69.158	37.5240
21.400000	69.142	36.5768
21.799999	69.052	35.1482
22.000000	69.007	34.7402
22.400000	68.982	34.3924
22.700001	69.033	34.2123
23.000000	69.123	33.8344
23.299999	69.215	33.2334
23.600000	69.287	32.5198
24.000000	69.350	31.6284
24.299999	69.387	31.1204
24.700001	69.451	30.6100
25.000000	69.513	30.2240
25.400000	69.599	29.5631
25.799999	69.660	28.7376
26.200001	69.680	27.8939
26.500000	69.675	27.3362
26.900000	69.655	26.7210
27.200001	69.640	26.3192
27.600000	69.624	25.7886
28.000000	69.611	25.2096
28.500000	69.590	24.4290
29.000000	69.565	23.6565
29.500000	69.548	22.9268
30.000000	69.549	22.2149
30.400000	69.563	21.6301
30.700001	69.579	21.1764
31.100000	69.604	20.5611
31.500000	69.630	19.9557
32.000000	69.664	19.2447
32.500000	69.702	18.5861
33.000000	69.742	17.9518
33.500000	69.776	17.3376
34.000000	69.801	16.7851
34.500000	69.819	16.3193
35.000000	69.842	15.8875
35.500000	69.867	15.3879
36.000000	69.880	14.7809
36.500000	69.873	14.1352
37.000000	69.851	13.5586
37.500000	69.834	13.0710
38.200001	69.840	12.3344
38.700001	69.851	11.6292
39.500000	69.823	10.4139
40.000000	69.789	9.9079
40.599998	69.787	9.6166
41.200001	69.858	9.2710
41.799999	69.947	8.5129
42.500000	69.982	7.3345
43.099998	69.956	6.6023
43.700001	69.941	6.2126
44.400002	69.966	5.7694
45.000000	69.987	5.1882
45.500000	69.987	4.6590
46.200001	69.974	3.9755
46.799999	69.967	3.3868
47.500000	69.952	2.6555
48.200001	69.934	1.9922
48.700001	69.931	1.5687
49.400002	69.945	0.9362
50.000000	69.958	0.3197
50.799999	69.959	-0.4910
51.500000	69.950	-1.0742
52.200001	69.943	-1.5057
53.000000	69.952	-1.8851
53.799999	69.976	-2.3340
54.500000	69.984	-2.8330
55.200001	69.972	-3.3115
56.000000	69.958	-3.7858
57.000000	69.948	-4.4754
58.000000	69.922	-5.2652
59.000000	69.888	-6.0938
60.000000	69.828	-6.8402
60.799999	69.797	-7.1336
61.500000	69.822	-7.3686
62.200001	69.872	-7.8890
63.000000	69.894	-8.7920
64.000000	69.839	-9.7764
65.000000	69.768	-10.1796
66.000000	69.762	-10.3594
67.000000	69.791	-10.8522
68.000000	69.794	-11.5783
69.000000	69.773	-12.3109
70.000000	69.733	-12.9737
71.000000	69.687	-13.4207
72.000000	69.671	-13.6927
73.000000	69.687	-14.0879
74.000000	69.687	-14.7556
75.000000	69.641	-15.4575
76.199997	69.561	-16.0992
77.500000	69.487	-16.5866
78.800003	69.477	-17.0322
80.000000	69.488	-17.6723
81.199997	69.509	-18.1684
82.500000	69.565	-18.7613
83.800003	69.598	-19.4839
85.000000	69.590	-20.1243
86.199997	69.560	-20.6494
87.500000	69.526	-21.2331
88.500000	69.495	-21.7305
90.000000	69.457	-22.5144
91.199997	69.439	-23.2505
92.500000	69.404	-24.1177
93.800003	69.354	-24.8085
95.000000	69.315	-25.2735
96.199997	69.285	-25.7013
97.500000	69.246	-26.1748
98.800003	69.197	-26.6424
100.000000	69.144	-27.0809
101.500000	69.068	-27.5965
103.000000	68.988	-28.0032
104.400002	68.914	-28.2387
106.000000	68.833	-28.3884
107.500000	68.746	-28.3982
109.000000	68.663	-28.1685
110.599998	68.610	-27.6190
112.000000	68.626	-26.8053
113.800003	68.784	-25.5275
115.000000	68.968	-24.8972
117.199997	69.319	-24.9917
118.000000	69.420	-25.4021
120.599998	69.716	-27.9839
122.000000	69.797	-30.3062
124.099998	69.771	-33.3786
125.000000	69.743	-34.3436
126.500000	69.693	-35.5877
128.000000	69.632	-36.5339
131.500000	69.470	-38.3706
132.000000	69.448	-38.6194
134.000000	69.368	-39.5669
136.000000	69.297	-40.4057
138.000000	69.231	-41.1551
140.000000	69.169	-41.8974
143.000000	69.079	-42.9866
145.000000	69.018	-43.6621
147.500000	68.943	-44.4147
150.000000	68.881	-45.1599
152.500000	68.828	-45.9277
155.000000	68.773	-46.7102
157.500000	68.712	-47.4676
160.000000	68.648	-48.2174
162.500000	68.586	-48.9479
165.000000	68.531	-49.6418
167.500000	68.478	-50.3167
170.000000	68.423	-50.9900
172.500000	68.368	-51.6635
175.000000	68.315	-52.3233
177.500000	68.259	-52.9469
180.000000	68.204	-53.5374
182.500000	68.153	-54.1273
185.000000	68.104	-54.7248
187.500000	68.054	-55.3268
190.000000	68.003	-55.9232
192.500000	67.954	-56.4891
195.000000	67.907	-57.0274
197.500000	67.861	-57.5929
200.000000	67.811	-58.1781
203.000000	67.752	-58.8601
206.000000	67.699	-59.5667
209.000000	67.647	-60.3032
212.000000	67.590	-60.9563
214.000000	67.554	-61.3253
218.000000	67.483	-62.0850
220.000000	67.447	-62.4808
224.000000	67.371	-63.2528
227.000000	67.313	-63.8231
230.000000	67.259	-64.4113
233.000000	67.204	-64.9447
236.000000	67.147	-65.4351
240.000000	67.064	-66.1084
243.000000	67.001	-66.6189
247.000000	66.916	-67.2661
250.000000	66.858	-67.7027
254.000000	66.786	-68.1962
258.000000	66.710	-68.5566
262.000000	66.645	-68.8100
265.000000	66.616	-68.9481
269.000000	66.615	-69.2167
272.000000	66.632	-69.6263
276.000000	66.650	-70.3978
280.000000	66.639	-71.2813
285.000000	66.593	-72.3803
290.000000	66.527	-73.3070
295.000000	66.449	-74.1138
300.000000	66.367	-74.9062
304.000000	66.310	-75.4881
307.000000	66.272	-75.8755
311.000000	66.222	-76.3791
315.000000	66.175	-76.8994
320.000000	66.119	-77.5098
325.000000	66.062	-78.0909
330.000000	66.007	-78.6294
335.000000	65.951	-79.1437
340.000000	65.895	-79.6540
345.000000	65.841	-80.1490
350.000000	65.790	-80.6440
355.000000	65.740	-81.1223
360.000000	65.689	-81.5411
365.000000	65.637	-81.9403
370.000000	65.588	-82.3665
375.000000	65.539	-82.8067
382.000000	65.472	-83.3479
387.000000	65.429	-83.6974
395.000000	65.360	-84.2508
400.000000	65.322	-84.5806
406.000000	65.279	-84.9599
412.000000	65.232	-85.3627
418.000000	65.192	-85.7643
425.000000	65.154	-86.1544
431.000000	65.120	-86.4942
437.000000	65.090	-86.8435
444.000000	65.056	-87.2173
450.000000	65.030	-87.4882
455.000000	65.012	-87.7043
462.000000	64.992	-88.0284
468.000000	64.979	-88.3102
475.000000	64.966	-88.5838
482.000000	64.954	-88.8699
487.000000	64.946	-89.0889
494.000000	64.935	-89.3512
500.000000	64.928	-89.5290
508.000000	64.926	-89.7629
515.000000	64.928	-89.9620
522.000000	64.929	-90.1724
530.000000	64.927	-90.4075
538.000000	64.928	-90.5871
545.000000	64.930	-90.7452
552.000000	64.935	-90.9116
560.000000	64.947	-91.0496
570.000000	64.969	-91.1910
580.000000	64.988	-91.3452
590.000000	65.005	-91.4960
600.000000	65.033	-91.6036
608.000000	65.064	-91.6815
615.000000	65.093	-91.7419
622.000000	65.122	-91.7934
630.000000	65.161	-91.8413
640.000000	65.212	-91.8989
650.000000	65.268	-91.9497
660.000000	65.328	-91.9536
670.000000	65.397	-91.9022
680.000000	65.478	-91.8439
690.000000	65.557	-91.8273
700.000000	65.640	-91.8214
710.000000	65.729	-91.7975
720.000000	65.823	-91.7770
730.000000	65.920	-91.7706
740.000000	66.023	-91.7688
750.000000	66.133	-91.7741
762.000000	66.269	-91.7852
775.000000	66.420	-91.8100
788.000000	66.577	-91.8576
800.000000	66.731	-91.9336
812.000000	66.889	-92.0311
825.000000	67.063	-92.1607
838.000000	67.246	-92.3260
850.000000	67.424	-92.5126
862.000000	67.611	-92.7227
875.000000	67.815	-93.0050
885.000000	67.971	-93.2371
900.000000	68.208	-93.6341
912.000000	68.400	-94.0122
925.000000	68.612	-94.4534
938.000000	68.827	-94.9568
950.000000	69.028	-95.4749
962.000000	69.231	-96.0271
975.000000	69.450	-96.6634
988.000000	69.665	-97.3285
1000.000000	69.860	-98.0014
1015.000000	70.109	-98.9674
1030.000000	70.354	-99.9865
1044.000000	70.573	-100.9747
1060.000000	70.813	-102.1618
1075.000000	71.031	-103.3416
1090.000000	71.247	-104.5856
1106.000000	71.474	-105.9523
1120.000000	71.664	-107.1751
1138.000000	71.899	-108.7749
1150.000000	72.049	-109.8409
1172.000000	72.307	-111.8131
1180.000000	72.398	-112.5380
1206.000000	72.680	-114.9345
1220.000000	72.822	-116.2565
1241.000000	73.016	-118.2642
1250.000000	73.092	-119.1257
1265.000000	73.208	-120.5479
1280.000000	73.316	-121.9435
1315.000000	73.537	-125.0867
1320.000000	73.565	-125.5236
1340.000000	73.669	-127.2439
1360.000000	73.760	-128.9058
1380.000000	73.846	-130.5046
1400.000000	73.931	-132.0490
1430.000000	74.047	-134.2330
1450.000000	74.120	-135.6134
1475.000000	74.204	-137.2726
1500.000000	74.283	-138.8154
1525.000000	74.359	-140.2427
1550.000000	74.433	-141.5551
1575.000000	74.518	-142.7225
1600.000000	74.622	-143.7805
1625.000000	74.749	-144.8583
1650.000000	74.889	-146.0787
1675.000000	75.020	-147.4333
1700.000000	75.134	-148.8276
1725.000000	75.231	-150.1943
1750.000000	75.320	-151.5032
1775.000000	75.407	-152.7581
1800.000000	75.495	-153.9856
1825.000000	75.584	-155.2087
1850.000000	75.674	-156.4229
1875.000000	75.764	-157.6388
1900.000000	75.852	-158.8650
1925.000000	75.936	-160.0915
1950.000000	76.016	-161.3162
1975.000000	76.091	-162.5266
2000.000000	76.159	-163.6868
2030.000000	76.236	-164.9589
2060.000000	76.323	-166.0729
2090.000000	76.443	-167.0528
2120.000000	76.614	-168.0369
2140.000000	76.757	-168.8297
2180.000000	77.059	-171.0640
2200.000000	77.186	-172.5078
2240.000000	77.343	-175.6814
2270.000000	77.375	-177.9348
2300.000000	77.364	-179.8317
2330.000000	77.347	178.6842
2360.000000	77.363	177.5356
2400.000000	77.475	176.1821
2430.000000	77.629	174.9690
2470.000000	77.890	172.7372
2500.000000	78.087	170.5261
2540.000000	78.295	166.9456
2580.000000	78.398	162.9093
2620.000000	78.381	158.7801
2650.000000	78.298	155.8195
2690.000000	78.122	152.2003
2720.000000	77.961	149.7238
2760.000000	77.719	146.6411
2800.000000	77.440	143.7598
2850.000000	77.031	140.5428
2900.000000	76.571	137.9230
2950.000000	76.091	135.9366
3000.000000	75.611	134.5152
3040.000000	75.235	133.7230
3070.000000	74.961	133.3113
3110.000000	74.606	132.9929
3150.000000	74.264	132.9168
3200.000000	73.858	133.1494
3250.000000	73.478	133.7253
3300.000000	73.122	134.6100
3350.000000	72.787	135.8022
3400.000000	72.468	137.3878
3450.000000	72.176	139.5624
3500.000000	71.947	142.5461
3550.000000	71.861	146.4446
3600.000000	72.036	150.9774
3650.000000	72.565	155.1888
3700.000000	73.386	157.6708
3750.000000	74.265	157.4175
3820.000000	75.141	153.0798
3870.000000	75.392	148.8919
3950.000000	75.294	143.3860
4000.000000	75.081	141.3650
4060.000000	74.817	140.2929
4120.000000	74.628	140.2249
4180.000000	74.547	140.6442
4250.000000	74.579	141.2543
4310.000000	74.692	141.6611
4370.000000	74.871	141.8349
4440.000000	75.158	141.5740
4500.000000	75.466	140.7503
4550.000000	75.751	139.4911
4620.000000	76.148	136.6218
4680.000000	76.429	132.9868
4750.000000	76.589	127.4274
4820.000000	76.470	120.9576
4870.000000	76.182	116.2961
4940.000000	75.506	110.5182
5000.000000	74.723	106.7871
5080.000000	73.509	103.9666
5150.000000	72.395	103.4777
5220.000000	71.315	104.5636
5300.000000	70.180	107.3774
5380.000000	69.192	111.5475
5450.000000	68.465	116.0528
5520.000000	67.866	121.1614
5600.000000	67.355	127.5385
5700.000000	66.984	136.0728
5800.000000	66.915	144.9185
5900.000000	67.160	153.6359
6000.000000	67.716	161.8287
6080.000000	68.370	167.7159
6150.000000	69.081	172.1722
6220.000000	69.905	175.8159
6300.000000	70.951	178.7757
6400.000000	72.340	-179.7065
6500.000000	73.680	179.0830
6600.000000	74.802	175.2581
6700.000000	75.575	169.6127
6800.000000	75.962	163.4685
6900.000000	76.042	158.0982
7000.000000	75.948	154.2063
7100.000000	75.809	151.8701
7200.000000	75.728	150.7219
7300.000000	75.762	150.2464
7400.000000	75.928	149.9539
7500.000000	76.230	149.4090
7620.000000	76.759	147.8004
7750.000000	77.433	143.9984
7880.000000	77.937	137.2784
8000.000000	78.030	128.6881
8120.000000	77.612	119.2824
8250.000000	76.579	110.5699
8380.000000	75.134	105.1183
8500.000000	73.668	103.1750
8620.000000	72.247	103.6024
8750.000000	70.859	105.8391
8850.000000	69.909	108.3094
9000.000000	68.627	112.8627
9120.000000	67.709	117.2566
9250.000000	66.845	122.7188
9380.000000	66.132	128.6459
9500.000000	65.603	134.3422
9620.000000	65.188	140.1608
9750.000000	64.862	146.5105
9880.000000	64.663	152.8075
10000.000000	64.589	158.4788
10150.000000	64.636	165.2239
10300.000000	64.810	171.3235
10440.000000	65.043	176.2974
10600.000000	65.345	-178.8210
10750.000000	65.630	-174.8513
10900.000000	65.912	-171.1856
11060.000000	66.248	-167.4358
11200.000000	66.624	-164.3912
11380.000000	67.259	-161.3739
11500.000000	67.753	-160.4338
11720.000000	68.602	-161.8225
11800.000000	68.833	-163.3499
12060.000000	68.987	-171.1821
12200.000000	68.562	-175.5588
12410.000000	67.365	-179.1682
12500.000000	66.750	-179.3210
12650.000000	65.740	-177.9898
12800.000000	64.849	-175.3847
13150.000000	63.241	-168.5282
13200.000000	63.024	-167.5952
13400.000000	62.081	-163.4026
13600.000000	61.056	-157.5871
13800.000000	60.120	-149.8709
14000.000000	59.408	-140.8373
14300.000000	58.829	-125.4635
14500.000000	58.941	-114.3584
14750.000000	59.794	-101.6473
15000.000000	61.245	-92.6334
15250.000000	62.919	-89.0686
15500.000000	64.374	-91.4780
15750.000000	65.193	-98.2080
16000.000000	65.279	-105.1864
16250.000000	65.031	-109.5540
16500.000000	64.940	-112.9408
16750.000000	64.956	-118.7741
17000.000000	64.670	-128.2316
17250.000000	63.685	-140.1353
17500.000000	61.698	-149.9089
17750.000000	58.817	-152.2259
18000.000000	55.584	-146.0655
18250.000000	52.605	-133.1170
18500.000000	50.509	-114.9996
18750.000000	50.168	-97.2999
19000.000000	50.701	-88.2956
19250.000000	50.649	-85.7253
19500.000000	49.872	-82.7162
19750.000000	48.860	-77.0088
20000.000000	47.953	-69.8799
