* Measurement data measured by REW V5.20.13
* Source: Analog (1+2)(2- RME ADI-2 Pro), LINE_IN (마스), R, volume: 0.250. Timing signal peak level -24.9 dBFS, measurement signal peak level -24.7 dBFS
* Format: 128k Log Swept Sine, 1 sweep at -12.0 dBFS using an acoustic timing reference
* Dated: 2023. 1. 5 오후 1:40:03
* REW Settings:
*  C-weighting compensation: Off
*  Target level: 75.0 dB
* Note: Delay 0.0237 ms (8.1 mm, 0.32 in) using estimated IR delay relative to Acoustic reference played from HEADPHONE R with no timing offset Clock adjustment: 27.8 ppm
* Measurement: R (정착용)
* Smoothing: 1/24 octave
* Frequency Step: 1/48 octave
* Start Frequency: 20.000 Hz
*
* Freq(Hz)	SPL(dB)	Phase(degrees)
20.000000	81.497	-108.8662
20.299999	81.842	-111.4865
20.600000	82.202	-114.1783
20.900000	82.566	-117.0267
21.200001	82.918	-120.0552
21.400000	83.139	-122.1454
21.799999	83.544	-126.4033
22.000000	83.728	-128.5197
22.400000	84.070	-132.6367
22.700001	84.312	-135.5952
23.000000	84.551	-138.4492
23.299999	84.789	-141.2254
23.600000	85.026	-143.9453
24.000000	85.337	-147.5064
24.299999	85.564	-150.1320
24.700001	85.856	-153.5694
25.000000	86.065	-156.0980
25.400000	86.328	-159.4017
25.799999	86.571	-162.6169
26.200001	86.795	-165.7190
26.500000	86.951	-167.9601
26.900000	87.151	-170.8424
27.200001	87.297	-172.9518
27.600000	87.486	-175.7430
28.000000	87.660	-178.5454
28.500000	87.847	177.9724
29.000000	88.002	174.6407
29.500000	88.149	171.5156
30.000000	88.310	168.4600
30.400000	88.440	165.9307
30.700001	88.526	163.9652
31.100000	88.611	161.3435
31.500000	88.663	158.8813
32.000000	88.712	156.2372
32.500000	88.800	154.0300
33.000000	88.952	151.8997
33.500000	89.139	149.5291
34.000000	89.309	146.9124
34.500000	89.442	144.2886
35.000000	89.558	141.8165
35.500000	89.679	139.4373
36.000000	89.799	137.0111
36.500000	89.900	134.5273
37.000000	89.973	132.1113
37.500000	90.035	129.8522
38.200001	90.132	126.8399
38.700001	90.206	124.6465
39.500000	90.297	121.0089
40.000000	90.324	118.7414
40.599998	90.324	116.1409
41.200001	90.302	113.8106
41.799999	90.294	111.7618
42.500000	90.338	109.3277
43.099998	90.371	106.7909
43.700001	90.316	104.0022
44.400002	90.125	101.2140
45.000000	89.930	99.6140
45.500000	89.802	98.6582
46.200001	89.670	97.5196
46.799999	89.572	96.7434
47.500000	89.503	96.2817
48.200001	89.543	96.0497
48.700001	89.634	95.7243
49.400002	89.800	94.8501
50.000000	89.942	93.8097
50.799999	90.129	92.1841
51.500000	90.295	90.4683
52.200001	90.433	88.3843
53.000000	90.520	85.7540
53.799999	90.542	83.1510
54.500000	90.526	80.8934
55.200001	90.466	78.6551
56.000000	90.344	76.2997
57.000000	90.146	73.7944
58.000000	89.931	71.7542
59.000000	89.738	69.9213
60.000000	89.511	67.8909
60.799999	89.249	66.4756
61.500000	88.980	65.6771
62.200001	88.701	65.3237
63.000000	88.393	65.5042
64.000000	88.087	66.5651
65.000000	87.923	68.0772
66.000000	87.886	69.6006
67.000000	87.945	70.8858
68.000000	88.055	71.8090
69.000000	88.184	72.4541
70.000000	88.329	72.9279
71.000000	88.500	73.2332
72.000000	88.693	73.2734
73.000000	88.889	73.0086
74.000000	89.070	72.5381
75.000000	89.235	71.9721
76.199997	89.421	71.2256
77.500000	89.612	70.3021
78.800003	89.778	69.2499
80.000000	89.912	68.2455
81.199997	90.037	67.2155
82.500000	90.166	66.0483
83.800003	90.276	64.8143
85.000000	90.357	63.7349
86.199997	90.436	62.7591
87.500000	90.523	61.7048
88.500000	90.585	60.8647
90.000000	90.668	59.5906
91.199997	90.724	58.5510
92.500000	90.770	57.4630
93.800003	90.813	56.4652
95.000000	90.856	55.5648
96.199997	90.899	54.6691
97.500000	90.944	53.6890
98.800003	90.981	52.6960
100.000000	91.009	51.8022
101.500000	91.038	50.7311
103.000000	91.064	49.6984
104.400002	91.086	48.7212
106.000000	91.098	47.5729
107.500000	91.092	46.4916
109.000000	91.068	45.4344
110.599998	91.023	44.4338
112.000000	90.980	43.7595
113.800003	90.957	43.1346
115.000000	90.965	42.7403
117.199997	90.996	41.8967
118.000000	91.007	41.5577
120.599998	91.034	40.3628
122.000000	91.040	39.6751
124.099998	91.035	38.6955
125.000000	91.031	38.3083
126.500000	91.025	37.6730
128.000000	91.014	37.0184
131.500000	90.940	35.5392
132.000000	90.925	35.3591
134.000000	90.865	34.7700
136.000000	90.819	34.3769
138.000000	90.797	34.0908
140.000000	90.793	33.8170
143.000000	90.808	33.3159
145.000000	90.827	32.8625
147.500000	90.849	32.1955
150.000000	90.863	31.5045
152.500000	90.865	30.8282
155.000000	90.857	30.1991
157.500000	90.847	29.6294
160.000000	90.840	29.1041
162.500000	90.838	28.5824
165.000000	90.836	28.0458
167.500000	90.832	27.5034
170.000000	90.822	26.9591
172.500000	90.806	26.4274
175.000000	90.788	25.9461
177.500000	90.767	25.5252
180.000000	90.746	25.1602
182.500000	90.729	24.8154
185.000000	90.718	24.4738
187.500000	90.712	24.1354
190.000000	90.711	23.7777
192.500000	90.711	23.3763
195.000000	90.706	22.9566
197.500000	90.697	22.5464
200.000000	90.682	22.1599
203.000000	90.660	21.7325
206.000000	90.637	21.3226
209.000000	90.609	20.9214
212.000000	90.572	20.5453
214.000000	90.544	20.3132
218.000000	90.486	19.9115
220.000000	90.461	19.7599
224.000000	90.418	19.5597
227.000000	90.392	19.4460
230.000000	90.369	19.3304
233.000000	90.350	19.1970
236.000000	90.338	19.0386
240.000000	90.330	18.8086
243.000000	90.321	18.6420
247.000000	90.301	18.3997
250.000000	90.281	18.1873
254.000000	90.245	17.9144
258.000000	90.194	17.7095
262.000000	90.134	17.6089
265.000000	90.092	17.6674
269.000000	90.050	17.9313
272.000000	90.036	18.1622
276.000000	90.043	18.4067
280.000000	90.064	18.5656
285.000000	90.081	18.6631
290.000000	90.095	18.8368
295.000000	90.140	19.1541
300.000000	90.236	19.2600
304.000000	90.310	19.0256
307.000000	90.349	18.7526
311.000000	90.379	18.3806
315.000000	90.392	18.0504
320.000000	90.398	17.7168
325.000000	90.399	17.4679
330.000000	90.402	17.2654
335.000000	90.411	17.0720
340.000000	90.423	16.8646
345.000000	90.431	16.6421
350.000000	90.434	16.4192
355.000000	90.436	16.1997
360.000000	90.438	15.9954
365.000000	90.438	15.8138
370.000000	90.435	15.6427
375.000000	90.433	15.4802
382.000000	90.431	15.2728
387.000000	90.431	15.1384
395.000000	90.433	14.9333
400.000000	90.436	14.7895
406.000000	90.441	14.5905
412.000000	90.448	14.3704
418.000000	90.452	14.1306
425.000000	90.453	13.8262
431.000000	90.453	13.5487
437.000000	90.454	13.2606
444.000000	90.456	12.8742
450.000000	90.460	12.4327
455.000000	90.460	11.9412
462.000000	90.437	11.0139
468.000000	90.372	9.9657
475.000000	90.192	8.5563
482.000000	89.843	7.5780
487.000000	89.503	7.7924
494.000000	89.073	9.8557
500.000000	88.924	12.5178
508.000000	89.025	15.4167
515.000000	89.199	16.8002
522.000000	89.351	17.5047
530.000000	89.483	17.9573
538.000000	89.585	18.2578
545.000000	89.656	18.4607
552.000000	89.717	18.6382
560.000000	89.778	18.8273
570.000000	89.850	19.0369
580.000000	89.919	19.2115
590.000000	89.985	19.3288
600.000000	90.042	19.3673
608.000000	90.079	19.3551
615.000000	90.106	19.3318
622.000000	90.128	19.3134
630.000000	90.145	19.3060
640.000000	90.159	19.3195
650.000000	90.167	19.3394
660.000000	90.167	19.3351
670.000000	90.151	19.3361
680.000000	90.116	19.4098
690.000000	90.064	19.5980
700.000000	89.998	19.9302
710.000000	89.922	20.4672
720.000000	89.844	21.2839
730.000000	89.785	22.4053
740.000000	89.765	23.7954
750.000000	89.800	25.3461
762.000000	89.919	27.1976
775.000000	90.132	28.9520
788.000000	90.400	30.3255
800.000000	90.676	31.2234
812.000000	90.965	31.7426
825.000000	91.271	31.8701
838.000000	91.546	31.6382
850.000000	91.765	31.2410
862.000000	91.955	30.7660
875.000000	92.137	30.2079
885.000000	92.262	29.7506
900.000000	92.425	29.0318
912.000000	92.534	28.4825
925.000000	92.639	27.9590
938.000000	92.741	27.4990
950.000000	92.838	27.0918
962.000000	92.937	26.6381
975.000000	93.040	26.0434
988.000000	93.128	25.3475
1000.000000	93.189	24.6667
1015.000000	93.234	23.8394
1030.000000	93.248	23.0942
1044.000000	93.237	22.5494
1060.000000	93.207	22.1837
1075.000000	93.181	22.0934
1090.000000	93.171	22.1959
1106.000000	93.187	22.4357
1120.000000	93.222	22.6991
1138.000000	93.294	23.0549
1150.000000	93.359	23.2692
1172.000000	93.502	23.5325
1180.000000	93.558	23.5801
1206.000000	93.744	23.5444
1220.000000	93.839	23.4272
1241.000000	93.973	23.2122
1250.000000	94.028	23.1172
1265.000000	94.117	22.9523
1280.000000	94.202	22.7841
1315.000000	94.397	22.4327
1320.000000	94.425	22.3833
1340.000000	94.542	22.1730
1360.000000	94.659	21.9364
1380.000000	94.771	21.6927
1400.000000	94.883	21.4641
1430.000000	95.055	21.0814
1450.000000	95.163	20.8327
1475.000000	95.303	20.6310
1500.000000	95.469	20.4417
1525.000000	95.649	20.1149
1550.000000	95.829	19.6458
1575.000000	96.001	19.0815
1600.000000	96.166	18.4614
1625.000000	96.325	17.7925
1650.000000	96.477	17.0934
1675.000000	96.621	16.3851
1700.000000	96.760	15.6891
1725.000000	96.895	15.0134
1750.000000	97.033	14.3530
1775.000000	97.176	13.6879
1800.000000	97.323	12.9917
1825.000000	97.472	12.2384
1850.000000	97.619	11.4209
1875.000000	97.759	10.5452
1900.000000	97.889	9.6346
1925.000000	98.010	8.7190
1950.000000	98.121	7.8387
1975.000000	98.231	7.0200
2000.000000	98.347	6.2341
2030.000000	98.495	5.2752
2060.000000	98.646	4.2629
2090.000000	98.795	3.2166
2120.000000	98.941	2.1821
2140.000000	99.040	1.5131
2180.000000	99.256	0.2153
2200.000000	99.379	-0.4545
2240.000000	99.646	-1.9857
2270.000000	99.853	-3.3406
2300.000000	100.058	-4.8491
2330.000000	100.260	-6.5104
2360.000000	100.457	-8.3545
2400.000000	100.695	-11.1136
2430.000000	100.845	-13.3632
2470.000000	101.000	-16.4903
2500.000000	101.087	-18.8767
2540.000000	101.171	-22.1042
2580.000000	101.219	-25.4164
2620.000000	101.221	-28.8108
2650.000000	101.188	-31.3648
2690.000000	101.096	-34.7013
2720.000000	100.996	-37.1175
2760.000000	100.826	-40.1951
2800.000000	100.619	-43.0779
2850.000000	100.315	-46.3782
2900.000000	99.971	-49.3029
2950.000000	99.610	-51.9125
3000.000000	99.211	-54.3981
3040.000000	98.836	-56.1207
3070.000000	98.527	-57.1385
3110.000000	98.090	-58.0663
3150.000000	97.637	-58.4327
3200.000000	97.078	-57.9661
3250.000000	96.586	-56.4437
3300.000000	96.224	-54.0663
3350.000000	96.033	-51.1755
3400.000000	96.034	-48.1512
3450.000000	96.229	-45.4156
3500.000000	96.582	-43.3854
3550.000000	97.034	-42.3277
3600.000000	97.519	-42.3053
3650.000000	97.991	-43.1805
3700.000000	98.437	-44.7590
3750.000000	98.854	-47.0338
3820.000000	99.320	-51.5125
3870.000000	99.507	-55.3545
3950.000000	99.537	-61.6357
4000.000000	99.417	-65.2622
4060.000000	99.170	-69.0853
4120.000000	98.846	-72.2229
4180.000000	98.486	-74.6641
4250.000000	98.059	-76.7551
4310.000000	97.707	-78.0391
4370.000000	97.371	-78.9500
4440.000000	96.999	-79.6195
4500.000000	96.694	-79.9120
4550.000000	96.439	-79.9587
4620.000000	96.060	-79.5698
4680.000000	95.717	-78.5065
4750.000000	95.342	-75.9802
4820.000000	95.112	-71.7214
4870.000000	95.157	-67.6575
4940.000000	95.705	-61.3624
5000.000000	96.672	-56.8625
5080.000000	98.369	-54.6446
5150.000000	99.824	-57.0376
5220.000000	101.006	-62.5343
5300.000000	101.973	-70.7091
5380.000000	102.620	-79.4062
5450.000000	103.017	-87.0071
5520.000000	103.311	-94.7028
5600.000000	103.521	-103.9408
5700.000000	103.510	-116.2343
5800.000000	103.120	-128.6318
5900.000000	102.362	-140.1136
6000.000000	101.307	-149.9695
6080.000000	100.314	-156.3976
6150.000000	99.387	-160.9463
6220.000000	98.437	-164.5563
6300.000000	97.351	-167.5687
6400.000000	96.073	-169.9711
6500.000000	94.936	-171.6951
6600.000000	93.860	-173.3192
6700.000000	92.741	-174.5825
6800.000000	91.530	-174.9991
6900.000000	90.197	-173.5008
7000.000000	88.901	-168.8937
7100.000000	88.033	-161.9319
7200.000000	87.770	-155.3054
7300.000000	87.814	-150.5573
7400.000000	87.929	-147.0424
7500.000000	88.107	-144.1212
7620.000000	88.437	-141.1027
7750.000000	89.044	-138.5244
7880.000000	89.923	-137.7990
8000.000000	90.851	-139.5103
8120.000000	91.785	-143.8284
8250.000000	92.636	-151.8066
8380.000000	93.110	-162.8931
8500.000000	93.073	-174.8463
8620.000000	92.530	173.0488
8750.000000	91.436	161.2238
8850.000000	90.313	153.5430
9000.000000	88.303	144.3925
9120.000000	86.457	138.7909
9250.000000	84.141	134.7070
9380.000000	81.323	135.0716
9500.000000	78.150	144.9138
9620.000000	75.014	169.0263
9750.000000	74.750	-157.6516
9880.000000	77.403	-135.4399
10000.000000	79.860	-127.3099
10150.000000	82.454	-125.9802
10300.000000	84.578	-130.2157
10440.000000	86.042	-137.8824
10600.000000	87.048	-148.7565
10750.000000	87.453	-158.6821
10900.000000	87.544	-167.0131
11060.000000	87.559	-173.9357
11200.000000	87.706	-178.9536
11380.000000	88.279	174.0779
11500.000000	88.890	167.4398
11720.000000	89.906	146.5356
11800.000000	89.981	135.5667
12060.000000	87.967	96.1975
12200.000000	85.249	83.3404
12410.000000	79.572	90.1946
12500.000000	77.248	101.1836
12650.000000	75.594	119.7426
12800.000000	76.498	130.3955
13150.000000	79.768	125.1453
13200.000000	80.162	122.1139
13400.000000	81.570	106.3110
13600.000000	82.880	85.7480
13800.000000	84.308	60.6921
14000.000000	85.754	30.5024
14300.000000	87.023	-20.6646
14500.000000	87.102	-51.3312
14750.000000	86.984	-80.6929
15000.000000	87.188	-102.8801
15250.000000	87.631	-121.8094
15500.000000	88.151	-138.5865
15750.000000	88.869	-154.3337
16000.000000	89.607	-171.9833
16250.000000	89.853	168.4696
16500.000000	89.583	150.4502
16750.000000	89.211	134.3623
17000.000000	88.768	117.8914
17250.000000	87.928	101.0801
17500.000000	86.452	87.3173
17750.000000	84.600	81.9617
18000.000000	84.010	84.3062
18250.000000	85.413	81.0493
18500.000000	86.507	64.8927
18750.000000	86.446	44.4641
19000.000000	85.755	26.4691
19250.000000	84.930	10.1743
19500.000000	83.986	-5.3440
19750.000000	82.980	-18.4369
20000.000000	82.343	-25.6427
