* Measurement data measured by REW V5.20.13
* Source: EXCL: Mic in at rear panel (Pink)(Realtek(R) Audio), MICROPHONE (마스), L, volume: 1.000
* Format: 256k Log Swept Sine, 1 sweep at -12.0 dBFS with no timing reference
* Dated: 2022. 12. 30 오후 3:46:36
* REW Settings:
*  C-weighting compensation: Off
*  Target level: 75.0 dB
* Note: 
* Measurement: R
* Smoothing: 1/24 octave
* Frequency Step: 1/48 octave
* Start Frequency: 20.300 Hz
*
* Freq(Hz)	SPL(dB)	Phase(degrees)
20.299999	87.518	-146.3028
20.600000	87.653	-146.4810
20.900000	87.903	-147.0712
21.200001	88.080	-148.3163
21.400000	88.138	-149.3642
21.799999	88.124	-151.4578
22.000000	88.069	-152.2544
22.400000	87.931	-153.0247
22.700001	87.877	-152.9778
23.000000	87.923	-152.7611
23.299999	88.057	-152.8310
23.600000	88.228	-153.4512
24.000000	88.414	-155.1818
24.299999	88.457	-156.8133
24.700001	88.369	-158.6929
25.000000	88.236	-159.4048
25.400000	88.077	-159.2146
25.799999	88.068	-158.2400
26.200001	88.227	-157.4725
26.500000	88.387	-157.4613
26.900000	88.548	-158.1741
27.200001	88.581	-158.8682
27.600000	88.523	-159.3523
28.000000	88.453	-158.9309
28.500000	88.530	-157.7226
29.000000	88.789	-157.4182
29.500000	88.993	-158.7996
30.000000	88.944	-160.6994
30.400000	88.771	-161.3551
30.700001	88.661	-161.1163
31.100000	88.671	-160.4452
31.500000	88.858	-160.4688
32.000000	89.104	-162.6221
32.500000	89.065	-166.3454
33.000000	88.675	-169.1436
33.500000	88.181	-169.4247
34.000000	87.940	-168.0234
34.500000	87.999	-167.0435
35.000000	88.125	-167.2128
35.500000	88.190	-167.6651
36.000000	88.277	-167.8025
36.500000	88.448	-168.1763
37.000000	88.599	-169.3504
37.500000	88.613	-170.8025
38.200001	88.497	-171.5528
38.700001	88.512	-171.2600
39.500000	88.734	-171.7418
40.000000	88.834	-172.9014
40.599998	88.857	-174.4868
41.200001	88.813	-175.9321
41.799999	88.713	-177.0891
42.500000	88.577	-177.6176
43.099998	88.559	-177.5179
43.700001	88.634	-177.6876
44.400002	88.699	-178.3860
45.000000	88.699	-178.7459
45.500000	88.721	-178.6980
46.200001	88.836	-178.6845
46.799999	88.952	-179.2399
47.500000	88.997	179.5650
48.200001	88.914	178.4209
48.700001	88.804	177.9531
49.400002	88.659	177.8386
50.000000	88.589	177.8950
50.799999	88.539	177.6602
51.500000	88.477	177.3461
52.200001	88.431	177.3168
53.000000	88.479	177.2969
53.799999	88.573	176.6012
54.500000	88.593	175.6274
55.200001	88.554	174.8283
56.000000	88.504	174.2221
57.000000	88.455	173.5006
58.000000	88.378	172.6446
59.000000	88.256	171.9629
60.000000	88.167	171.7021
60.799999	88.161	171.4276
61.500000	88.171	170.9882
62.200001	88.175	170.4874
63.000000	88.174	169.9227
64.000000	88.146	169.2051
65.000000	88.072	168.7843
66.000000	88.017	168.7436
67.000000	87.999	168.5881
68.000000	87.976	168.1982
69.000000	87.939	167.7191
70.000000	87.906	167.3815
71.000000	87.921	167.0713
72.000000	87.936	166.5226
73.000000	87.915	166.0632
74.000000	87.873	165.6902
75.000000	87.782	165.4698
76.199997	87.693	165.5295
77.500000	87.634	164.9606
78.800003	87.513	164.1816
80.000000	87.452	163.7019
81.199997	87.462	163.0272
82.500000	87.446	162.1166
83.800003	87.350	161.7084
85.000000	87.255	161.9224
86.199997	87.185	162.1819
87.500000	87.111	162.1158
88.500000	87.042	161.8681
90.000000	86.981	161.2799
91.199997	86.946	160.4492
92.500000	86.864	159.8635
93.800003	86.834	159.9554
95.000000	86.861	159.9765
96.199997	86.869	159.7909
97.500000	86.837	159.3764
98.800003	86.744	158.9962
100.000000	86.674	158.8983
101.500000	86.637	158.6104
103.000000	86.581	158.1697
104.400002	86.504	157.9951
106.000000	86.432	157.8934
107.500000	86.369	157.8620
109.000000	86.352	157.8016
110.599998	86.344	157.5391
112.000000	86.309	157.2792
113.800003	86.228	156.9815
115.000000	86.164	156.6532
117.199997	86.053	155.5008
118.000000	86.008	154.9036
120.599998	85.778	154.2805
122.000000	85.790	155.0978
124.099998	85.891	155.6779
125.000000	85.893	155.7375
126.500000	85.848	155.8011
128.000000	85.783	155.7469
131.500000	85.625	154.9773
132.000000	85.600	154.8817
134.000000	85.508	154.7811
136.000000	85.453	154.8853
138.000000	85.396	154.8782
140.000000	85.331	154.8115
143.000000	85.240	154.6397
145.000000	85.194	154.4714
147.500000	85.130	154.3332
150.000000	85.085	154.2753
152.500000	85.019	154.1333
155.000000	84.930	154.1567
157.500000	84.860	154.1874
160.000000	84.792	154.1124
162.500000	84.731	154.0549
165.000000	84.665	154.0247
167.500000	84.600	154.0358
170.000000	84.542	154.0231
172.500000	84.483	153.9883
175.000000	84.418	153.9808
177.500000	84.359	153.9279
180.000000	84.295	153.8119
182.500000	84.229	153.8548
185.000000	84.183	153.9972
187.500000	84.132	154.0385
190.000000	84.063	154.0930
192.500000	84.008	154.2076
195.000000	83.968	154.2731
197.500000	83.926	154.2784
200.000000	83.875	154.2977
203.000000	83.822	154.3798
206.000000	83.782	154.4072
209.000000	83.735	154.4348
212.000000	83.677	154.5690
214.000000	83.640	154.6912
218.000000	83.564	154.7960
220.000000	83.522	154.8064
224.000000	83.447	154.8924
227.000000	83.404	154.9576
230.000000	83.361	155.0330
233.000000	83.317	155.1638
236.000000	83.273	155.3116
240.000000	83.216	155.4757
243.000000	83.157	155.6142
247.000000	83.074	155.8318
250.000000	83.036	155.9220
254.000000	82.989	156.0341
258.000000	82.946	156.2621
262.000000	82.909	156.4727
265.000000	82.870	156.5617
269.000000	82.803	156.6694
272.000000	82.754	156.7992
276.000000	82.700	157.0093
280.000000	82.660	157.2231
285.000000	82.612	157.4964
290.000000	82.561	157.8057
295.000000	82.509	158.0765
300.000000	82.457	158.3053
304.000000	82.411	158.4994
307.000000	82.384	158.6669
311.000000	82.358	158.9023
315.000000	82.327	159.1522
320.000000	82.285	159.4655
325.000000	82.244	159.7647
330.000000	82.211	160.0363
335.000000	82.183	160.2653
340.000000	82.152	160.5235
345.000000	82.117	160.8228
350.000000	82.079	161.0678
355.000000	82.043	161.3121
360.000000	82.015	161.6102
365.000000	81.984	161.9121
370.000000	81.949	162.2374
375.000000	81.916	162.5787
382.000000	81.872	162.9699
387.000000	81.841	163.2233
395.000000	81.797	163.6922
400.000000	81.770	164.0191
406.000000	81.744	164.3827
412.000000	81.720	164.7162
418.000000	81.686	165.0241
425.000000	81.649	165.3934
431.000000	81.627	165.7504
437.000000	81.604	166.1017
444.000000	81.584	166.5193
450.000000	81.574	166.8669
455.000000	81.566	167.1457
462.000000	81.550	167.5010
468.000000	81.532	167.8036
475.000000	81.514	168.1997
482.000000	81.501	168.6465
487.000000	81.493	168.9572
494.000000	81.485	169.3893
500.000000	81.478	169.7230
508.000000	81.468	170.1276
515.000000	81.455	170.4922
522.000000	81.441	170.8754
530.000000	81.437	171.3542
538.000000	81.432	171.8529
545.000000	81.423	172.2772
552.000000	81.415	172.6770
560.000000	81.414	173.1143
570.000000	81.412	173.7100
580.000000	81.407	174.2813
590.000000	81.410	174.8298
600.000000	81.418	175.3892
608.000000	81.427	175.8102
615.000000	81.429	176.1973
622.000000	81.427	176.6363
630.000000	81.431	177.1616
640.000000	81.440	177.7899
650.000000	81.450	178.3757
660.000000	81.462	178.9562
670.000000	81.482	179.5419
680.000000	81.505	-179.8550
690.000000	81.517	-179.2525
700.000000	81.532	-178.6556
710.000000	81.558	-178.0556
720.000000	81.584	-177.4583
730.000000	81.612	-176.8337
740.000000	81.645	-176.2090
750.000000	81.678	-175.6013
762.000000	81.724	-174.8583
775.000000	81.781	-174.0665
788.000000	81.840	-173.3231
800.000000	81.901	-172.6165
812.000000	81.963	-171.8997
825.000000	82.031	-171.1152
838.000000	82.107	-170.3691
850.000000	82.188	-169.7020
862.000000	82.277	-169.0568
875.000000	82.375	-168.3317
885.000000	82.450	-167.7955
900.000000	82.576	-167.0333
912.000000	82.682	-166.4518
925.000000	82.797	-165.8491
938.000000	82.916	-165.2880
950.000000	83.038	-164.8224
962.000000	83.168	-164.3769
975.000000	83.310	-163.9180
988.000000	83.466	-163.5376
1000.000000	83.612	-163.2538
1015.000000	83.783	-162.9174
1030.000000	83.964	-162.6804
1044.000000	84.147	-162.6062
1060.000000	84.375	-162.7526
1075.000000	84.601	-163.2244
1090.000000	84.812	-164.2970
1106.000000	84.930	-166.3744
1120.000000	84.809	-168.4583
1138.000000	84.321	-168.9451
1150.000000	84.032	-167.0448
1172.000000	84.111	-162.3108
1180.000000	84.274	-161.1337
1206.000000	84.828	-159.4634
1220.000000	85.074	-159.2379
1241.000000	85.388	-159.1552
1250.000000	85.508	-159.1609
1265.000000	85.695	-159.1936
1280.000000	85.873	-159.2347
1315.000000	86.267	-159.4321
1320.000000	86.320	-159.4675
1340.000000	86.525	-159.6091
1360.000000	86.725	-159.7310
1380.000000	86.926	-159.8486
1400.000000	87.131	-159.9991
1430.000000	87.444	-160.2903
1450.000000	87.650	-160.4942
1475.000000	87.911	-160.7701
1500.000000	88.172	-161.0934
1525.000000	88.435	-161.4627
1550.000000	88.700	-161.8838
1575.000000	88.966	-162.3640
1600.000000	89.233	-162.8847
1625.000000	89.505	-163.4806
1650.000000	89.782	-164.1738
1675.000000	90.062	-164.9570
1700.000000	90.344	-165.8342
1725.000000	90.624	-166.7981
1750.000000	90.903	-167.8720
1775.000000	91.181	-169.0796
1800.000000	91.454	-170.3933
1825.000000	91.721	-171.8241
1850.000000	91.981	-173.3941
1875.000000	92.233	-175.1021
1900.000000	92.473	-176.9485
1925.000000	92.699	-178.9396
1950.000000	92.907	178.9338
1975.000000	93.094	176.6821
2000.000000	93.259	174.3021
2030.000000	93.421	171.2841
2060.000000	93.541	168.1334
2090.000000	93.613	164.8881
2120.000000	93.631	161.5945
2140.000000	93.611	159.4084
2180.000000	93.496	155.1653
2200.000000	93.400	153.1489
2240.000000	93.145	149.4203
2270.000000	92.910	146.9544
2300.000000	92.650	144.8016
2330.000000	92.374	142.9473
2360.000000	92.094	141.3755
2400.000000	91.723	139.6834
2430.000000	91.453	138.6617
2470.000000	91.109	137.5611
2500.000000	90.862	136.9018
2540.000000	90.544	136.2044
2580.000000	90.238	135.6989
2620.000000	89.943	135.3853
2650.000000	89.731	135.2664
2690.000000	89.462	135.2329
2720.000000	89.272	135.2907
2760.000000	89.033	135.4680
2800.000000	88.811	135.7493
2850.000000	88.556	136.2321
2900.000000	88.322	136.8410
2950.000000	88.109	137.5509
3000.000000	87.923	138.3286
3040.000000	87.790	139.0081
3070.000000	87.697	139.5514
3110.000000	87.584	140.3036
3150.000000	87.485	141.0873
3200.000000	87.380	142.1006
3250.000000	87.294	143.1659
3300.000000	87.223	144.2596
3350.000000	87.170	145.3683
3400.000000	87.137	146.4868
3450.000000	87.127	147.6133
3500.000000	87.139	148.7571
3550.000000	87.168	149.9076
3600.000000	87.213	151.0392
3650.000000	87.272	152.1537
3700.000000	87.343	153.2714
3750.000000	87.430	154.3812
3820.000000	87.582	155.9101
3870.000000	87.709	156.9694
3950.000000	87.945	158.5988
4000.000000	88.115	159.5550
4060.000000	88.343	160.6320
4120.000000	88.603	161.6049
4180.000000	88.895	162.4273
4250.000000	89.272	163.1492
4310.000000	89.620	163.5061
4370.000000	89.987	163.5952
4440.000000	90.432	163.3060
4500.000000	90.828	162.6788
4550.000000	91.163	161.8585
4620.000000	91.633	160.2037
4680.000000	92.025	158.2643
4750.000000	92.449	155.3362
4820.000000	92.806	151.6929
4870.000000	93.002	148.6826
4940.000000	93.167	144.0049
5000.000000	93.191	139.7221
5080.000000	93.040	133.9563
5150.000000	92.744	129.2140
5220.000000	92.315	125.0350
5300.000000	91.704	121.1598
5380.000000	91.014	118.3314
5450.000000	90.382	116.6713
5520.000000	89.750	115.6993
5600.000000	89.048	115.3065
5700.000000	88.222	115.6973
5800.000000	87.466	116.8795
5900.000000	86.784	118.6804
6000.000000	86.169	120.9840
6080.000000	85.729	123.1822
6150.000000	85.393	125.3598
6220.000000	85.117	127.6516
6300.000000	84.860	130.2026
6400.000000	84.571	133.3499
6500.000000	84.328	136.7500
6600.000000	84.159	140.4116
6700.000000	84.076	144.2048
6800.000000	84.087	148.0392
6900.000000	84.207	151.8460
7000.000000	84.442	155.5422
7100.000000	84.787	159.0678
7200.000000	85.243	162.3185
7300.000000	85.812	165.1557
7400.000000	86.502	167.3886
7500.000000	87.327	168.7747
7620.000000	88.503	168.7577
7750.000000	89.896	165.5318
7880.000000	91.059	157.5605
8000.000000	91.555	145.9671
8120.000000	91.219	132.9918
8250.000000	89.954	121.9531
8380.000000	88.146	116.5639
8500.000000	86.404	116.1713
8620.000000	84.840	118.8861
8750.000000	83.462	124.0411
8850.000000	82.652	128.8865
9000.000000	81.847	136.5983
9120.000000	81.515	142.4964
9250.000000	81.382	148.0454
9380.000000	81.382	152.4698
9500.000000	81.413	155.6047
9620.000000	81.418	158.0832
9750.000000	81.367	160.3911
9880.000000	81.263	162.6673
10000.000000	81.142	164.9206
10150.000000	80.997	168.1098
10300.000000	80.904	171.7140
10440.000000	80.900	175.3021
10600.000000	81.021	179.5178
10750.000000	81.285	-176.6532
10900.000000	81.726	-173.3429
11060.000000	82.386	-170.9372
11200.000000	83.092	-170.3227
11380.000000	84.055	-172.5167
11500.000000	84.598	-176.3298
11720.000000	84.968	172.2489
11800.000000	84.816	167.4157
12060.000000	83.253	154.5059
12200.000000	81.938	151.1116
12410.000000	79.781	150.7508
12500.000000	78.876	151.9535
12650.000000	77.467	155.2506
12800.000000	76.207	159.6988
13150.000000	73.866	172.8349
13200.000000	73.594	174.9304
13400.000000	72.646	-176.3563
13600.000000	71.921	-167.3338
13800.000000	71.428	-158.1677
14000.000000	71.155	-148.9654
14300.000000	71.161	-135.2705
14500.000000	71.501	-126.4560
14750.000000	72.404	-116.4977
15000.000000	73.948	-109.1457
15250.000000	76.073	-107.6502
15500.000000	78.025	-117.1221
15750.000000	78.470	-137.2274
16000.000000	76.854	-154.7193
16250.000000	74.003	-160.3388
16500.000000	71.090	-156.8731
16750.000000	68.701	-148.7369
17000.000000	66.949	-138.5532
17250.000000	65.742	-127.5277
17500.000000	65.045	-116.4831
17750.000000	64.860	-106.1605
18000.000000	65.184	-97.7481
18250.000000	65.914	-93.0802
18500.000000	66.744	-94.8875
18750.000000	67.013	-104.9529
19000.000000	65.995	-119.0703
19250.000000	63.460	-127.6658
19500.000000	59.856	-125.9210
19750.000000	56.059	-117.2254
20000.000000	53.319	-109.3669
