* Measurement data measured by REW V5.20.5
* Source: Mic in at rear panel (Pink)(Realtek(R) Audio), MICROPHONE (마스), L, volume: 1.000
* Format: 128k Log Swept Sine, 1 sweep at -12.0 dBFS with no timing reference
* Dated: 2022. 4. 11 오후 6:20:56
* REW Settings:
*  C-weighting compensation: Off
*  Target level: 75.0 dB
* Note: 
* Measurement: r
* Smoothing: 1/24 octave
* Frequency Step: 1/48 octave
* Start Frequency: 20.300 Hz
*
* Freq(Hz)	SPL(dB)	Phase(degrees)
20.299999	78.679	-139.1736
20.600000	78.712	-139.6083
20.900000	78.770	-140.3983
21.200001	78.802	-141.1704
21.400000	78.810	-141.6401
21.799999	78.812	-142.4688
22.000000	78.814	-142.8392
22.400000	78.834	-143.5515
22.700001	78.866	-144.1408
23.000000	78.906	-144.8274
23.299999	78.940	-145.5819
23.600000	78.961	-146.3422
24.000000	78.979	-147.2660
24.299999	78.997	-147.8631
24.700001	79.042	-148.5944
25.000000	79.088	-149.1782
25.400000	79.152	-150.0775
25.799999	79.198	-151.0700
26.200001	79.217	-151.9994
26.500000	79.218	-152.5678
26.900000	79.217	-153.1317
27.200001	79.224	-153.4620
27.600000	79.248	-153.8887
28.000000	79.277	-154.3922
28.500000	79.294	-155.1266
29.000000	79.289	-155.8661
29.500000	79.279	-156.5591
30.000000	79.266	-157.2590
30.400000	79.252	-157.8540
30.700001	79.240	-158.3098
31.100000	79.224	-158.8937
31.500000	79.211	-159.4260
32.000000	79.210	-160.0351
32.500000	79.233	-160.6662
33.000000	79.271	-161.4096
33.500000	79.303	-162.2725
34.000000	79.314	-163.1609
34.500000	79.310	-163.9412
35.000000	79.306	-164.5494
35.500000	79.318	-165.0401
36.000000	79.346	-165.5259
36.500000	79.375	-166.0585
37.000000	79.395	-166.6028
37.500000	79.408	-167.1233
38.200001	79.432	-167.8879
38.700001	79.445	-168.5186
39.500000	79.421	-169.4920
40.000000	79.389	-169.9455
40.599998	79.362	-170.3952
41.200001	79.346	-170.9225
41.799999	79.319	-171.5377
42.500000	79.278	-172.1689
43.099998	79.263	-172.5716
43.700001	79.279	-172.9693
44.400002	79.315	-173.5470
45.000000	79.339	-174.1139
45.500000	79.349	-174.5924
46.200001	79.352	-175.2455
46.799999	79.346	-175.7802
47.500000	79.334	-176.3683
48.200001	79.322	-176.9350
48.700001	79.308	-177.3191
49.400002	79.276	-177.7729
50.000000	79.254	-178.0871
50.799999	79.248	-178.5905
51.500000	79.237	-179.2166
52.200001	79.205	-179.8361
53.000000	79.177	179.6498
53.799999	79.173	179.1649
54.500000	79.162	178.6914
55.200001	79.136	178.3123
56.000000	79.115	178.0032
57.000000	79.105	177.5045
58.000000	79.067	176.7198
59.000000	78.967	175.8550
60.000000	78.841	175.2401
60.799999	78.752	175.0503
61.500000	78.724	175.1855
62.200001	78.789	175.2848
63.000000	78.917	174.6722
64.000000	78.954	173.1385
65.000000	78.876	172.2192
66.000000	78.828	171.8123
67.000000	78.789	171.5083
68.000000	78.767	171.3094
69.000000	78.763	170.8845
70.000000	78.730	170.1326
71.000000	78.658	169.3708
72.000000	78.587	168.8306
73.000000	78.550	168.3806
74.000000	78.538	167.8645
75.000000	78.524	167.3765
76.199997	78.524	167.0016
77.500000	78.545	166.3818
78.800003	78.475	165.6243
80.000000	78.382	165.3413
81.199997	78.318	164.9877
82.500000	78.231	164.3815
83.800003	78.157	163.9283
85.000000	78.134	163.5013
86.199997	78.113	162.9852
87.500000	78.080	162.4788
88.500000	78.044	162.1330
90.000000	77.988	161.7451
91.199997	77.945	161.3666
92.500000	77.889	160.9182
93.800003	77.831	160.4857
95.000000	77.779	160.1710
96.199997	77.741	159.8794
97.500000	77.687	159.4743
98.800003	77.614	159.1696
100.000000	77.564	158.9051
101.500000	77.517	158.4456
103.000000	77.486	157.9868
104.400002	77.463	157.6179
106.000000	77.424	157.2220
107.500000	77.337	156.7352
109.000000	77.205	156.3337
110.599998	77.110	156.0070
112.000000	77.083	155.6144
113.800003	77.059	155.2305
115.000000	77.011	155.1946
117.199997	76.742	155.5554
118.000000	76.588	156.0075
120.599998	76.439	157.3841
122.000000	76.493	155.7762
124.099998	76.455	153.3898
125.000000	76.463	152.8552
126.500000	76.490	152.4177
128.000000	76.487	152.2974
131.500000	76.316	152.0891
132.000000	76.293	152.0202
134.000000	76.237	151.5204
136.000000	76.181	150.9276
138.000000	76.096	150.5710
140.000000	75.992	150.2868
143.000000	75.844	149.7659
145.000000	75.787	149.3264
147.500000	75.690	148.7418
150.000000	75.579	148.4565
152.500000	75.481	148.2899
155.000000	75.409	148.2360
157.500000	75.320	148.0146
160.000000	75.184	147.6723
162.500000	75.055	147.2699
165.000000	74.978	146.9777
167.500000	74.937	146.7470
170.000000	74.832	146.4976
172.500000	74.680	146.4412
175.000000	74.587	146.3451
177.500000	74.509	146.2080
180.000000	74.407	146.3611
182.500000	74.292	146.3666
185.000000	74.133	145.9757
187.500000	73.925	145.6906
190.000000	73.725	145.7295
192.500000	73.570	145.7881
195.000000	73.450	145.7326
197.500000	73.370	145.9520
200.000000	73.336	146.4131
203.000000	73.255	147.2532
206.000000	73.088	147.9110
209.000000	72.891	148.1091
212.000000	72.889	148.0010
214.000000	72.914	148.2654
218.000000	72.874	151.8637
220.000000	72.928	153.9555
224.000000	73.232	156.0967
227.000000	73.536	155.7811
230.000000	73.711	154.3629
233.000000	73.765	152.4971
236.000000	73.728	150.9301
240.000000	73.595	149.3280
243.000000	73.471	148.0989
247.000000	73.346	146.7988
250.000000	73.228	146.2217
254.000000	73.022	145.7617
258.000000	72.860	145.5268
262.000000	72.744	145.2145
265.000000	72.663	144.9015
269.000000	72.532	144.7936
272.000000	72.433	144.9331
276.000000	72.311	145.0196
280.000000	72.165	145.0447
285.000000	72.010	145.0699
290.000000	71.896	144.9855
295.000000	71.706	144.6923
300.000000	71.499	144.7716
304.000000	71.399	144.8505
307.000000	71.352	144.8107
311.000000	71.280	144.7746
315.000000	71.194	144.8494
320.000000	71.067	145.0718
325.000000	70.959	145.1982
330.000000	70.868	145.1628
335.000000	70.748	145.1685
340.000000	70.640	145.3855
345.000000	70.515	145.6176
350.000000	70.339	145.8347
355.000000	70.200	146.1408
360.000000	70.100	146.4556
365.000000	70.007	146.5926
370.000000	69.915	146.7968
375.000000	69.799	147.1836
382.000000	69.648	147.4333
387.000000	69.591	147.4395
395.000000	69.433	147.5216
400.000000	69.303	147.5715
406.000000	69.202	148.0460
412.000000	69.094	148.7361
418.000000	68.960	149.2281
425.000000	68.839	149.6173
431.000000	68.737	149.8984
437.000000	68.646	149.9909
444.000000	68.525	150.0408
450.000000	68.384	150.4939
455.000000	68.265	151.0030
462.000000	68.124	151.5995
468.000000	68.007	151.8753
475.000000	67.927	152.1851
482.000000	67.867	152.7349
487.000000	67.784	152.9883
494.000000	67.665	153.1902
500.000000	67.598	153.4697
508.000000	67.501	154.1030
515.000000	67.399	154.6325
522.000000	67.276	155.2452
530.000000	67.131	155.8235
538.000000	66.923	156.2942
545.000000	66.782	156.8912
552.000000	66.675	157.4181
560.000000	66.539	157.7874
570.000000	66.383	158.2869
580.000000	66.124	158.9326
590.000000	65.754	160.3365
600.000000	65.537	163.2843
608.000000	65.573	165.5686
615.000000	65.648	166.6578
622.000000	65.690	167.0261
630.000000	65.670	167.3835
640.000000	65.621	168.3470
650.000000	65.543	169.1678
660.000000	65.474	169.4418
670.000000	65.443	169.8748
680.000000	65.330	170.8752
690.000000	65.192	171.9685
700.000000	65.111	172.9652
710.000000	65.074	174.1320
720.000000	64.996	175.6134
730.000000	64.901	176.8002
740.000000	64.837	177.6462
750.000000	64.765	178.3367
762.000000	64.732	179.4257
775.000000	64.707	-178.9662
788.000000	64.639	-177.7130
800.000000	64.590	-176.6909
812.000000	64.547	-175.2556
825.000000	64.535	-173.7473
838.000000	64.572	-172.3094
850.000000	64.575	-171.0758
862.000000	64.526	-169.8312
875.000000	64.508	-168.4294
885.000000	64.514	-167.4776
900.000000	64.515	-166.2689
912.000000	64.520	-165.0211
925.000000	64.560	-163.3447
938.000000	64.607	-161.9719
950.000000	64.629	-160.9528
962.000000	64.687	-159.6780
975.000000	64.810	-157.9382
988.000000	64.943	-156.2368
1000.000000	64.941	-155.0772
1015.000000	64.915	-154.3324
1030.000000	65.041	-153.7437
1044.000000	65.175	-153.0083
1060.000000	65.333	-152.0355
1075.000000	65.441	-151.2825
1090.000000	65.547	-150.5645
1106.000000	65.661	-149.7281
1120.000000	65.740	-148.9531
1138.000000	65.852	-148.1710
1150.000000	65.947	-147.7131
1172.000000	66.150	-147.0016
1180.000000	66.221	-146.7443
1206.000000	66.380	-146.2271
1220.000000	66.450	-145.9768
1241.000000	66.545	-145.4431
1250.000000	66.583	-145.1859
1265.000000	66.651	-144.7424
1280.000000	66.740	-144.4299
1315.000000	67.089	-144.1139
1320.000000	67.146	-144.0269
1340.000000	67.351	-143.6581
1360.000000	67.506	-143.3975
1380.000000	67.605	-143.1594
1400.000000	67.686	-142.9530
1430.000000	67.809	-142.8122
1450.000000	67.912	-142.6639
1475.000000	68.027	-142.6434
1500.000000	68.135	-142.6797
1525.000000	68.234	-142.6012
1550.000000	68.323	-142.4317
1575.000000	68.403	-142.3436
1600.000000	68.467	-142.2188
1625.000000	68.518	-142.1375
1650.000000	68.572	-141.8573
1675.000000	68.645	-141.7430
1700.000000	68.741	-141.8447
1725.000000	68.814	-141.8642
1750.000000	68.871	-141.7564
1775.000000	68.939	-141.5979
1800.000000	69.006	-141.5494
1825.000000	69.071	-141.6281
1850.000000	69.138	-141.6403
1875.000000	69.192	-141.6631
1900.000000	69.229	-141.7363
1925.000000	69.266	-141.7844
1950.000000	69.322	-141.7979
1975.000000	69.371	-141.7468
2000.000000	69.396	-141.7000
2030.000000	69.432	-141.7379
2060.000000	69.470	-141.7891
2090.000000	69.503	-141.7693
2120.000000	69.517	-141.6209
2140.000000	69.545	-141.4363
2180.000000	69.643	-141.2006
2200.000000	69.707	-141.1882
2240.000000	69.851	-141.2857
2270.000000	69.939	-141.5255
2300.000000	69.995	-142.0302
2330.000000	70.027	-142.6280
2360.000000	70.043	-143.2866
2400.000000	70.042	-144.1164
2430.000000	70.027	-144.4842
2470.000000	70.000	-145.0084
2500.000000	69.971	-145.4393
2540.000000	69.893	-145.6952
2580.000000	69.791	-145.8950
2620.000000	69.694	-146.1874
2650.000000	69.610	-146.2780
2690.000000	69.520	-146.3396
2720.000000	69.462	-146.4230
2760.000000	69.357	-146.4430
2800.000000	69.241	-146.2695
2850.000000	69.146	-145.9908
2900.000000	69.049	-145.6013
2950.000000	68.916	-145.1745
3000.000000	68.805	-144.7064
3040.000000	68.724	-144.1982
3070.000000	68.659	-143.8135
3110.000000	68.577	-143.4252
3150.000000	68.504	-143.0076
3200.000000	68.409	-142.2854
3250.000000	68.326	-141.6743
3300.000000	68.242	-141.1537
3350.000000	68.168	-140.6350
3400.000000	68.101	-139.8571
3450.000000	68.021	-139.0226
3500.000000	67.951	-138.1955
3550.000000	67.917	-137.4684
3600.000000	67.884	-136.7063
3650.000000	67.842	-135.7085
3700.000000	67.815	-134.6678
3750.000000	67.771	-133.7581
3820.000000	67.720	-132.4198
3870.000000	67.710	-131.3231
3950.000000	67.740	-129.7023
4000.000000	67.773	-128.8911
4060.000000	67.797	-127.8989
4120.000000	67.833	-126.7977
4180.000000	67.866	-125.6278
4250.000000	67.938	-124.4634
4310.000000	68.004	-123.5361
4370.000000	68.044	-122.5158
4440.000000	68.087	-121.1576
4500.000000	68.168	-119.9389
4550.000000	68.291	-118.8005
4620.000000	68.526	-117.1200
4680.000000	68.781	-115.7613
4750.000000	69.137	-114.3509
4820.000000	69.547	-113.2654
4870.000000	69.860	-112.8358
4940.000000	70.307	-112.6231
5000.000000	70.706	-112.6146
5080.000000	71.274	-112.9859
5150.000000	71.793	-113.7186
5220.000000	72.331	-114.9104
5300.000000	72.957	-117.0623
5380.000000	73.571	-120.1237
5450.000000	74.072	-123.5502
5520.000000	74.500	-127.6649
5600.000000	74.874	-133.1345
5700.000000	75.116	-140.7137
5800.000000	75.065	-148.5189
5900.000000	74.741	-155.8156
6000.000000	74.222	-161.9808
6080.000000	73.719	-165.9152
6150.000000	73.249	-168.6603
6220.000000	72.775	-170.7702
6300.000000	72.254	-172.4869
6400.000000	71.647	-173.8445
6500.000000	71.105	-174.4528
6600.000000	70.643	-174.3884
6700.000000	70.265	-173.8824
6800.000000	69.988	-173.1747
6900.000000	69.801	-172.2679
7000.000000	69.718	-171.2968
7100.000000	69.734	-170.3503
7200.000000	69.861	-169.5111
7300.000000	70.116	-168.9790
7400.000000	70.505	-168.8620
7500.000000	71.005	-169.4949
7620.000000	71.709	-171.6463
7750.000000	72.503	-176.3416
7880.000000	73.136	175.7491
8000.000000	73.336	165.4721
8120.000000	72.999	153.3532
8250.000000	71.991	140.8064
8380.000000	70.447	131.2182
8500.000000	68.783	125.5013
8620.000000	67.087	122.3491
8750.000000	65.334	121.0790
8850.000000	64.076	121.1879
9000.000000	62.387	122.6082
9120.000000	61.234	124.2996
9250.000000	60.073	126.9519
9380.000000	58.993	130.1899
9500.000000	58.138	133.2087
9620.000000	57.345	136.5282
9750.000000	56.556	140.0748
9880.000000	55.844	143.6368
10000.000000	55.281	147.1694
10150.000000	54.720	151.1751
10300.000000	54.219	155.1451
10440.000000	53.829	158.5503
10600.000000	53.500	162.3730
10750.000000	53.269	167.1047
10900.000000	52.983	171.5588
11060.000000	52.771	175.6367
11200.000000	52.668	179.2375
11380.000000	52.682	-176.3820
11500.000000	52.760	-173.7120
11720.000000	52.921	-168.5923
11800.000000	53.043	-166.8394
12060.000000	53.641	-161.5040
12200.000000	54.048	-158.5985
12410.000000	55.001	-154.0187
12500.000000	55.485	-152.4555
12650.000000	56.390	-150.8214
12800.000000	57.469	-150.4046
13150.000000	60.517	-154.6112
13200.000000	60.967	-156.2076
13400.000000	62.573	-166.0857
13600.000000	63.548	179.2233
13800.000000	63.716	162.9852
14000.000000	63.277	148.5144
14300.000000	62.492	130.9734
14500.000000	62.158	118.1405
14750.000000	61.400	96.6313
15000.000000	59.376	73.1529
15250.000000	55.811	56.1771
15500.000000	51.548	28.8117
15750.000000	47.634	168.4911
16000.000000	44.725	128.9714
16250.000000	43.073	-40.2056
16500.000000	42.541	83.6445
16750.000000	42.339	-152.4941
17000.000000	42.289	-9.9316
17250.000000	42.628	145.1562
17500.000000	43.089	38.4648
17750.000000	43.446	161.5977
18000.000000	43.993	-117.6719
18250.000000	45.017	-121.3086
18500.000000	46.213	-136.5000
18750.000000	47.084	-135.6484
19000.000000	47.360	-37.3203
19250.000000	47.175	-98.5000
19500.000000	46.645	77.9844
19750.000000	45.766	-79.4375
20000.000000	45.074	-162.8750
