* Measurement data measured by REW V5.20.5
* Source: 마이크(7- USB Sound Device       , MICROPHONE (마스), L, volume: 0.560
* Format: 128k Log Swept Sine, 2 sweeps at -15.0 dBFS with no timing reference
* Dated: 2022. 4. 19 오후 8:38:47
* REW Settings:
*  C-weighting compensation: Off
*  Target level: 75.0 dB
* Note: 
* Measurement: L
* Smoothing: 1/24 octave
* Frequency Step: 1/48 octave
* Start Frequency: 20.300 Hz
*
* Freq(Hz)	SPL(dB)	Phase(degrees)
20.299999	109.310	51.8427
20.600000	109.348	51.5141
20.900000	109.423	50.9304
21.200001	109.487	50.3828
21.400000	109.523	50.0342
21.799999	109.588	49.3393
22.000000	109.619	48.9822
22.400000	109.677	48.2529
22.700001	109.719	47.6951
23.000000	109.761	47.1265
23.299999	109.802	46.5487
23.600000	109.843	45.9652
24.000000	109.897	45.1860
24.299999	109.938	44.6089
24.700001	109.993	43.8587
25.000000	110.035	43.3147
25.400000	110.094	42.6142
25.799999	110.153	41.9385
26.200001	110.212	41.2848
26.500000	110.255	40.8101
26.900000	110.310	40.2010
27.200001	110.349	39.7642
27.600000	110.398	39.2083
28.000000	110.444	38.6776
28.500000	110.498	38.0378
29.000000	110.548	37.4113
29.500000	110.593	36.7892
30.000000	110.633	36.1643
30.400000	110.663	35.6589
30.700001	110.683	35.2764
31.100000	110.709	34.7640
31.500000	110.733	34.2523
32.000000	110.762	33.6183
32.500000	110.792	32.9914
33.000000	110.823	32.3710
33.500000	110.855	31.7601
34.000000	110.886	31.1668
34.500000	110.918	30.5967
35.000000	110.951	30.0475
35.500000	110.984	29.5127
36.000000	111.014	28.9907
36.500000	111.041	28.4878
37.000000	111.065	28.0106
37.500000	111.087	27.5562
38.200001	111.118	26.9342
38.700001	111.138	26.4844
39.500000	111.165	25.7542
40.000000	111.178	25.3010
40.599998	111.193	24.7679
41.200001	111.208	24.2459
41.799999	111.224	23.7292
42.500000	111.244	23.1289
43.099998	111.260	22.6251
43.700001	111.275	22.1421
44.400002	111.294	21.6032
45.000000	111.309	21.1520
45.500000	111.320	20.7814
46.200001	111.334	20.2760
46.799999	111.343	19.8567
47.500000	111.351	19.3795
48.200001	111.359	18.9103
48.700001	111.364	18.5766
49.400002	111.370	18.1070
50.000000	111.374	17.7057
50.799999	111.379	17.1854
51.500000	111.383	16.7453
52.200001	111.389	16.3116
53.000000	111.396	15.8222
53.799999	111.400	15.3485
54.500000	111.403	14.9533
55.200001	111.406	14.5710
56.000000	111.410	14.1332
57.000000	111.410	13.5881
58.000000	111.407	13.0729
59.000000	111.405	12.5656
60.000000	111.401	12.0649
60.799999	111.398	11.6846
61.500000	111.396	11.3551
62.200001	111.393	11.0233
63.000000	111.388	10.6536
64.000000	111.382	10.2129
65.000000	111.375	9.7809
66.000000	111.367	9.3626
67.000000	111.360	8.9598
68.000000	111.352	8.5609
69.000000	111.342	8.1714
70.000000	111.332	7.7889
71.000000	111.321	7.4098
72.000000	111.309	7.0378
73.000000	111.296	6.6753
74.000000	111.283	6.3296
75.000000	111.271	5.9957
76.199997	111.257	5.6035
77.500000	111.241	5.1947
78.800003	111.225	4.7932
80.000000	111.208	4.4266
81.199997	111.189	4.0748
82.500000	111.169	3.7070
83.800003	111.149	3.3503
85.000000	111.132	3.0330
86.199997	111.115	2.7227
87.500000	111.096	2.3966
88.500000	111.081	2.1549
90.000000	111.058	1.7844
91.199997	111.035	1.4832
92.500000	111.008	1.1882
93.800003	110.984	0.9076
95.000000	110.963	0.6535
96.199997	110.941	0.4097
97.500000	110.919	0.1576
98.800003	110.897	-0.0935
100.000000	110.876	-0.3277
101.500000	110.848	-0.6155
103.000000	110.821	-0.8877
104.400002	110.796	-1.1305
106.000000	110.768	-1.3937
107.500000	110.742	-1.6274
109.000000	110.715	-1.8517
110.599998	110.686	-2.0819
112.000000	110.660	-2.2854
113.800003	110.627	-2.5476
115.000000	110.604	-2.7141
117.199997	110.563	-2.9873
118.000000	110.549	-3.0806
120.599998	110.505	-3.3885
122.000000	110.480	-3.5538
124.099998	110.444	-3.7861
125.000000	110.428	-3.8817
126.500000	110.402	-4.0385
128.000000	110.375	-4.1920
131.500000	110.311	-4.5176
132.000000	110.302	-4.5626
134.000000	110.266	-4.7372
136.000000	110.232	-4.8957
138.000000	110.198	-5.0402
140.000000	110.165	-5.1786
143.000000	110.115	-5.3815
145.000000	110.080	-5.5126
147.500000	110.038	-5.6636
150.000000	109.996	-5.7988
152.500000	109.956	-5.9293
155.000000	109.915	-6.0520
157.500000	109.876	-6.1658
160.000000	109.838	-6.2712
162.500000	109.801	-6.3622
165.000000	109.763	-6.4403
167.500000	109.724	-6.5126
170.000000	109.686	-6.5781
172.500000	109.649	-6.6397
175.000000	109.612	-6.6957
177.500000	109.575	-6.7421
180.000000	109.541	-6.7906
182.500000	109.508	-6.8411
185.000000	109.475	-6.8828
187.500000	109.442	-6.9172
190.000000	109.409	-6.9505
192.500000	109.377	-6.9825
195.000000	109.345	-6.9958
197.500000	109.312	-6.9845
200.000000	109.279	-6.9694
203.000000	109.240	-6.9676
206.000000	109.202	-6.9690
209.000000	109.165	-6.9582
212.000000	109.127	-6.9362
214.000000	109.103	-6.9152
218.000000	109.057	-6.8680
220.000000	109.035	-6.8466
224.000000	108.993	-6.8149
227.000000	108.961	-6.7850
230.000000	108.928	-6.7407
233.000000	108.896	-6.6876
236.000000	108.866	-6.6373
240.000000	108.825	-6.5754
243.000000	108.796	-6.5222
247.000000	108.758	-6.4478
250.000000	108.731	-6.3897
254.000000	108.694	-6.3063
258.000000	108.655	-6.2143
262.000000	108.619	-6.1115
265.000000	108.593	-6.0283
269.000000	108.558	-5.9194
272.000000	108.531	-5.8442
276.000000	108.496	-5.7297
280.000000	108.466	-5.6037
285.000000	108.429	-5.4635
290.000000	108.387	-5.3185
295.000000	108.348	-5.1659
300.000000	108.313	-5.0075
304.000000	108.284	-4.8884
307.000000	108.263	-4.7971
311.000000	108.236	-4.6597
315.000000	108.209	-4.5152
320.000000	108.175	-4.3463
325.000000	108.143	-4.1825
330.000000	108.113	-4.0126
335.000000	108.081	-3.8397
340.000000	108.050	-3.6613
345.000000	108.021	-3.4737
350.000000	107.991	-3.2820
355.000000	107.964	-3.0965
360.000000	107.937	-2.9130
365.000000	107.911	-2.7243
370.000000	107.883	-2.5360
375.000000	107.857	-2.3478
382.000000	107.823	-2.0855
387.000000	107.797	-1.8947
395.000000	107.758	-1.5769
400.000000	107.734	-1.3708
406.000000	107.708	-1.1338
412.000000	107.682	-0.8944
418.000000	107.656	-0.6482
425.000000	107.626	-0.3480
431.000000	107.601	-0.0897
437.000000	107.577	0.1647
444.000000	107.550	0.4624
450.000000	107.529	0.7098
455.000000	107.510	0.9218
462.000000	107.484	1.2251
468.000000	107.463	1.4826
475.000000	107.440	1.7853
482.000000	107.418	2.0959
487.000000	107.403	2.3209
494.000000	107.382	2.6295
500.000000	107.365	2.8931
508.000000	107.341	3.2586
515.000000	107.320	3.5862
522.000000	107.300	3.9112
530.000000	107.280	4.2778
538.000000	107.261	4.6384
545.000000	107.245	4.9605
552.000000	107.229	5.2933
560.000000	107.211	5.6724
570.000000	107.189	6.1529
580.000000	107.169	6.6444
590.000000	107.149	7.1331
600.000000	107.132	7.6154
608.000000	107.119	8.0179
615.000000	107.107	8.3738
622.000000	107.097	8.7291
630.000000	107.087	9.1407
640.000000	107.075	9.6665
650.000000	107.064	10.1976
660.000000	107.055	10.7404
670.000000	107.049	11.2957
680.000000	107.045	11.8449
690.000000	107.041	12.3891
700.000000	107.039	12.9411
710.000000	107.038	13.5016
720.000000	107.040	14.0640
730.000000	107.043	14.6328
740.000000	107.049	15.2073
750.000000	107.059	15.7885
762.000000	107.072	16.4879
775.000000	107.090	17.2553
788.000000	107.114	18.0236
800.000000	107.139	18.7339
812.000000	107.168	19.4496
825.000000	107.206	20.2130
838.000000	107.248	20.9708
850.000000	107.290	21.6695
862.000000	107.336	22.3608
875.000000	107.391	23.0960
885.000000	107.436	23.6481
900.000000	107.509	24.4599
912.000000	107.573	25.0950
925.000000	107.647	25.7570
938.000000	107.724	26.3859
950.000000	107.798	26.9436
962.000000	107.876	27.4822
975.000000	107.964	28.0479
988.000000	108.054	28.5802
1000.000000	108.139	29.0304
1015.000000	108.247	29.5468
1030.000000	108.355	30.0184
1044.000000	108.458	30.4173
1060.000000	108.576	30.8325
1075.000000	108.686	31.1772
1090.000000	108.796	31.4823
1106.000000	108.910	31.7586
1120.000000	109.007	31.9676
1138.000000	109.130	32.1974
1150.000000	109.210	32.3263
1172.000000	109.352	32.5161
1180.000000	109.401	32.5698
1206.000000	109.557	32.7052
1220.000000	109.637	32.7656
1241.000000	109.752	32.8316
1250.000000	109.799	32.8497
1265.000000	109.874	32.8714
1280.000000	109.947	32.8892
1315.000000	110.108	32.9187
1320.000000	110.131	32.9194
1340.000000	110.216	32.9145
1360.000000	110.298	32.9021
1380.000000	110.377	32.8923
1400.000000	110.452	32.8877
1430.000000	110.558	32.8950
1450.000000	110.625	32.9008
1475.000000	110.706	32.9105
1500.000000	110.784	32.9302
1525.000000	110.860	32.9618
1550.000000	110.935	33.0010
1575.000000	111.008	33.0547
1600.000000	111.081	33.1250
1625.000000	111.152	33.2081
1650.000000	111.225	33.2964
1675.000000	111.298	33.3861
1700.000000	111.373	33.4782
1725.000000	111.448	33.5721
1750.000000	111.525	33.6635
1775.000000	111.602	33.7527
1800.000000	111.681	33.8397
1825.000000	111.762	33.9198
1850.000000	111.846	33.9941
1875.000000	111.930	34.0598
1900.000000	112.015	34.1136
1925.000000	112.101	34.1561
1950.000000	112.189	34.1835
1975.000000	112.279	34.1942
2000.000000	112.370	34.1916
2030.000000	112.480	34.1608
2060.000000	112.591	34.0962
2090.000000	112.702	33.9979
2120.000000	112.815	33.8745
2140.000000	112.891	33.7779
2180.000000	113.042	33.5355
2200.000000	113.117	33.3885
2240.000000	113.267	33.0453
2270.000000	113.377	32.7455
2300.000000	113.486	32.4050
2330.000000	113.593	32.0268
2360.000000	113.698	31.6130
2400.000000	113.832	31.0032
2430.000000	113.929	30.5040
2470.000000	114.053	29.7840
2500.000000	114.141	29.2059
2540.000000	114.250	28.3851
2580.000000	114.349	27.5067
2620.000000	114.438	26.5822
2650.000000	114.498	25.8634
2690.000000	114.567	24.8741
2720.000000	114.611	24.1124
2760.000000	114.660	23.0757
2800.000000	114.696	22.0253
2850.000000	114.723	20.7059
2900.000000	114.729	19.3955
2950.000000	114.717	18.1098
3000.000000	114.687	16.8633
3040.000000	114.649	15.9060
3070.000000	114.615	15.2138
3110.000000	114.561	14.3294
3150.000000	114.499	13.4969
3200.000000	114.410	12.5371
3250.000000	114.312	11.6710
3300.000000	114.207	10.9019
3350.000000	114.097	10.2278
3400.000000	113.984	9.6479
3450.000000	113.871	9.1553
3500.000000	113.758	8.7389
3550.000000	113.644	8.3934
3600.000000	113.531	8.1168
3650.000000	113.420	7.9089
3700.000000	113.309	7.7695
3750.000000	113.202	7.6964
3820.000000	113.057	7.6924
3870.000000	112.958	7.7494
3950.000000	112.809	7.9257
4000.000000	112.722	8.0921
4060.000000	112.623	8.3414
4120.000000	112.530	8.6422
4180.000000	112.444	8.9894
4250.000000	112.352	9.4374
4310.000000	112.281	9.8599
4370.000000	112.217	10.3262
4440.000000	112.154	10.9025
4500.000000	112.107	11.4117
4550.000000	112.073	11.8476
4620.000000	112.033	12.4714
4680.000000	112.006	13.0232
4750.000000	111.983	13.6875
4820.000000	111.968	14.3710
4870.000000	111.963	14.8738
4940.000000	111.965	15.5967
5000.000000	111.976	16.2298
5080.000000	112.007	17.0872
5150.000000	112.050	17.8474
5220.000000	112.109	18.6093
5300.000000	112.202	19.4542
5380.000000	112.326	20.2324
5450.000000	112.459	20.8095
5520.000000	112.616	21.2334
5600.000000	112.823	21.4600
5700.000000	113.104	21.2099
5800.000000	113.373	20.2138
5900.000000	113.569	18.4702
6000.000000	113.633	16.2551
6080.000000	113.570	14.4899
6150.000000	113.438	13.2052
6220.000000	113.254	12.3210
6300.000000	113.012	11.8862
6400.000000	112.711	12.1776
6500.000000	112.460	13.2218
6600.000000	112.291	14.7837
6700.000000	112.216	16.6447
6800.000000	112.240	18.6068
6900.000000	112.359	20.5148
7000.000000	112.569	22.2540
7100.000000	112.866	23.7119
7200.000000	113.247	24.7313
7300.000000	113.695	25.1490
7400.000000	114.189	24.8869
7500.000000	114.717	23.8520
7620.000000	115.362	21.3828
7750.000000	116.004	17.0204
7880.000000	116.497	10.8971
8000.000000	116.733	3.9246
8120.000000	116.694	-3.7398
8250.000000	116.320	-11.8216
8380.000000	115.659	-18.7217
8500.000000	114.884	-23.6508
8620.000000	114.033	-27.2051
8750.000000	113.090	-29.6797
8850.000000	112.384	-30.7669
9000.000000	111.399	-31.4087
9120.000000	110.691	-31.3619
9250.000000	110.002	-31.0438
9380.000000	109.377	-30.6752
9500.000000	108.825	-30.3873
9620.000000	108.257	-30.0687
9750.000000	107.600	-29.3109
9880.000000	106.947	-27.6706
10000.000000	106.456	-25.5519
10150.000000	106.040	-23.2468
10300.000000	105.690	-22.0059
10440.000000	105.290	-21.3534
10600.000000	104.723	-20.4164
10750.000000	104.135	-18.9359
10900.000000	103.543	-16.7767
11060.000000	102.953	-13.8034
11200.000000	102.501	-10.7649
11380.000000	102.030	-6.4881
11500.000000	101.786	-3.5380
11720.000000	101.474	1.7654
11800.000000	101.398	3.6009
12060.000000	101.243	9.0617
12200.000000	101.193	11.7281
12410.000000	101.151	15.4782
12500.000000	101.145	17.0056
12650.000000	101.151	19.4454
12800.000000	101.174	21.7443
13150.000000	101.280	26.5605
13200.000000	101.299	27.1916
13400.000000	101.387	29.5947
13600.000000	101.484	31.8338
13800.000000	101.588	34.0002
14000.000000	101.715	36.2709
14300.000000	102.042	40.0754
14500.000000	102.439	42.6547
14750.000000	103.214	45.0817
15000.000000	104.238	45.2922
15250.000000	105.284	42.2697
15500.000000	106.072	36.0202
15750.000000	106.389	28.0743
16000.000000	106.246	20.8619
16250.000000	105.872	15.9232
16500.000000	105.558	13.2238
16750.000000	105.528	11.6887
17000.000000	105.869	9.5776
17250.000000	106.425	5.0082
17500.000000	106.871	-2.7180
17750.000000	106.972	-12.5829
18000.000000	106.669	-23.0290
18250.000000	106.004	-32.7410
18500.000000	105.098	-40.9021
18750.000000	104.117	-47.6583
19000.000000	103.148	-53.7145
19250.000000	102.200	-59.6478
19500.000000	101.252	-65.7283
19750.000000	100.347	-71.4957
20000.000000	99.778	-74.9718
