* Measurement data measured by REW V5.20.9
* Source: Mic in at rear panel (Pink)(Realtek(R) Audio), MICROPHONE (마스), L, volume: 0.500
* Format: 256k Log Swept Sine, 1 sweep at -12.0 dBFS with no timing reference
* Dated: 2022. 9. 24 오후 1:21:16
* REW Settings:
*  C-weighting compensation: Off
*  Target level: 75.0 dB
* Note: 
* Measurement: R_Final
* Smoothing: 1/24 octave
* Frequency Step: 1/48 octave
* Start Frequency: 20.300 Hz
*
* Freq(Hz)	SPL(dB)	Phase(degrees)
20.299999	77.824	-167.2499
20.600000	77.824	-167.5553
20.900000	77.822	-168.1002
21.200001	77.816	-168.6180
21.400000	77.809	-168.9521
21.799999	77.792	-169.6266
22.000000	77.781	-169.9758
22.400000	77.758	-170.6912
22.700001	77.739	-171.2393
23.000000	77.721	-171.7979
23.299999	77.702	-172.3641
23.600000	77.686	-172.9344
24.000000	77.667	-173.6961
24.299999	77.656	-174.2649
24.700001	77.645	-175.0168
25.000000	77.638	-175.5729
25.400000	77.629	-176.2970
25.799999	77.621	-176.9906
26.200001	77.612	-177.6450
26.500000	77.606	-178.1101
26.900000	77.596	-178.7022
27.200001	77.588	-179.1319
27.600000	77.574	-179.6923
28.000000	77.558	179.7590
28.500000	77.534	179.0912
29.000000	77.506	178.4417
29.500000	77.475	177.8020
30.000000	77.440	177.1669
30.400000	77.411	176.6642
30.700001	77.390	176.2917
31.100000	77.361	175.7992
31.500000	77.334	175.3070
32.000000	77.301	174.6864
32.500000	77.269	174.0645
33.000000	77.239	173.4550
33.500000	77.214	172.8647
34.000000	77.194	172.2851
34.500000	77.174	171.7019
35.000000	77.153	171.1122
35.500000	77.126	170.5298
36.000000	77.092	169.9790
36.500000	77.053	169.4796
37.000000	77.014	169.0338
37.500000	76.978	168.6194
38.200001	76.931	168.0236
38.700001	76.894	167.5635
39.500000	76.824	166.8291
40.000000	76.778	166.4120
40.599998	76.732	165.9351
41.200001	76.694	165.4203
41.799999	76.656	164.8499
42.500000	76.603	164.1863
43.099998	76.555	163.6872
43.700001	76.512	163.2509
44.400002	76.469	162.7662
45.000000	76.434	162.3360
45.500000	76.400	161.9675
46.200001	76.342	161.4745
46.799999	76.284	161.1263
47.500000	76.218	160.8401
48.200001	76.170	160.6212
48.700001	76.147	160.4446
49.400002	76.123	160.1192
50.000000	76.102	159.7705
50.799999	76.064	159.2614
51.500000	76.021	158.8693
52.200001	75.984	158.5777
53.000000	75.965	158.2354
53.799999	75.945	157.7196
54.500000	75.904	157.2213
55.200001	75.848	156.8224
56.000000	75.790	156.4512
57.000000	75.724	155.9619
58.000000	75.658	155.4718
59.000000	75.602	154.9680
60.000000	75.553	154.4229
60.799999	75.520	153.9569
61.500000	75.494	153.5245
62.200001	75.467	153.0693
63.000000	75.427	152.5354
64.000000	75.359	151.9578
65.000000	75.293	151.5406
66.000000	75.238	151.1100
67.000000	75.174	150.6191
68.000000	75.101	150.1433
69.000000	75.024	149.6774
70.000000	74.946	149.2392
71.000000	74.870	148.8406
72.000000	74.798	148.4739
73.000000	74.730	148.1318
74.000000	74.664	147.7881
75.000000	74.596	147.4448
76.199997	74.513	147.0403
77.500000	74.422	146.5964
78.800003	74.332	146.1572
80.000000	74.252	145.8059
81.199997	74.184	145.4762
82.500000	74.114	145.0851
83.800003	74.039	144.6782
85.000000	73.962	144.3017
86.199997	73.877	143.9818
87.500000	73.791	143.6890
88.500000	73.727	143.4478
90.000000	73.624	143.1137
91.199997	73.542	142.8901
92.500000	73.452	142.6542
93.800003	73.357	142.4646
95.000000	73.278	142.3376
96.199997	73.210	142.1717
97.500000	73.133	141.9609
98.800003	73.051	141.8322
100.000000	72.984	141.7975
101.500000	72.917	141.7434
103.000000	72.855	141.5828
104.400002	72.795	141.3424
106.000000	72.722	141.0476
107.500000	72.660	140.7971
109.000000	72.597	140.5392
110.599998	72.519	140.2942
112.000000	72.447	140.1044
113.800003	72.353	139.8550
115.000000	72.292	139.7079
117.199997	72.196	139.5312
118.000000	72.167	139.4878
120.599998	72.069	139.2131
122.000000	71.990	139.0613
124.099998	71.874	138.8986
125.000000	71.829	138.8123
126.500000	71.759	138.6487
128.000000	71.692	138.4908
131.500000	71.533	138.1790
132.000000	71.508	138.1374
134.000000	71.408	137.9873
136.000000	71.308	137.8575
138.000000	71.209	137.7493
140.000000	71.110	137.6766
143.000000	70.966	137.6354
145.000000	70.877	137.6735
147.500000	70.775	137.7629
150.000000	70.676	137.8712
152.500000	70.587	138.0192
155.000000	70.512	138.1104
157.500000	70.436	138.1442
160.000000	70.363	138.1229
162.500000	70.291	138.0544
165.000000	70.220	137.9968
167.500000	70.148	137.9677
170.000000	70.076	137.9366
172.500000	70.002	137.8671
175.000000	69.925	137.7720
177.500000	69.850	137.6673
180.000000	69.773	137.5811
182.500000	69.691	137.5609
185.000000	69.609	137.5558
187.500000	69.527	137.5430
190.000000	69.448	137.5582
192.500000	69.372	137.5957
195.000000	69.291	137.6352
197.500000	69.209	137.6914
200.000000	69.132	137.7837
203.000000	69.050	137.9301
206.000000	68.977	138.0846
209.000000	68.916	138.2237
212.000000	68.858	138.3071
214.000000	68.815	138.3278
218.000000	68.728	138.2867
220.000000	68.685	138.2571
224.000000	68.590	138.2463
227.000000	68.509	138.2722
230.000000	68.427	138.3038
233.000000	68.349	138.3377
236.000000	68.273	138.3879
240.000000	68.167	138.4856
243.000000	68.086	138.5832
247.000000	67.980	138.7417
250.000000	67.900	138.8795
254.000000	67.792	139.0954
258.000000	67.688	139.3832
262.000000	67.585	139.7381
265.000000	67.513	140.0048
269.000000	67.432	140.3585
272.000000	67.384	140.6443
276.000000	67.333	141.0329
280.000000	67.290	141.3643
285.000000	67.243	141.6318
290.000000	67.195	141.7408
295.000000	67.136	141.7922
300.000000	67.066	141.8954
304.000000	67.000	142.0120
307.000000	66.947	142.1111
311.000000	66.875	142.2639
315.000000	66.805	142.4291
320.000000	66.726	142.6398
325.000000	66.655	142.8508
330.000000	66.582	143.0706
335.000000	66.507	143.3772
340.000000	66.434	143.7213
345.000000	66.356	144.0075
350.000000	66.280	144.3004
355.000000	66.211	144.6526
360.000000	66.142	145.0072
365.000000	66.073	145.3023
370.000000	66.008	145.6003
375.000000	65.949	145.9143
382.000000	65.860	146.3614
387.000000	65.790	146.7021
395.000000	65.696	147.2418
400.000000	65.641	147.6095
406.000000	65.576	148.0173
412.000000	65.513	148.3782
418.000000	65.449	148.7796
425.000000	65.376	149.2845
431.000000	65.319	149.6966
437.000000	65.267	150.1063
444.000000	65.210	150.6004
450.000000	65.160	151.0234
455.000000	65.118	151.3741
462.000000	65.063	151.8746
468.000000	65.015	152.3052
475.000000	64.964	152.7813
482.000000	64.915	153.2563
487.000000	64.880	153.6332
494.000000	64.839	154.1701
500.000000	64.803	154.5990
508.000000	64.751	155.1208
515.000000	64.710	155.6039
522.000000	64.675	156.0980
530.000000	64.639	156.6703
538.000000	64.600	157.2512
545.000000	64.564	157.7349
552.000000	64.533	158.2383
560.000000	64.502	158.8104
570.000000	64.461	159.5172
580.000000	64.426	160.3052
590.000000	64.399	161.0633
600.000000	64.368	161.7894
608.000000	64.340	162.3416
615.000000	64.321	162.8591
622.000000	64.304	163.3972
630.000000	64.282	163.9881
640.000000	64.260	164.6859
650.000000	64.242	165.3988
660.000000	64.226	166.1490
670.000000	64.211	166.8976
680.000000	64.200	167.6345
690.000000	64.189	168.4291
700.000000	64.181	169.2646
710.000000	64.194	170.0848
720.000000	64.213	170.8093
730.000000	64.222	171.4732
740.000000	64.227	172.1418
750.000000	64.236	172.8662
762.000000	64.248	173.7604
775.000000	64.268	174.7010
788.000000	64.291	175.6253
800.000000	64.311	176.4367
812.000000	64.328	177.2503
825.000000	64.355	178.2654
838.000000	64.396	179.3250
850.000000	64.445	-179.7375
862.000000	64.505	-178.8627
875.000000	64.572	-177.9518
885.000000	64.628	-177.2841
900.000000	64.715	-176.3101
912.000000	64.787	-175.5411
925.000000	64.870	-174.7333
938.000000	64.959	-173.9112
950.000000	65.048	-173.1401
962.000000	65.137	-172.4171
975.000000	65.234	-171.7158
988.000000	65.341	-171.0406
1000.000000	65.449	-170.4135
1015.000000	65.574	-169.6529
1030.000000	65.702	-168.9425
1044.000000	65.826	-168.3169
1060.000000	65.973	-167.6391
1075.000000	66.112	-167.0228
1090.000000	66.260	-166.4656
1106.000000	66.430	-165.9159
1120.000000	66.586	-165.4501
1138.000000	66.785	-164.9021
1150.000000	66.917	-164.5885
1172.000000	67.165	-164.0686
1180.000000	67.256	-163.8894
1206.000000	67.561	-163.3806
1220.000000	67.731	-163.1687
1241.000000	67.986	-162.9384
1250.000000	68.095	-162.8637
1265.000000	68.280	-162.7551
1280.000000	68.466	-162.6827
1315.000000	68.893	-162.7211
1320.000000	68.953	-162.7509
1340.000000	69.191	-162.9410
1360.000000	69.424	-163.2211
1380.000000	69.656	-163.5512
1400.000000	69.889	-163.9459
1430.000000	70.224	-164.6701
1450.000000	70.438	-165.2248
1475.000000	70.697	-165.9952
1500.000000	70.945	-166.8358
1525.000000	71.182	-167.7464
1550.000000	71.407	-168.7047
1575.000000	71.622	-169.7018
1600.000000	71.827	-170.7351
1625.000000	72.023	-171.8062
1650.000000	72.213	-172.8929
1675.000000	72.398	-174.0021
1700.000000	72.579	-175.1750
1725.000000	72.753	-176.4283
1750.000000	72.917	-177.7695
1775.000000	73.067	-179.1832
1800.000000	73.200	179.3392
1825.000000	73.317	177.8158
1850.000000	73.417	176.2789
1875.000000	73.502	174.7277
1900.000000	73.573	173.1581
1925.000000	73.628	171.5747
1950.000000	73.666	169.9821
1975.000000	73.689	168.4009
2000.000000	73.696	166.8441
2030.000000	73.684	165.0078
2060.000000	73.650	163.2140
2090.000000	73.595	161.4834
2120.000000	73.520	159.8416
2140.000000	73.459	158.8013
2180.000000	73.317	156.8429
2200.000000	73.236	155.9330
2240.000000	73.055	154.2681
2270.000000	72.906	153.1556
2300.000000	72.749	152.1627
2330.000000	72.586	151.2856
2360.000000	72.417	150.5293
2400.000000	72.187	149.7238
2430.000000	72.010	149.2693
2470.000000	71.774	148.8506
2500.000000	71.597	148.6829
2540.000000	71.363	148.6844
2580.000000	71.141	148.9628
2620.000000	70.942	149.5057
2650.000000	70.817	150.0745
2690.000000	70.697	150.9692
2720.000000	70.645	151.6435
2760.000000	70.619	152.3693
2800.000000	70.611	152.8001
2850.000000	70.582	153.0157
2900.000000	70.517	153.1681
2950.000000	70.424	153.4616
3000.000000	70.325	153.9460
3040.000000	70.251	154.4586
3070.000000	70.202	154.8989
3110.000000	70.145	155.5602
3150.000000	70.098	156.3151
3200.000000	70.053	157.3814
3250.000000	70.040	158.5421
3300.000000	70.065	159.7230
3350.000000	70.122	160.8273
3400.000000	70.200	161.7982
3450.000000	70.287	162.6735
3500.000000	70.386	163.5155
3550.000000	70.498	164.3810
3600.000000	70.625	165.2401
3650.000000	70.766	166.0435
3700.000000	70.923	166.7776
3750.000000	71.092	167.4447
3820.000000	71.346	168.2666
3870.000000	71.541	168.7737
3950.000000	71.878	169.3771
4000.000000	72.106	169.5793
4060.000000	72.393	169.6238
4120.000000	72.692	169.4207
4180.000000	72.996	168.9391
4250.000000	73.349	167.9814
4310.000000	73.635	166.8051
4370.000000	73.892	165.2991
4440.000000	74.148	163.1349
4500.000000	74.321	160.9584
4550.000000	74.426	158.9506
4620.000000	74.504	155.9069
4680.000000	74.498	153.1547
4750.000000	74.399	149.9157
4820.000000	74.196	146.8207
4870.000000	73.993	144.7955
4940.000000	73.639	142.3337
5000.000000	73.286	140.6352
5080.000000	72.774	138.9875
5150.000000	72.309	138.1066
5220.000000	71.841	137.6821
5300.000000	71.312	137.6786
5380.000000	70.798	138.1760
5450.000000	70.364	138.9875
5520.000000	69.949	140.0937
5600.000000	69.503	141.6908
5700.000000	68.995	144.1407
5800.000000	68.535	147.0638
5900.000000	68.122	150.6339
6000.000000	67.846	155.1008
6080.000000	67.821	158.5662
6150.000000	67.849	160.8111
6220.000000	67.824	162.7620
6300.000000	67.763	165.2616
6400.000000	67.728	168.8259
6500.000000	67.770	172.6191
6600.000000	67.893	176.4714
6700.000000	68.097	-179.6676
6800.000000	68.393	-175.8630
6900.000000	68.795	-172.1716
7000.000000	69.313	-168.6364
7100.000000	69.946	-165.3384
7200.000000	70.703	-162.4032
7300.000000	71.602	-160.0373
7400.000000	72.646	-158.5724
7500.000000	73.820	-158.4156
7620.000000	75.353	-160.6039
7750.000000	76.970	-166.9755
7880.000000	78.114	-178.2421
8000.000000	78.433	168.3547
8120.000000	77.951	155.4122
8250.000000	76.743	145.2539
8380.000000	75.234	139.9181
8500.000000	73.867	138.3765
8620.000000	72.662	139.0072
8750.000000	71.576	141.2090
8850.000000	70.898	143.5680
9000.000000	70.130	147.7370
9120.000000	69.724	151.3121
9250.000000	69.487	155.1454
9380.000000	69.461	158.6654
9500.000000	69.625	161.3045
9620.000000	69.958	162.9566
9750.000000	70.475	163.0737
9880.000000	71.057	160.7110
10000.000000	71.488	155.7702
10150.000000	71.585	146.1367
10300.000000	70.928	135.0700
10440.000000	69.622	126.6451
10600.000000	67.578	121.5474
10750.000000	65.471	121.1088
10900.000000	63.419	123.8095
11060.000000	61.403	129.1031
11200.000000	59.806	135.2332
11380.000000	57.982	144.7892
11500.000000	56.906	152.0789
11720.000000	55.223	167.3564
11800.000000	54.728	173.6182
12060.000000	53.844	-164.0781
12200.000000	54.002	-152.1314
12410.000000	54.898	-137.6119
12500.000000	55.357	-133.2770
12650.000000	56.004	-128.3682
12800.000000	56.396	-125.1171
13150.000000	56.613	-116.8586
13200.000000	56.627	-115.3518
13400.000000	56.748	-108.6610
13600.000000	57.061	-101.2666
13800.000000	57.689	-93.6603
14000.000000	58.725	-86.6572
14300.000000	61.043	-80.1769
14500.000000	62.856	-81.2741
14750.000000	64.583	-92.0670
15000.000000	64.752	-109.5897
15250.000000	63.315	-122.1399
15500.000000	61.316	-124.8011
15750.000000	59.839	-121.0590
16000.000000	59.362	-115.3606
16250.000000	60.006	-112.0206
16500.000000	61.314	-117.2291
16750.000000	61.854	-135.7162
17000.000000	60.354	-158.0369
17250.000000	56.924	-168.7910
17500.000000	52.712	-166.8806
17750.000000	48.808	-158.1346
18000.000000	45.599	-146.0551
18250.000000	43.019	-132.3614
18500.000000	40.922	-117.9583
18750.000000	39.142	-103.0434
19000.000000	37.588	-87.3341
19250.000000	36.256	-71.1197
19500.000000	35.221	-55.1578
19750.000000	34.506	-38.5657
20000.000000	34.018	-20.7586
