* Measurement data measured by REW V5.20.9
* Source: Mic in at rear panel (Pink)(Realtek(R) Audio), MICROPHONE (마스), R, volume: 0.250
* Format: 256k Log Swept Sine, 1 sweep at -12.0 dBFS with no timing reference
* Dated: 2022. 9. 16 오후 9:46:41
* REW Settings:
*  C-weighting compensation: Off
*  Target level: 75.0 dB
* Note: 
* Measurement: R
* Smoothing: 1/24 octave
* Frequency Step: 1/48 octave
* Start Frequency: 20.300 Hz
*
* Freq(Hz)	SPL(dB)	Phase(degrees)
20.299999	72.207	-154.5318
20.600000	72.210	-154.9162
20.900000	72.212	-155.5866
21.200001	72.205	-156.1803
21.400000	72.199	-156.5371
21.799999	72.185	-157.2187
22.000000	72.178	-157.5673
22.400000	72.167	-158.2988
22.700001	72.158	-158.8796
23.000000	72.147	-159.4805
23.299999	72.134	-160.0814
23.600000	72.121	-160.6681
24.000000	72.111	-161.4211
24.299999	72.111	-161.9753
24.700001	72.121	-162.7277
25.000000	72.132	-163.3162
25.400000	72.147	-164.1299
25.799999	72.157	-164.9443
26.200001	72.160	-165.7195
26.500000	72.158	-166.2610
26.900000	72.152	-166.9282
27.200001	72.145	-167.3905
27.600000	72.133	-167.9562
28.000000	72.120	-168.4574
28.500000	72.109	-169.0007
29.000000	72.110	-169.5210
29.500000	72.118	-170.1207
30.000000	72.118	-170.8376
30.400000	72.103	-171.4424
30.700001	72.082	-171.8707
31.100000	72.049	-172.3715
31.500000	72.020	-172.7997
32.000000	71.996	-173.3042
32.500000	71.982	-173.8555
33.000000	71.970	-174.4634
33.500000	71.958	-175.0837
34.000000	71.947	-175.6930
34.500000	71.936	-176.3023
35.000000	71.924	-176.9086
35.500000	71.911	-177.4889
36.000000	71.902	-178.0536
36.500000	71.894	-178.6500
37.000000	71.875	-179.2758
37.500000	71.841	-179.8315
38.200001	71.797	179.6447
38.700001	71.795	179.3028
39.500000	71.799	178.3380
40.000000	71.755	177.6253
40.599998	71.661	177.0968
41.200001	71.596	177.0002
41.799999	71.596	176.9187
42.500000	71.625	176.4344
43.099998	71.624	175.8422
43.700001	71.606	175.3073
44.400002	71.584	174.7376
45.000000	71.562	174.2352
45.500000	71.538	173.8335
46.200001	71.502	173.3283
46.799999	71.473	172.9257
47.500000	71.444	172.4697
48.200001	71.421	172.0087
48.700001	71.406	171.6524
49.400002	71.378	171.1276
50.000000	71.347	170.7114
50.799999	71.308	170.2375
51.500000	71.282	169.8372
52.200001	71.256	169.4113
53.000000	71.222	168.9244
53.799999	71.184	168.4682
54.500000	71.153	168.0659
55.200001	71.118	167.6349
56.000000	71.070	167.1634
57.000000	71.015	166.6782
58.000000	70.975	166.1595
59.000000	70.929	165.6007
60.000000	70.881	165.0861
60.799999	70.844	164.6729
61.500000	70.811	164.3277
62.200001	70.779	163.9931
63.000000	70.739	163.6036
64.000000	70.680	163.1822
65.000000	70.630	162.8383
66.000000	70.591	162.4405
67.000000	70.550	161.9808
68.000000	70.503	161.5068
69.000000	70.452	161.0547
70.000000	70.399	160.6418
71.000000	70.349	160.2762
72.000000	70.301	159.9229
73.000000	70.251	159.5671
74.000000	70.196	159.2331
75.000000	70.139	158.9162
76.199997	70.071	158.5599
77.500000	70.002	158.1633
78.800003	69.935	157.7375
80.000000	69.876	157.3623
81.199997	69.824	156.9715
82.500000	69.758	156.5486
83.800003	69.697	156.2580
85.000000	69.654	155.9326
86.199997	69.598	155.5487
87.500000	69.527	155.2168
88.500000	69.474	155.0143
90.000000	69.402	154.7374
91.199997	69.349	154.4910
92.500000	69.288	154.1924
93.800003	69.220	153.8897
95.000000	69.154	153.6479
96.199997	69.094	153.4371
97.500000	69.038	153.1738
98.800003	68.979	152.8682
100.000000	68.921	152.6169
101.500000	68.853	152.3416
103.000000	68.785	152.0508
104.400002	68.713	151.7767
106.000000	68.623	151.5112
107.500000	68.539	151.3142
109.000000	68.461	151.1129
110.599998	68.378	150.8901
112.000000	68.306	150.6898
113.800003	68.207	150.4080
115.000000	68.132	150.2381
117.199997	67.986	149.9976
118.000000	67.931	149.9290
120.599998	67.759	149.8358
122.000000	67.678	149.7958
124.099998	67.549	149.7677
125.000000	67.490	149.8185
126.500000	67.388	150.0116
128.000000	67.287	150.3724
131.500000	67.090	151.6909
132.000000	67.064	151.9381
134.000000	67.002	153.1410
136.000000	67.040	154.3464
138.000000	67.162	155.1147
140.000000	67.322	155.3047
143.000000	67.538	154.5858
145.000000	67.607	153.7221
147.500000	67.613	152.7094
150.000000	67.563	151.9074
152.500000	67.494	151.2642
155.000000	67.415	150.6888
157.500000	67.329	150.2174
160.000000	67.240	149.8680
162.500000	67.151	149.6116
165.000000	67.067	149.3813
167.500000	66.986	149.1587
170.000000	66.908	148.9453
172.500000	66.831	148.7514
175.000000	66.753	148.5967
177.500000	66.673	148.4770
180.000000	66.589	148.3839
182.500000	66.508	148.3308
185.000000	66.433	148.3106
187.500000	66.362	148.3010
190.000000	66.293	148.2933
192.500000	66.223	148.2773
195.000000	66.153	148.2376
197.500000	66.082	148.1865
200.000000	66.015	148.1500
203.000000	65.942	148.1479
206.000000	65.870	148.1753
209.000000	65.794	148.2197
212.000000	65.719	148.2880
214.000000	65.671	148.3395
218.000000	65.581	148.4263
220.000000	65.538	148.4806
224.000000	65.461	148.6414
227.000000	65.407	148.7620
230.000000	65.353	148.8298
233.000000	65.291	148.8611
236.000000	65.225	148.9253
240.000000	65.149	149.0504
243.000000	65.094	149.1616
247.000000	65.014	149.3152
250.000000	64.951	149.4013
254.000000	64.873	149.5146
258.000000	64.803	149.6509
262.000000	64.731	149.7889
265.000000	64.674	149.9131
269.000000	64.601	150.1071
272.000000	64.550	150.2587
276.000000	64.482	150.4392
280.000000	64.418	150.6070
285.000000	64.343	150.8721
290.000000	64.269	151.1628
295.000000	64.198	151.4634
300.000000	64.137	151.8189
304.000000	64.096	152.0987
307.000000	64.068	152.2926
311.000000	64.034	152.5154
315.000000	63.998	152.7107
320.000000	63.949	152.9359
325.000000	63.898	153.1364
330.000000	63.847	153.3667
335.000000	63.796	153.6329
340.000000	63.743	153.8795
345.000000	63.688	154.1098
350.000000	63.634	154.3498
355.000000	63.577	154.6180
360.000000	63.521	154.8996
365.000000	63.472	155.1828
370.000000	63.425	155.4820
375.000000	63.376	155.7578
382.000000	63.308	156.1411
387.000000	63.261	156.4323
395.000000	63.189	156.9109
400.000000	63.147	157.2054
406.000000	63.095	157.5428
412.000000	63.048	157.8861
418.000000	63.004	158.2393
425.000000	62.947	158.6702
431.000000	62.899	159.0754
437.000000	62.859	159.4767
444.000000	62.817	159.9159
450.000000	62.780	160.2765
455.000000	62.748	160.5700
462.000000	62.704	161.0189
468.000000	62.672	161.4186
475.000000	62.636	161.8509
482.000000	62.599	162.2830
487.000000	62.573	162.5948
494.000000	62.536	163.0209
500.000000	62.506	163.3943
508.000000	62.470	163.9185
515.000000	62.439	164.3607
522.000000	62.410	164.7973
530.000000	62.377	165.3038
538.000000	62.344	165.8127
545.000000	62.318	166.2657
552.000000	62.291	166.7310
560.000000	62.261	167.2636
570.000000	62.227	167.9682
580.000000	62.185	168.7334
590.000000	62.144	169.5321
600.000000	62.111	170.3847
608.000000	62.094	171.1577
615.000000	62.094	171.8652
622.000000	62.109	172.5659
630.000000	62.145	173.2876
640.000000	62.205	173.9992
650.000000	62.256	174.5140
660.000000	62.288	174.9360
670.000000	62.305	175.3788
680.000000	62.314	175.8333
690.000000	62.316	176.3091
700.000000	62.313	176.8219
710.000000	62.310	177.3649
720.000000	62.308	177.9270
730.000000	62.309	178.4982
740.000000	62.312	179.0854
750.000000	62.319	179.6808
762.000000	62.330	-179.6183
775.000000	62.342	-178.8443
788.000000	62.353	-178.0503
800.000000	62.361	-177.3044
812.000000	62.369	-176.5599
825.000000	62.386	-175.7071
838.000000	62.414	-174.7979
850.000000	62.448	-173.9339
862.000000	62.493	-173.0797
875.000000	62.546	-172.1905
885.000000	62.591	-171.5245
900.000000	62.667	-170.5432
912.000000	62.732	-169.7924
925.000000	62.808	-169.0089
938.000000	62.888	-168.2481
950.000000	62.962	-167.5768
962.000000	63.037	-166.9327
975.000000	63.120	-166.2682
988.000000	63.208	-165.6543
1000.000000	63.292	-165.1065
1015.000000	63.397	-164.3866
1030.000000	63.504	-163.6996
1044.000000	63.602	-163.1115
1060.000000	63.716	-162.4725
1075.000000	63.823	-161.9144
1090.000000	63.932	-161.3746
1106.000000	64.054	-160.7947
1120.000000	64.164	-160.2906
1138.000000	64.307	-159.6690
1150.000000	64.403	-159.2488
1172.000000	64.579	-158.4805
1180.000000	64.644	-158.2011
1206.000000	64.859	-157.2715
1220.000000	64.982	-156.7574
1241.000000	65.180	-155.9936
1250.000000	65.271	-155.6697
1265.000000	65.431	-155.1389
1280.000000	65.600	-154.6533
1315.000000	66.021	-153.8241
1320.000000	66.082	-153.7496
1340.000000	66.323	-153.5694
1360.000000	66.549	-153.5505
1380.000000	66.759	-153.6505
1400.000000	66.953	-153.8028
1430.000000	67.219	-154.0056
1450.000000	67.379	-154.1136
1475.000000	67.568	-154.2032
1500.000000	67.753	-154.2318
1525.000000	67.935	-154.1885
1550.000000	68.120	-154.0990
1575.000000	68.307	-153.9776
1600.000000	68.495	-153.8299
1625.000000	68.691	-153.6713
1650.000000	68.891	-153.5166
1675.000000	69.096	-153.3498
1700.000000	69.308	-153.1903
1725.000000	69.527	-153.0487
1750.000000	69.753	-152.9273
1775.000000	69.982	-152.8373
1800.000000	70.219	-152.7853
1825.000000	70.460	-152.7810
1850.000000	70.705	-152.8200
1875.000000	70.957	-152.8979
1900.000000	71.213	-153.0147
1925.000000	71.474	-153.1779
1950.000000	71.739	-153.3969
1975.000000	72.010	-153.6818
2000.000000	72.284	-154.0348
2030.000000	72.618	-154.5517
2060.000000	72.956	-155.1773
2090.000000	73.298	-155.9191
2120.000000	73.643	-156.7920
2140.000000	73.874	-157.4538
2180.000000	74.333	-158.9717
2200.000000	74.559	-159.8297
2240.000000	75.002	-161.7590
2270.000000	75.324	-163.3988
2300.000000	75.633	-165.2031
2330.000000	75.927	-167.1657
2360.000000	76.202	-169.2835
2400.000000	76.533	-172.3382
2430.000000	76.750	-174.7758
2470.000000	76.993	-178.1756
2500.000000	77.137	179.1948
2540.000000	77.277	175.6356
2580.000000	77.355	172.0854
2620.000000	77.374	168.6216
2650.000000	77.352	166.1226
2690.000000	77.280	162.9658
2720.000000	77.198	160.7505
2760.000000	77.057	158.0269
2800.000000	76.887	155.5807
2850.000000	76.648	152.9189
2900.000000	76.390	150.6928
2950.000000	76.124	148.8932
3000.000000	75.861	147.5023
3040.000000	75.657	146.6721
3070.000000	75.512	146.2102
3110.000000	75.337	145.7991
3150.000000	75.188	145.5905
3200.000000	75.050	145.5244
3250.000000	74.970	145.5147
3300.000000	74.935	145.4037
3350.000000	74.922	145.1391
3400.000000	74.915	144.7701
3450.000000	74.911	144.3669
3500.000000	74.915	143.9901
3550.000000	74.930	143.6585
3600.000000	74.959	143.3555
3650.000000	75.003	143.0570
3700.000000	75.064	142.7392
3750.000000	75.143	142.3766
3820.000000	75.278	141.7215
3870.000000	75.382	141.0661
3950.000000	75.495	139.7839
4000.000000	75.545	139.3990
4060.000000	75.750	139.2400
4120.000000	76.064	138.1233
4180.000000	76.341	136.1138
4250.000000	76.599	133.1815
4310.000000	76.767	130.2465
4370.000000	76.871	126.9328
4440.000000	76.895	122.6632
4500.000000	76.822	118.7787
4550.000000	76.692	115.4774
4620.000000	76.398	110.9197
4680.000000	76.045	107.2346
4750.000000	75.530	103.3892
4820.000000	74.925	100.1953
4870.000000	74.453	98.3586
4940.000000	73.760	96.4123
5000.000000	73.155	95.2903
5080.000000	72.358	94.4750
5150.000000	71.679	94.3105
5220.000000	71.021	94.5924
5300.000000	70.300	95.3978
5380.000000	69.618	96.6519
5450.000000	69.056	98.0766
5520.000000	68.529	99.7786
5600.000000	67.970	102.0177
5700.000000	67.336	105.2070
5800.000000	66.776	108.7785
5900.000000	66.294	112.6665
6000.000000	65.897	116.8276
6080.000000	65.641	120.3240
6150.000000	65.464	123.4718
6220.000000	65.334	126.6863
6300.000000	65.245	130.4204
6400.000000	65.222	135.0985
6500.000000	65.302	139.7188
6600.000000	65.485	144.2012
6700.000000	65.767	148.4201
6800.000000	66.155	152.2675
6900.000000	66.649	155.6419
7000.000000	67.235	158.4790
7100.000000	67.890	160.7540
7200.000000	68.605	162.4505
7300.000000	69.379	163.5216
7400.000000	70.223	163.8861
7500.000000	71.152	163.3684
7620.000000	72.394	161.0665
7750.000000	73.793	155.4041
7880.000000	74.915	145.1365
8000.000000	75.353	131.6441
8120.000000	74.966	116.8872
8250.000000	73.662	103.7210
8380.000000	71.804	95.7522
8500.000000	69.961	92.5861
8620.000000	68.205	92.2703
8750.000000	66.483	94.0371
8850.000000	65.293	96.3933
9000.000000	63.716	101.0239
9120.000000	62.617	105.3826
9250.000000	61.569	110.5698
9380.000000	60.650	116.1036
9500.000000	59.899	121.4520
9620.000000	59.235	126.9998
9750.000000	58.611	133.1650
9880.000000	58.081	139.4503
10000.000000	57.667	145.3376
10150.000000	57.239	152.7957
10300.000000	56.910	160.3307
10440.000000	56.693	167.4438
10600.000000	56.541	175.6069
10750.000000	56.495	-176.7820
10900.000000	56.546	-169.1980
11060.000000	56.711	-161.1182
11200.000000	56.956	-154.1153
11380.000000	57.422	-145.3018
11500.000000	57.836	-139.5641
11720.000000	58.858	-129.4377
11800.000000	59.329	-125.9559
12060.000000	61.339	-115.9874
12200.000000	62.798	-112.1068
12410.000000	65.514	-110.5631
12500.000000	66.761	-112.6799
12650.000000	68.564	-121.8947
12800.000000	69.507	-138.2436
13150.000000	67.187	-173.7942
13200.000000	66.496	-175.9596
13400.000000	63.621	-178.1354
13600.000000	61.147	-174.0217
13800.000000	59.287	-167.0815
14000.000000	57.941	-158.8311
14300.000000	56.619	-145.3097
14500.000000	56.111	-135.8793
14750.000000	55.859	-124.0265
15000.000000	56.055	-112.5393
15250.000000	56.782	-101.8279
15500.000000	58.218	-92.8465
15750.000000	60.437	-87.9183
16000.000000	62.926	-91.8945
16250.000000	64.397	-108.9453
16500.000000	63.795	-130.9805
16750.000000	61.373	-143.1009
17000.000000	58.348	-143.2024
17250.000000	55.735	-136.6712
17500.000000	53.832	-127.3074
17750.000000	52.542	-116.8099
18000.000000	51.723	-106.0146
18250.000000	51.296	-95.5039
18500.000000	51.228	-85.8654
18750.000000	51.471	-77.7030
19000.000000	51.936	-71.7819
19250.000000	52.454	-69.2541
19500.000000	52.733	-71.0948
19750.000000	52.399	-76.2617
20000.000000	51.186	-81.0372
