* Measurement data measured by REW V5.20.13
* Source: EXCL: Mic in at rear panel (Pink)(Realtek(R) Audio), MICROPHONE (마스), L, volume: 0.500
* Format: 256k Log Swept Sine, 1 sweep at -12.0 dBFS with no timing reference
* Dated: 2022. 10. 1 오후 4:54:52
* REW Settings:
*  C-weighting compensation: Off
*  Target level: 75.0 dB
* Note: 
* Measurement: R_AEX70
* Smoothing: 1/24 octave
* Frequency Step: 1/48 octave
* Start Frequency: 20.300 Hz
*
* Freq(Hz)	SPL(dB)	Phase(degrees)
20.299999	79.755	-167.2558
20.600000	79.741	-167.5390
20.900000	79.716	-168.0107
21.200001	79.700	-168.3837
21.400000	79.698	-168.6234
21.799999	79.700	-169.2023
22.000000	79.700	-169.5742
22.400000	79.680	-170.4474
22.700001	79.643	-171.1151
23.000000	79.593	-171.6957
23.299999	79.545	-172.1570
23.600000	79.510	-172.5334
24.000000	79.496	-173.0200
24.299999	79.502	-173.4700
24.700001	79.513	-174.2238
25.000000	79.510	-174.8486
25.400000	79.486	-175.6275
25.799999	79.454	-176.2289
26.200001	79.435	-176.6696
26.500000	79.435	-176.9746
26.900000	79.445	-177.4473
27.200001	79.448	-177.8717
27.600000	79.432	-178.4733
28.000000	79.395	-178.9918
28.500000	79.342	-179.4155
29.000000	79.312	-179.7070
29.500000	79.306	179.8974
30.000000	79.294	179.3062
30.400000	79.265	178.7776
30.700001	79.235	178.4066
31.100000	79.192	177.9695
31.500000	79.155	177.5649
32.000000	79.115	177.0273
32.500000	79.073	176.4425
33.000000	79.028	175.8802
33.500000	78.990	175.3696
34.000000	78.963	174.8588
34.500000	78.934	174.3216
35.000000	78.898	173.8199
35.500000	78.864	173.4120
36.000000	78.843	173.0360
36.500000	78.828	172.5781
37.000000	78.797	172.0331
37.500000	78.739	171.5349
38.200001	78.638	171.1207
38.700001	78.581	170.9626
39.500000	78.520	170.6259
40.000000	78.486	170.3193
40.599998	78.441	169.8876
41.200001	78.393	169.4054
41.799999	78.338	168.9241
42.500000	78.276	168.4621
43.099998	78.245	168.1365
43.700001	78.235	167.7621
44.400002	78.229	167.1738
45.000000	78.204	166.6043
45.500000	78.163	166.2153
46.200001	78.103	165.9332
46.799999	78.078	165.8124
47.500000	78.069	165.4424
48.200001	78.012	164.8199
48.700001	77.926	164.4813
49.400002	77.788	164.4224
50.000000	77.703	164.6120
50.799999	77.644	164.7360
51.500000	77.602	164.5812
52.200001	77.545	164.3320
53.000000	77.479	164.0921
53.799999	77.433	163.8452
54.500000	77.400	163.5262
55.200001	77.357	163.1588
56.000000	77.295	162.8339
57.000000	77.225	162.5975
58.000000	77.160	162.3683
59.000000	77.077	162.1914
60.000000	76.996	162.0893
60.799999	76.936	161.9373
61.500000	76.881	161.7744
62.200001	76.829	161.6038
63.000000	76.773	161.3508
64.000000	76.694	161.0444
65.000000	76.624	160.9061
66.000000	76.579	160.7848
67.000000	76.532	160.5999
68.000000	76.466	160.4050
69.000000	76.379	160.2993
70.000000	76.295	160.2606
71.000000	76.215	160.1454
72.000000	76.135	159.9919
73.000000	76.067	159.7899
74.000000	75.993	159.5844
75.000000	75.929	159.6144
76.199997	75.900	159.6926
77.500000	75.856	159.6817
78.800003	75.799	159.7388
80.000000	75.728	159.6098
81.199997	75.606	159.4105
82.500000	75.470	159.5334
83.800003	75.411	159.6528
85.000000	75.398	159.5726
86.199997	75.395	159.3257
87.500000	75.359	159.0579
88.500000	75.307	159.0248
90.000000	75.231	159.2069
91.199997	75.175	159.2739
92.500000	75.098	159.2713
93.800003	75.023	159.2645
95.000000	74.961	159.2195
96.199997	74.899	159.1887
97.500000	74.834	159.2044
98.800003	74.763	159.2555
100.000000	74.695	159.3715
101.500000	74.620	159.4489
103.000000	74.531	159.4405
104.400002	74.447	159.5033
106.000000	74.364	159.6772
107.500000	74.306	159.8891
109.000000	74.249	160.0303
110.599998	74.163	160.1972
112.000000	74.078	160.4330
113.800003	73.972	160.7853
115.000000	73.905	161.0439
117.199997	73.798	161.5940
118.000000	73.765	161.8102
120.599998	73.647	162.5510
122.000000	73.579	163.1626
124.099998	73.522	164.2017
125.000000	73.509	164.6363
126.500000	73.500	165.3976
128.000000	73.517	166.2142
131.500000	73.662	167.8291
132.000000	73.692	167.9996
134.000000	73.823	168.4158
136.000000	73.942	168.4493
138.000000	74.037	168.2837
140.000000	74.107	167.9607
143.000000	74.155	167.3196
145.000000	74.172	166.8436
147.500000	74.160	166.2249
150.000000	74.115	165.7768
152.500000	74.066	165.4221
155.000000	74.006	165.0953
157.500000	73.933	164.9216
160.000000	73.854	164.8633
162.500000	73.782	164.8438
165.000000	73.719	164.7605
167.500000	73.652	164.7350
170.000000	73.590	164.8109
172.500000	73.536	164.9289
175.000000	73.486	165.0401
177.500000	73.429	165.1744
180.000000	73.375	165.3525
182.500000	73.333	165.4553
185.000000	73.284	165.5282
187.500000	73.226	165.6759
190.000000	73.173	165.8879
192.500000	73.130	166.0939
195.000000	73.089	166.2974
197.500000	73.049	166.5144
200.000000	73.011	166.6740
203.000000	72.967	166.8186
206.000000	72.930	166.9925
209.000000	72.896	167.1874
212.000000	72.855	167.3695
214.000000	72.821	167.4965
218.000000	72.763	167.7970
220.000000	72.745	167.9554
224.000000	72.713	168.2798
227.000000	72.674	168.4918
230.000000	72.629	168.7267
233.000000	72.596	169.0019
236.000000	72.568	169.3089
240.000000	72.522	169.7191
243.000000	72.488	169.9352
247.000000	72.449	170.2005
250.000000	72.427	170.4581
254.000000	72.391	170.7995
258.000000	72.358	171.1447
262.000000	72.330	171.4766
265.000000	72.309	171.6992
269.000000	72.285	171.9798
272.000000	72.270	172.2060
276.000000	72.248	172.4882
280.000000	72.226	172.7467
285.000000	72.196	173.1470
290.000000	72.169	173.5558
295.000000	72.142	173.8610
300.000000	72.109	174.1501
304.000000	72.089	174.4960
307.000000	72.080	174.7760
311.000000	72.066	175.1031
315.000000	72.053	175.3866
320.000000	72.041	175.7151
325.000000	72.031	176.1032
330.000000	72.020	176.5158
335.000000	72.009	176.8049
340.000000	71.988	177.0352
345.000000	71.970	177.3152
350.000000	71.958	177.6479
355.000000	71.941	178.0095
360.000000	71.922	178.3540
365.000000	71.912	178.6349
370.000000	71.900	178.8809
375.000000	71.877	179.1793
382.000000	71.846	179.6790
387.000000	71.829	-179.9976
395.000000	71.808	-179.4804
400.000000	71.793	-179.1446
406.000000	71.779	-178.7617
412.000000	71.763	-178.3366
418.000000	71.741	-177.9543
425.000000	71.722	-177.5725
431.000000	71.716	-177.1922
437.000000	71.710	-176.8068
444.000000	71.698	-176.4044
450.000000	71.686	-176.0721
455.000000	71.677	-175.7792
462.000000	71.662	-175.3462
468.000000	71.651	-174.9589
475.000000	71.646	-174.5294
482.000000	71.645	-174.1256
487.000000	71.644	-173.8468
494.000000	71.638	-173.4808
500.000000	71.631	-173.1431
508.000000	71.628	-172.6092
515.000000	71.629	-172.1271
522.000000	71.627	-171.7059
530.000000	71.622	-171.3039
538.000000	71.618	-170.8606
545.000000	71.621	-170.4360
552.000000	71.620	-170.0260
560.000000	71.613	-169.5503
570.000000	71.608	-168.9132
580.000000	71.612	-168.3238
590.000000	71.616	-167.7125
600.000000	71.621	-167.1389
608.000000	71.624	-166.6962
615.000000	71.627	-166.2998
622.000000	71.632	-165.9007
630.000000	71.636	-165.4313
640.000000	71.639	-164.8539
650.000000	71.646	-164.2439
660.000000	71.657	-163.6229
670.000000	71.668	-163.0726
680.000000	71.675	-162.5205
690.000000	71.687	-161.9205
700.000000	71.704	-161.2961
710.000000	71.723	-160.7119
720.000000	71.739	-160.1562
730.000000	71.750	-159.5589
740.000000	71.765	-158.9500
750.000000	71.789	-158.3873
762.000000	71.823	-157.7243
775.000000	71.859	-156.9317
788.000000	71.892	-156.1647
800.000000	71.927	-155.5127
812.000000	71.964	-154.9100
825.000000	72.009	-154.2215
838.000000	72.057	-153.5811
850.000000	72.096	-153.0252
862.000000	72.130	-152.4947
875.000000	72.146	-151.9730
885.000000	72.144	-151.5031
900.000000	72.160	-150.4240
912.000000	72.198	-149.5144
925.000000	72.238	-148.4847
938.000000	72.328	-147.2507
950.000000	72.478	-146.3322
962.000000	72.624	-145.7994
975.000000	72.743	-145.4376
988.000000	72.832	-145.1384
1000.000000	72.909	-144.8444
1015.000000	73.032	-144.4197
1030.000000	73.154	-144.0302
1044.000000	73.256	-143.6645
1060.000000	73.367	-143.2584
1075.000000	73.465	-142.9049
1090.000000	73.564	-142.6010
1106.000000	73.683	-142.3747
1120.000000	73.789	-142.1967
1138.000000	73.918	-141.9671
1150.000000	73.999	-141.8264
1172.000000	74.149	-141.6146
1180.000000	74.200	-141.5462
1206.000000	74.362	-141.3301
1220.000000	74.450	-141.2371
1241.000000	74.577	-141.1347
1250.000000	74.629	-141.0937
1265.000000	74.713	-141.0254
1280.000000	74.796	-140.9612
1315.000000	74.981	-140.8035
1320.000000	75.006	-140.7743
1340.000000	75.101	-140.6588
1360.000000	75.189	-140.5751
1380.000000	75.276	-140.5169
1400.000000	75.367	-140.4615
1430.000000	75.503	-140.3456
1450.000000	75.591	-140.2816
1475.000000	75.701	-140.1956
1500.000000	75.813	-140.0719
1525.000000	75.919	-139.9801
1550.000000	76.022	-139.8740
1575.000000	76.132	-139.7501
1600.000000	76.242	-139.6286
1625.000000	76.346	-139.5271
1650.000000	76.451	-139.4435
1675.000000	76.556	-139.3553
1700.000000	76.660	-139.2749
1725.000000	76.761	-139.2025
1750.000000	76.861	-139.1280
1775.000000	76.961	-139.0488
1800.000000	77.061	-138.9612
1825.000000	77.162	-138.8853
1850.000000	77.266	-138.8076
1875.000000	77.373	-138.7136
1900.000000	77.485	-138.6120
1925.000000	77.603	-138.5371
1950.000000	77.731	-138.5203
1975.000000	77.862	-138.5676
2000.000000	77.989	-138.6782
2030.000000	78.137	-138.8985
2060.000000	78.278	-139.1788
2090.000000	78.411	-139.4858
2120.000000	78.536	-139.8190
2140.000000	78.616	-140.0587
2180.000000	78.771	-140.5390
2200.000000	78.847	-140.7764
2240.000000	78.992	-141.2748
2270.000000	79.095	-141.6682
2300.000000	79.195	-142.0673
2330.000000	79.293	-142.4807
2360.000000	79.389	-142.9132
2400.000000	79.513	-143.5097
2430.000000	79.602	-143.9737
2470.000000	79.715	-144.6204
2500.000000	79.797	-145.1354
2540.000000	79.903	-145.8307
2580.000000	80.003	-146.5284
2620.000000	80.093	-147.2557
2650.000000	80.156	-147.8241
2690.000000	80.232	-148.5940
2720.000000	80.283	-149.1654
2760.000000	80.347	-149.9212
2800.000000	80.403	-150.6849
2850.000000	80.462	-151.6515
2900.000000	80.513	-152.5803
2950.000000	80.555	-153.4798
3000.000000	80.587	-154.3494
3040.000000	80.610	-155.0362
3070.000000	80.625	-155.5438
3110.000000	80.641	-156.2077
3150.000000	80.653	-156.8585
3200.000000	80.664	-157.6677
3250.000000	80.669	-158.4612
3300.000000	80.668	-159.2170
3350.000000	80.661	-159.9441
3400.000000	80.649	-160.6361
3450.000000	80.638	-161.2951
3500.000000	80.629	-161.9307
3550.000000	80.619	-162.5258
3600.000000	80.605	-163.0821
3650.000000	80.589	-163.6046
3700.000000	80.568	-164.0957
3750.000000	80.546	-164.5418
3820.000000	80.510	-165.0979
3870.000000	80.475	-165.4309
3950.000000	80.415	-165.8153
4000.000000	80.384	-165.9516
4060.000000	80.363	-166.0376
4120.000000	80.366	-166.1093
4180.000000	80.387	-166.2646
4250.000000	80.418	-166.5842
4310.000000	80.438	-166.9521
4370.000000	80.443	-167.3728
4440.000000	80.434	-167.8826
4500.000000	80.421	-168.3283
4550.000000	80.408	-168.7013
4620.000000	80.387	-169.2318
4680.000000	80.368	-169.6965
4750.000000	80.343	-170.2455
4820.000000	80.316	-170.8154
4870.000000	80.293	-171.2358
4940.000000	80.254	-171.8369
5000.000000	80.214	-172.3627
5080.000000	80.155	-173.0638
5150.000000	80.099	-173.6709
5220.000000	80.036	-174.2673
5300.000000	79.956	-174.9178
5380.000000	79.870	-175.5387
5450.000000	79.789	-176.0544
5520.000000	79.703	-176.5488
5600.000000	79.599	-177.0714
5700.000000	79.460	-177.6222
5800.000000	79.321	-178.0461
5900.000000	79.183	-178.3276
6000.000000	79.053	-178.4843
6080.000000	78.960	-178.5239
6150.000000	78.891	-178.4922
6220.000000	78.837	-178.4189
6300.000000	78.793	-178.3442
6400.000000	78.756	-178.3138
6500.000000	78.730	-178.3054
6600.000000	78.720	-178.3220
6700.000000	78.734	-178.3509
6800.000000	78.781	-178.4106
6900.000000	78.874	-178.5587
7000.000000	79.013	-178.8524
7100.000000	79.185	-179.3329
7200.000000	79.385	179.9665
7300.000000	79.610	178.9564
7400.000000	79.849	177.5671
7500.000000	80.094	175.7567
7620.000000	80.394	172.9811
7750.000000	80.698	169.1820
7880.000000	80.892	164.4974
8000.000000	80.965	159.2969
8120.000000	80.914	153.1443
8250.000000	80.640	145.4416
8380.000000	80.033	137.1934
8500.000000	79.121	130.1418
8620.000000	77.900	124.7310
8750.000000	76.357	121.4077
8850.000000	75.128	120.6112
9000.000000	73.368	121.6546
9120.000000	72.099	123.8169
9250.000000	70.878	127.0027
9380.000000	69.797	130.7313
9500.000000	68.902	134.4893
9620.000000	68.091	138.4861
9750.000000	67.291	143.0438
9880.000000	66.562	147.7826
10000.000000	65.945	152.3665
10150.000000	65.242	158.4703
10300.000000	64.617	165.0117
10440.000000	64.102	171.6009
10600.000000	63.617	179.8181
10750.000000	63.316	-171.6482
10900.000000	63.243	-162.3780
11060.000000	63.537	-152.1889
11200.000000	64.147	-143.8029
11380.000000	65.316	-135.2702
11500.000000	66.196	-131.5426
11720.000000	67.651	-128.6286
11800.000000	68.075	-128.4225
12060.000000	69.064	-128.3910
12200.000000	69.442	-127.9928
12410.000000	69.961	-126.5082
12500.000000	70.205	-125.5986
12650.000000	70.687	-123.8657
12800.000000	71.298	-122.0430
13150.000000	73.404	-118.9561
13200.000000	73.800	-118.8472
13400.000000	75.632	-120.1436
13600.000000	77.722	-125.9975
13800.000000	79.560	-139.1237
14000.000000	80.416	-159.4392
14300.000000	79.226	170.7788
14500.000000	77.384	159.3921
14750.000000	75.029	153.3327
15000.000000	73.190	151.7720
15250.000000	71.921	151.6435
15500.000000	71.143	151.2531
15750.000000	70.704	149.4841
16000.000000	70.346	145.7407
16250.000000	69.826	140.2701
16500.000000	69.005	134.1188
16750.000000	67.849	128.4866
17000.000000	66.412	124.4228
17250.000000	64.822	122.5128
17500.000000	63.226	122.7350
17750.000000	61.715	124.7136
18000.000000	60.342	128.0781
18250.000000	59.133	132.4446
18500.000000	58.095	137.4159
18750.000000	57.214	142.6671
19000.000000	56.495	147.9117
19250.000000	55.894	152.8972
19500.000000	55.348	157.3688
19750.000000	54.856	161.1280
20000.000000	54.500	163.5175
