* Measurement data measured by REW V5.20.13
* Source: EXCL: Mic in at rear panel (Pink)(Realtek(R) Audio), MICROPHONE (마스), L, volume: 0.500
* Format: 256k Log Swept Sine, 1 sweep at -12.0 dBFS with no timing reference
* Dated: 2022. 10. 1 오후 4:41:22
* REW Settings:
*  C-weighting compensation: Off
*  Target level: 75.0 dB
* Note: 
* Measurement: L_Final
* Smoothing: 1/24 octave
* Frequency Step: 1/48 octave
* Start Frequency: 20.300 Hz
*
* Freq(Hz)	SPL(dB)	Phase(degrees)
20.299999	78.674	-166.8586
20.600000	78.636	-167.2969
20.900000	78.556	-168.0124
21.200001	78.483	-168.5197
21.400000	78.442	-168.7646
21.799999	78.380	-169.1593
22.000000	78.359	-169.3618
22.400000	78.336	-169.8280
22.700001	78.331	-170.2548
23.000000	78.333	-170.7658
23.299999	78.336	-171.3595
23.600000	78.339	-172.0249
24.000000	78.336	-172.9886
24.299999	78.325	-173.7267
24.700001	78.298	-174.6690
25.000000	78.272	-175.3064
25.400000	78.234	-176.0377
25.799999	78.199	-176.6397
26.200001	78.169	-177.1434
26.500000	78.149	-177.4742
26.900000	78.120	-177.8598
27.200001	78.096	-178.1022
27.600000	78.063	-178.3527
28.000000	78.033	-178.5222
28.500000	78.009	-178.6699
29.000000	78.001	-178.8549
29.500000	77.998	-179.1762
30.000000	77.985	-179.6568
30.400000	77.958	179.8905
30.700001	77.928	179.5475
31.100000	77.878	179.1257
31.500000	77.824	178.7584
32.000000	77.760	178.3531
32.500000	77.706	177.9562
33.000000	77.658	177.5409
33.500000	77.615	177.1200
34.000000	77.579	176.7043
34.500000	77.548	176.2765
35.000000	77.517	175.8208
35.500000	77.480	175.3596
36.000000	77.438	174.9389
36.500000	77.396	174.5768
37.000000	77.360	174.2416
37.500000	77.327	173.8868
38.200001	77.275	173.3300
38.700001	77.228	172.9208
39.500000	77.143	172.3359
40.000000	77.090	172.0294
40.599998	77.036	171.6928
41.200001	76.990	171.3467
41.799999	76.946	170.9865
42.500000	76.896	170.5882
43.099998	76.856	170.2766
43.700001	76.815	169.9886
44.400002	76.764	169.7263
45.000000	76.725	169.5913
45.500000	76.703	169.4948
46.200001	76.686	169.2653
46.799999	76.667	168.9262
47.500000	76.621	168.4217
48.200001	76.544	167.9766
48.700001	76.481	167.8012
49.400002	76.417	167.7317
50.000000	76.397	167.6294
50.799999	76.379	167.2177
51.500000	76.336	166.7759
52.200001	76.281	166.4626
53.000000	76.228	166.2157
53.799999	76.183	165.9892
54.500000	76.148	165.7743
55.200001	76.109	165.4987
56.000000	76.044	165.1732
57.000000	75.952	164.9684
58.000000	75.892	164.8492
59.000000	75.845	164.4770
60.000000	75.757	164.0109
60.799999	75.670	163.8035
61.500000	75.601	163.7203
62.200001	75.539	163.6772
63.000000	75.475	163.6768
64.000000	75.411	163.7111
65.000000	75.364	163.6909
66.000000	75.324	163.5632
67.000000	75.279	163.3759
68.000000	75.232	163.1423
69.000000	75.167	162.9061
70.000000	75.101	162.8449
71.000000	75.064	162.7842
72.000000	75.029	162.5575
73.000000	74.982	162.2679
74.000000	74.917	161.9218
75.000000	74.821	161.7176
76.199997	74.718	161.8668
77.500000	74.657	162.0131
78.800003	74.561	161.9380
80.000000	74.421	162.1683
81.199997	74.310	162.6977
82.500000	74.256	163.1810
83.800003	74.253	163.1367
85.000000	74.212	162.7711
86.199997	74.167	162.7477
87.500000	74.172	162.7641
88.500000	74.162	162.7708
90.000000	74.142	163.0321
91.199997	74.128	163.2124
92.500000	74.095	163.2497
93.800003	74.048	163.2328
95.000000	74.020	163.0587
96.199997	73.976	162.7495
97.500000	73.922	162.5871
98.800003	73.879	162.5551
100.000000	73.840	162.6312
101.500000	73.795	162.7339
103.000000	73.729	162.6685
104.400002	73.640	162.5937
106.000000	73.543	162.5758
107.500000	73.470	162.5590
109.000000	73.406	162.5876
110.599998	73.344	162.6680
112.000000	73.285	162.7803
113.800003	73.208	162.9867
115.000000	73.158	163.1222
117.199997	73.057	163.4124
118.000000	73.021	163.5473
120.599998	72.898	163.9273
122.000000	72.816	164.1447
124.099998	72.696	164.5715
125.000000	72.645	164.7860
126.500000	72.561	165.2731
128.000000	72.488	165.9830
131.500000	72.411	168.4249
132.000000	72.417	168.8303
134.000000	72.505	170.3965
136.000000	72.704	171.4341
138.000000	72.937	171.4977
140.000000	73.113	170.8516
143.000000	73.223	169.4974
145.000000	73.215	168.7086
147.500000	73.155	167.9938
150.000000	73.082	167.5327
152.500000	73.000	167.3314
155.000000	72.931	167.2604
157.500000	72.860	167.1433
160.000000	72.793	167.0693
162.500000	72.729	167.0832
165.000000	72.670	167.2289
167.500000	72.619	167.3535
170.000000	72.564	167.4636
172.500000	72.512	167.6175
175.000000	72.460	167.7952
177.500000	72.413	167.9773
180.000000	72.375	168.1490
182.500000	72.337	168.3584
185.000000	72.295	168.5823
187.500000	72.252	168.7217
190.000000	72.207	168.8042
192.500000	72.166	168.9747
195.000000	72.137	169.2147
197.500000	72.114	169.4283
200.000000	72.095	169.6368
203.000000	72.070	169.9147
206.000000	72.031	170.2072
209.000000	71.983	170.4545
212.000000	71.942	170.6430
214.000000	71.924	170.7766
218.000000	71.906	171.1017
220.000000	71.896	171.2698
224.000000	71.854	171.5249
227.000000	71.817	171.7068
230.000000	71.797	171.9296
233.000000	71.783	172.1440
236.000000	71.756	172.3893
240.000000	71.714	172.7786
243.000000	71.692	173.0284
247.000000	71.669	173.3075
250.000000	71.640	173.4855
254.000000	71.596	173.7133
258.000000	71.570	174.0077
262.000000	71.549	174.3408
265.000000	71.536	174.5644
269.000000	71.519	174.8254
272.000000	71.504	175.0206
276.000000	71.481	175.3123
280.000000	71.461	175.6297
285.000000	71.436	175.9717
290.000000	71.405	176.2599
295.000000	71.387	176.6198
300.000000	71.370	177.0188
304.000000	71.357	177.3536
307.000000	71.351	177.5794
311.000000	71.342	177.8522
315.000000	71.331	178.1317
320.000000	71.314	178.4885
325.000000	71.297	178.8305
330.000000	71.291	179.1601
335.000000	71.289	179.4887
340.000000	71.276	179.8707
345.000000	71.261	-179.7542
350.000000	71.248	-179.4557
355.000000	71.229	-179.1821
360.000000	71.217	-178.8324
365.000000	71.207	-178.4480
370.000000	71.199	-178.0989
375.000000	71.192	-177.7485
382.000000	71.164	-177.2263
387.000000	71.142	-176.9565
395.000000	71.121	-176.5572
400.000000	71.109	-176.2305
406.000000	71.103	-175.8204
412.000000	71.096	-175.4284
418.000000	71.080	-175.0622
425.000000	71.059	-174.6478
431.000000	71.050	-174.2995
437.000000	71.045	-173.9430
444.000000	71.046	-173.5423
450.000000	71.053	-173.1774
455.000000	71.052	-172.8645
462.000000	71.037	-172.4381
468.000000	71.029	-172.0822
475.000000	71.027	-171.6836
482.000000	71.027	-171.2521
487.000000	71.024	-170.9430
494.000000	71.027	-170.5127
500.000000	71.033	-170.1516
508.000000	71.031	-169.7008
515.000000	71.026	-169.3087
522.000000	71.022	-168.8455
530.000000	71.022	-168.3129
538.000000	71.030	-167.8780
545.000000	71.029	-167.4956
552.000000	71.030	-167.1024
560.000000	71.037	-166.6429
570.000000	71.045	-166.0290
580.000000	71.052	-165.4253
590.000000	71.060	-164.8379
600.000000	71.075	-164.2747
608.000000	71.084	-163.8221
615.000000	71.087	-163.3995
622.000000	71.091	-162.9807
630.000000	71.099	-162.5227
640.000000	71.112	-161.9717
650.000000	71.118	-161.3777
660.000000	71.122	-160.7813
670.000000	71.138	-160.2432
680.000000	71.152	-159.6733
690.000000	71.163	-159.0839
700.000000	71.185	-158.5263
710.000000	71.206	-157.9154
720.000000	71.222	-157.2739
730.000000	71.245	-156.6986
740.000000	71.270	-156.1356
750.000000	71.288	-155.5588
762.000000	71.316	-154.8685
775.000000	71.357	-154.0943
788.000000	71.394	-153.3331
800.000000	71.431	-152.6227
812.000000	71.477	-151.9474
825.000000	71.527	-151.2131
838.000000	71.568	-150.4565
850.000000	71.613	-149.7881
862.000000	71.669	-149.1379
875.000000	71.731	-148.4134
885.000000	71.776	-147.8750
900.000000	71.841	-147.0573
912.000000	71.897	-146.3235
925.000000	71.981	-145.4584
938.000000	72.103	-144.6778
950.000000	72.216	-144.1722
962.000000	72.310	-143.8083
975.000000	72.397	-143.4437
988.000000	72.473	-143.0495
1000.000000	72.542	-142.6571
1015.000000	72.647	-142.2554
1030.000000	72.756	-141.8828
1044.000000	72.856	-141.5342
1060.000000	72.966	-141.1312
1075.000000	73.066	-140.7776
1090.000000	73.164	-140.4731
1106.000000	73.274	-140.1893
1120.000000	73.375	-139.9542
1138.000000	73.504	-139.6916
1150.000000	73.588	-139.5346
1172.000000	73.737	-139.2486
1180.000000	73.792	-139.1501
1206.000000	73.970	-138.9076
1220.000000	74.065	-138.8293
1241.000000	74.201	-138.7381
1250.000000	74.256	-138.7034
1265.000000	74.346	-138.6531
1280.000000	74.433	-138.6164
1315.000000	74.619	-138.5785
1320.000000	74.645	-138.5742
1340.000000	74.746	-138.5403
1360.000000	74.836	-138.4799
1380.000000	74.925	-138.4338
1400.000000	75.018	-138.4033
1430.000000	75.156	-138.3211
1450.000000	75.248	-138.2606
1475.000000	75.361	-138.2207
1500.000000	75.471	-138.1840
1525.000000	75.575	-138.1375
1550.000000	75.678	-138.0716
1575.000000	75.782	-138.0220
1600.000000	75.884	-137.9725
1625.000000	75.988	-137.9426
1650.000000	76.089	-137.9401
1675.000000	76.189	-137.9263
1700.000000	76.285	-137.9195
1725.000000	76.378	-137.9163
1750.000000	76.467	-137.9375
1775.000000	76.555	-137.9804
1800.000000	76.638	-138.0172
1825.000000	76.716	-138.0640
1850.000000	76.791	-138.1174
1875.000000	76.865	-138.1758
1900.000000	76.935	-138.2008
1925.000000	76.996	-138.2059
1950.000000	77.054	-138.1973
1975.000000	77.113	-138.1414
2000.000000	77.176	-138.0140
2030.000000	77.256	-137.7790
2060.000000	77.347	-137.5157
2090.000000	77.457	-137.2788
2120.000000	77.577	-137.1020
2140.000000	77.655	-137.0268
2180.000000	77.813	-136.8861
2200.000000	77.896	-136.7963
2240.000000	78.088	-136.6887
2270.000000	78.248	-136.7920
2300.000000	78.402	-137.1048
2330.000000	78.529	-137.5710
2360.000000	78.622	-138.0610
2400.000000	78.703	-138.5407
2430.000000	78.758	-138.6720
2470.000000	78.857	-138.5809
2500.000000	78.967	-138.4342
2540.000000	79.159	-138.3578
2580.000000	79.381	-138.5529
2620.000000	79.614	-139.0646
2650.000000	79.779	-139.6592
2690.000000	79.973	-140.6989
2720.000000	80.094	-141.6107
2760.000000	80.220	-142.9123
2800.000000	80.306	-144.2258
2850.000000	80.364	-145.7552
2900.000000	80.385	-147.0740
2950.000000	80.387	-148.1390
3000.000000	80.390	-148.9915
3040.000000	80.401	-149.5859
3070.000000	80.415	-150.0252
3110.000000	80.438	-150.6195
3150.000000	80.461	-151.2208
3200.000000	80.485	-151.9954
3250.000000	80.503	-152.7883
3300.000000	80.510	-153.5849
3350.000000	80.503	-154.3549
3400.000000	80.480	-155.0531
3450.000000	80.449	-155.6207
3500.000000	80.423	-156.0248
3550.000000	80.412	-156.2787
3600.000000	80.420	-156.4485
3650.000000	80.446	-156.6121
3700.000000	80.488	-156.8043
3750.000000	80.537	-157.0512
3820.000000	80.607	-157.4908
3870.000000	80.658	-157.8500
3950.000000	80.734	-158.4855
4000.000000	80.778	-158.9303
4060.000000	80.832	-159.5170
4120.000000	80.888	-160.1348
4180.000000	80.947	-160.7766
4250.000000	81.013	-161.5959
4310.000000	81.064	-162.3786
4370.000000	81.105	-163.2477
4440.000000	81.138	-164.3866
4500.000000	81.154	-165.4564
4550.000000	81.157	-166.4101
4620.000000	81.142	-167.8256
4680.000000	81.109	-169.0789
4750.000000	81.048	-170.5659
4820.000000	80.958	-172.0517
4870.000000	80.876	-173.0899
4940.000000	80.739	-174.4947
5000.000000	80.599	-175.6364
5080.000000	80.387	-177.0193
5150.000000	80.181	-178.0611
5220.000000	79.962	-178.9458
5300.000000	79.706	-179.7640
5380.000000	79.446	179.6122
5450.000000	79.219	179.2263
5520.000000	79.000	178.9711
5600.000000	78.761	178.7776
5700.000000	78.470	178.6136
5800.000000	78.170	178.5938
5900.000000	77.875	178.8197
6000.000000	77.597	179.2365
6080.000000	77.384	179.7103
6150.000000	77.204	-179.7491
6220.000000	77.035	-179.0859
6300.000000	76.866	-178.1872
6400.000000	76.697	-176.9175
6500.000000	76.576	-175.5739
6600.000000	76.503	-174.2286
6700.000000	76.476	-172.9142
6800.000000	76.501	-171.6776
6900.000000	76.590	-170.5451
7000.000000	76.742	-169.5769
7100.000000	76.943	-168.8074
7200.000000	77.191	-168.2835
7300.000000	77.483	-168.1061
7400.000000	77.810	-168.3563
7500.000000	78.166	-169.1379
7620.000000	78.628	-170.9235
7750.000000	79.116	-174.0811
7880.000000	79.463	-178.6710
8000.000000	79.603	175.8718
8120.000000	79.520	169.5380
8250.000000	79.119	162.3208
8380.000000	78.381	155.6429
8500.000000	77.440	150.6480
8620.000000	76.312	147.2053
8750.000000	74.956	145.4062
8850.000000	73.867	145.3721
9000.000000	72.244	147.4930
9120.000000	71.013	150.9953
9250.000000	69.810	156.4164
9380.000000	68.808	163.3024
9500.000000	68.131	170.7309
9620.000000	67.771	178.7626
9750.000000	67.796	-172.6589
9880.000000	68.206	-165.3282
10000.000000	68.786	-160.4870
10150.000000	69.533	-157.3592
10300.000000	70.079	-156.6455
10440.000000	70.348	-156.8734
10600.000000	70.428	-156.9246
10750.000000	70.388	-156.1987
10900.000000	70.336	-154.6487
11060.000000	70.343	-152.2626
11200.000000	70.437	-149.7932
11380.000000	70.708	-146.4217
11500.000000	71.002	-144.1973
11720.000000	71.796	-140.6024
11800.000000	72.173	-139.5797
12060.000000	73.750	-138.2433
12200.000000	74.786	-139.5836
12410.000000	76.367	-146.1162
12500.000000	76.940	-151.0132
12650.000000	77.554	-161.9094
12800.000000	77.570	-174.7871
13150.000000	75.318	161.4098
13200.000000	74.835	159.4979
13400.000000	72.848	155.2443
13600.000000	71.024	154.9041
13800.000000	69.507	156.8524
14000.000000	68.311	160.0933
14300.000000	67.037	166.2373
14500.000000	66.507	170.7855
14750.000000	66.205	176.4242
15000.000000	66.324	-178.5421
15250.000000	66.922	-174.8863
15500.000000	68.089	-173.8936
15750.000000	69.690	-177.9379
16000.000000	71.127	169.5437
16250.000000	71.475	148.6058
16500.000000	70.228	127.3990
16750.000000	67.757	114.1229
17000.000000	64.882	108.9141
17250.000000	62.210	108.4261
17500.000000	59.938	110.3360
17750.000000	58.046	113.4861
18000.000000	56.425	117.2505
18250.000000	54.957	121.2783
18500.000000	53.602	125.3005
18750.000000	52.328	129.3336
19000.000000	51.092	133.7998
19250.000000	49.818	138.9933
19500.000000	48.560	144.6563
19750.000000	47.457	150.5157
20000.000000	46.656	154.7983
