* Measurement data measured by REW V5.20.13
* Source: EXCL: Mic in at rear panel (Pink)(Realtek(R) Audio), MICROPHONE (마스), L, volume: 0.500
* Format: 256k Log Swept Sine, 1 sweep at -12.0 dBFS with no timing reference
* Dated: 2022. 10. 1 오후 4:44:41
* REW Settings:
*  C-weighting compensation: Off
*  Target level: 75.0 dB
* Note: 
* Measurement: R_Deep
* Smoothing: 1/24 octave
* Frequency Step: 1/48 octave
* Start Frequency: 20.300 Hz
*
* Freq(Hz)	SPL(dB)	Phase(degrees)
20.299999	79.923	-166.6486
20.600000	79.916	-167.0108
20.900000	79.899	-167.6356
21.200001	79.875	-168.1707
21.400000	79.857	-168.4817
21.799999	79.822	-169.0601
22.000000	79.807	-169.3546
22.400000	79.780	-169.9809
22.700001	79.762	-170.4939
23.000000	79.743	-171.0440
23.299999	79.720	-171.6133
23.600000	79.696	-172.1817
24.000000	79.664	-172.9107
24.299999	79.643	-173.4250
24.700001	79.622	-174.0724
25.000000	79.612	-174.5421
25.400000	79.604	-175.1621
25.799999	79.598	-175.7772
26.200001	79.591	-176.3725
26.500000	79.583	-176.7950
26.900000	79.571	-177.3224
27.200001	79.560	-177.6981
27.600000	79.545	-178.1894
28.000000	79.527	-178.6859
28.500000	79.495	-179.3142
29.000000	79.452	-179.9242
29.500000	79.399	179.5079
30.000000	79.342	178.9827
30.400000	79.296	178.5860
30.700001	79.263	178.3002
31.100000	79.221	177.9326
31.500000	79.184	177.5728
32.000000	79.147	177.1085
32.500000	79.116	176.5981
33.000000	79.087	176.0424
33.500000	79.058	175.4814
34.000000	79.029	174.9578
34.500000	79.004	174.4714
35.000000	78.981	173.9904
35.500000	78.955	173.5024
36.000000	78.922	173.0414
36.500000	78.882	172.6486
37.000000	78.843	172.3230
37.500000	78.805	172.0256
38.200001	78.748	171.6185
38.700001	78.703	171.3561
39.500000	78.639	170.9642
40.000000	78.605	170.6566
40.599998	78.555	170.2020
41.200001	78.490	169.7629
41.799999	78.424	169.4256
42.500000	78.370	169.0715
43.099998	78.337	168.6575
43.700001	78.292	168.1643
44.400002	78.218	167.6968
45.000000	78.160	167.4796
45.500000	78.130	167.3376
46.200001	78.104	167.0239
46.799999	78.072	166.6625
47.500000	78.020	166.3096
48.200001	77.977	166.0196
48.700001	77.949	165.7658
49.400002	77.895	165.3736
50.000000	77.838	165.1335
50.799999	77.778	164.9415
51.500000	77.743	164.7145
52.200001	77.705	164.4069
53.000000	77.653	164.0448
53.799999	77.589	163.6934
54.500000	77.521	163.4523
55.200001	77.452	163.3342
56.000000	77.388	163.3140
57.000000	77.343	163.2911
58.000000	77.320	162.9815
59.000000	77.255	162.4175
60.000000	77.147	162.0362
60.799999	77.069	161.8903
61.500000	77.015	161.7722
62.200001	76.965	161.6404
63.000000	76.912	161.5235
64.000000	76.870	161.3845
65.000000	76.835	161.0085
66.000000	76.754	160.6283
67.000000	76.674	160.5546
68.000000	76.626	160.3893
69.000000	76.553	160.0831
70.000000	76.457	159.9176
71.000000	76.367	159.9533
72.000000	76.318	160.1050
73.000000	76.300	160.0279
74.000000	76.254	159.8111
75.000000	76.197	159.8045
76.199997	76.163	159.9005
77.500000	76.134	159.7744
78.800003	76.061	159.6240
80.000000	75.982	159.6172
81.199997	75.895	159.6276
82.500000	75.813	159.6933
83.800003	75.747	159.5146
85.000000	75.672	159.2471
86.199997	75.598	158.9816
87.500000	75.522	158.7260
88.500000	75.465	158.5995
90.000000	75.389	158.6021
91.199997	75.342	158.6892
92.500000	75.295	158.8516
93.800003	75.269	158.9376
95.000000	75.226	158.7845
96.199997	75.151	158.7168
97.500000	75.081	158.7649
98.800003	75.022	158.7791
100.000000	74.965	158.7850
101.500000	74.890	158.8605
103.000000	74.833	159.0388
104.400002	74.801	159.1261
106.000000	74.750	159.1990
107.500000	74.689	159.4801
109.000000	74.627	159.8701
110.599998	74.532	160.2573
112.000000	74.439	160.5780
113.800003	74.342	160.7133
115.000000	74.299	160.6026
117.199997	74.277	160.3203
118.000000	74.291	160.2055
120.599998	74.287	159.8552
122.000000	74.254	159.9656
124.099998	74.197	160.1886
125.000000	74.170	160.2620
126.500000	74.124	160.3756
128.000000	74.082	160.5038
131.500000	73.986	160.8698
132.000000	73.971	160.9112
134.000000	73.914	160.9917
136.000000	73.849	160.9437
138.000000	73.777	160.9670
140.000000	73.708	161.1107
143.000000	73.615	161.4666
145.000000	73.576	161.6599
147.500000	73.518	161.7332
150.000000	73.441	161.8959
152.500000	73.368	162.1121
155.000000	73.301	162.3760
157.500000	73.234	162.6924
160.000000	73.156	163.0418
162.500000	73.078	163.3693
165.000000	73.007	163.6381
167.500000	72.935	163.9665
170.000000	72.857	164.4171
172.500000	72.777	164.9599
175.000000	72.697	165.5928
177.500000	72.637	166.4333
180.000000	72.625	167.4635
182.500000	72.664	168.5254
185.000000	72.749	169.3364
187.500000	72.862	169.6652
190.000000	72.976	169.5037
192.500000	73.053	169.1065
195.000000	73.081	168.7590
197.500000	73.077	168.5590
200.000000	73.058	168.3997
203.000000	73.011	168.2236
206.000000	72.953	168.1427
209.000000	72.902	168.1415
212.000000	72.852	168.2512
214.000000	72.822	168.3644
218.000000	72.765	168.5417
220.000000	72.734	168.6174
224.000000	72.670	168.7935
227.000000	72.629	168.9785
230.000000	72.597	169.2060
233.000000	72.574	169.3988
236.000000	72.553	169.5473
240.000000	72.519	169.8320
243.000000	72.481	170.1115
247.000000	72.424	170.4683
250.000000	72.391	170.6945
254.000000	72.357	170.9465
258.000000	72.324	171.2756
262.000000	72.292	171.6472
265.000000	72.265	171.8821
269.000000	72.227	172.1902
272.000000	72.198	172.4265
276.000000	72.161	172.7144
280.000000	72.137	173.0236
285.000000	72.111	173.4276
290.000000	72.086	173.7434
295.000000	72.058	174.0973
300.000000	72.028	174.5406
304.000000	72.007	174.9166
307.000000	71.992	175.1577
311.000000	71.975	175.4365
315.000000	71.962	175.7081
320.000000	71.957	176.0268
325.000000	71.950	176.3638
330.000000	71.931	176.6985
335.000000	71.921	177.0212
340.000000	71.905	177.3904
345.000000	71.881	177.7449
350.000000	71.865	178.0707
355.000000	71.849	178.3746
360.000000	71.828	178.7035
365.000000	71.811	179.0493
370.000000	71.803	179.4260
375.000000	71.796	179.8139
382.000000	71.766	-179.7172
387.000000	71.747	-179.3415
395.000000	71.731	-178.7471
400.000000	71.714	-178.4131
406.000000	71.695	-178.0674
412.000000	71.681	-177.6957
418.000000	71.664	-177.3399
425.000000	71.639	-176.9697
431.000000	71.627	-176.5896
437.000000	71.615	-176.1570
444.000000	71.604	-175.6653
450.000000	71.597	-175.2889
455.000000	71.589	-175.0276
462.000000	71.584	-174.6416
468.000000	71.582	-174.2463
475.000000	71.575	-173.7870
482.000000	71.574	-173.3202
487.000000	71.574	-172.9737
494.000000	71.571	-172.5402
500.000000	71.565	-172.1980
508.000000	71.558	-171.7108
515.000000	71.557	-171.2555
522.000000	71.560	-170.7991
530.000000	71.561	-170.3369
538.000000	71.560	-169.8768
545.000000	71.562	-169.4656
552.000000	71.567	-169.0562
560.000000	71.570	-168.5912
570.000000	71.573	-168.0161
580.000000	71.569	-167.3564
590.000000	71.568	-166.7230
600.000000	71.572	-166.0621
608.000000	71.577	-165.5746
615.000000	71.583	-165.1897
622.000000	71.588	-164.8044
630.000000	71.595	-164.3700
640.000000	71.611	-163.8283
650.000000	71.628	-163.2233
660.000000	71.641	-162.5593
670.000000	71.645	-161.9523
680.000000	71.647	-161.3963
690.000000	71.656	-160.8455
700.000000	71.676	-160.2833
710.000000	71.692	-159.6566
720.000000	71.705	-159.0107
730.000000	71.727	-158.3763
740.000000	71.754	-157.7755
750.000000	71.779	-157.2237
762.000000	71.800	-156.5395
775.000000	71.824	-155.7565
788.000000	71.866	-155.0073
800.000000	71.916	-154.3155
812.000000	71.962	-153.6402
825.000000	72.010	-152.9732
838.000000	72.053	-152.3024
850.000000	72.096	-151.7065
862.000000	72.137	-151.2158
875.000000	72.163	-150.6963
885.000000	72.166	-150.1984
900.000000	72.172	-149.1240
912.000000	72.206	-148.1953
925.000000	72.251	-147.1348
938.000000	72.341	-145.8951
950.000000	72.488	-144.9455
962.000000	72.640	-144.4047
975.000000	72.767	-144.0472
988.000000	72.861	-143.7110
1000.000000	72.942	-143.3737
1015.000000	73.062	-142.9061
1030.000000	73.183	-142.4811
1044.000000	73.290	-142.1340
1060.000000	73.404	-141.7451
1075.000000	73.507	-141.4263
1090.000000	73.612	-141.1589
1106.000000	73.731	-140.8946
1120.000000	73.838	-140.6595
1138.000000	73.969	-140.4054
1150.000000	74.056	-140.2671
1172.000000	74.211	-140.0242
1180.000000	74.264	-139.9459
1206.000000	74.433	-139.7442
1220.000000	74.523	-139.6534
1241.000000	74.654	-139.5011
1250.000000	74.709	-139.4346
1265.000000	74.797	-139.3423
1280.000000	74.881	-139.2841
1315.000000	75.071	-139.1656
1320.000000	75.097	-139.1427
1340.000000	75.197	-139.0389
1360.000000	75.290	-138.9311
1380.000000	75.383	-138.8426
1400.000000	75.479	-138.7743
1430.000000	75.625	-138.6587
1450.000000	75.723	-138.5690
1475.000000	75.841	-138.4672
1500.000000	75.958	-138.3683
1525.000000	76.072	-138.2443
1550.000000	76.186	-138.1456
1575.000000	76.301	-138.0527
1600.000000	76.415	-137.9767
1625.000000	76.528	-137.9060
1650.000000	76.642	-137.8581
1675.000000	76.755	-137.8008
1700.000000	76.865	-137.7591
1725.000000	76.975	-137.7467
1750.000000	77.084	-137.7287
1775.000000	77.194	-137.7189
1800.000000	77.303	-137.7122
1825.000000	77.410	-137.7371
1850.000000	77.520	-137.8001
1875.000000	77.630	-137.8783
1900.000000	77.737	-137.9547
1925.000000	77.840	-138.0480
1950.000000	77.945	-138.1647
1975.000000	78.048	-138.2911
2000.000000	78.148	-138.4326
2030.000000	78.264	-138.6375
2060.000000	78.381	-138.8685
2090.000000	78.495	-139.1064
2120.000000	78.610	-139.3536
2140.000000	78.685	-139.5299
2180.000000	78.832	-139.9106
2200.000000	78.903	-140.1210
2240.000000	79.038	-140.5745
2270.000000	79.137	-140.9447
2300.000000	79.234	-141.3422
2330.000000	79.327	-141.7578
2360.000000	79.417	-142.1898
2400.000000	79.530	-142.7953
2430.000000	79.608	-143.2495
2470.000000	79.707	-143.8691
2500.000000	79.778	-144.3397
2540.000000	79.865	-144.9724
2580.000000	79.945	-145.6164
2620.000000	80.018	-146.2705
2650.000000	80.068	-146.7693
2690.000000	80.129	-147.4306
2720.000000	80.170	-147.9182
2760.000000	80.219	-148.5538
2800.000000	80.263	-149.1815
2850.000000	80.311	-149.9537
2900.000000	80.349	-150.7044
2950.000000	80.379	-151.4269
3000.000000	80.401	-152.1146
3040.000000	80.415	-152.6458
3070.000000	80.424	-153.0285
3110.000000	80.432	-153.5085
3150.000000	80.438	-153.9619
3200.000000	80.442	-154.4973
3250.000000	80.443	-154.9859
3300.000000	80.442	-155.4191
3350.000000	80.441	-155.7832
3400.000000	80.444	-156.0942
3450.000000	80.461	-156.3684
3500.000000	80.491	-156.6362
3550.000000	80.528	-156.9304
3600.000000	80.568	-157.2589
3650.000000	80.605	-157.6027
3700.000000	80.637	-157.9444
3750.000000	80.667	-158.2803
3820.000000	80.699	-158.7145
3870.000000	80.713	-158.9642
3950.000000	80.736	-159.2293
4000.000000	80.764	-159.3111
4060.000000	80.824	-159.3896
4120.000000	80.909	-159.5629
4180.000000	81.005	-159.9051
4250.000000	81.117	-160.5155
4310.000000	81.199	-161.1715
4370.000000	81.261	-161.9209
4440.000000	81.316	-162.8781
4500.000000	81.349	-163.7562
4550.000000	81.368	-164.5168
4620.000000	81.380	-165.6149
4680.000000	81.378	-166.5718
4750.000000	81.362	-167.6872
4820.000000	81.333	-168.8079
4870.000000	81.305	-169.6117
4940.000000	81.252	-170.7355
5000.000000	81.195	-171.6870
5080.000000	81.103	-172.9361
5150.000000	81.011	-173.9992
5220.000000	80.911	-175.0466
5300.000000	80.781	-176.2149
5380.000000	80.636	-177.3522
5450.000000	80.492	-178.3002
5520.000000	80.330	-179.1754
5600.000000	80.127	179.9346
5700.000000	79.849	179.0515
5800.000000	79.552	178.5094
5900.000000	79.257	178.3432
6000.000000	78.987	178.5092
6080.000000	78.795	178.8352
6150.000000	78.648	179.2275
6220.000000	78.525	179.6848
6300.000000	78.412	-179.7529
6400.000000	78.308	-179.0614
6500.000000	78.235	-178.3978
6600.000000	78.191	-177.7488
6700.000000	78.177	-177.1461
6800.000000	78.206	-176.6143
6900.000000	78.290	-176.1907
7000.000000	78.423	-175.8930
7100.000000	78.595	-175.7594
7200.000000	78.807	-175.8463
7300.000000	79.058	-176.2606
7400.000000	79.338	-177.1150
7500.000000	79.635	-178.4663
7620.000000	80.007	179.1900
7750.000000	80.396	175.6239
7880.000000	80.658	170.8642
8000.000000	80.748	165.4067
8120.000000	80.650	159.0587
8250.000000	80.275	151.5841
8380.000000	79.571	144.1743
8500.000000	78.613	138.2678
8620.000000	77.409	134.0687
8750.000000	75.946	131.8620
8850.000000	74.802	131.7441
9000.000000	73.190	133.5694
9120.000000	72.038	136.2316
9250.000000	70.942	139.8519
9380.000000	69.985	143.9477
9500.000000	69.207	148.0153
9620.000000	68.512	152.2715
9750.000000	67.838	157.0981
9880.000000	67.238	162.1411
10000.000000	66.747	166.9790
10150.000000	66.211	173.3269
10300.000000	65.757	-179.9633
10440.000000	65.415	-173.2612
10600.000000	65.160	-164.8632
10750.000000	65.109	-156.3049
10900.000000	65.299	-147.1374
11060.000000	65.881	-137.1704
11200.000000	66.769	-129.1353
11380.000000	68.307	-121.2502
11500.000000	69.430	-118.0836
11720.000000	71.340	-116.3031
11800.000000	71.950	-116.5301
12060.000000	73.728	-118.2914
12200.000000	74.682	-119.4241
12410.000000	76.320	-121.9527
12500.000000	77.135	-123.8235
12650.000000	78.598	-129.0288
12800.000000	79.989	-138.2033
13150.000000	80.994	-175.1958
13200.000000	80.762	179.2751
13400.000000	79.052	161.9227
13600.000000	76.706	153.2444
13800.000000	74.451	150.7065
14000.000000	72.608	151.4944
14300.000000	70.624	155.5796
14500.000000	69.731	159.1167
14750.000000	69.030	163.6819
15000.000000	68.753	167.7060
15250.000000	68.885	170.5639
15500.000000	69.434	171.2993
15750.000000	70.285	168.4383
16000.000000	71.069	160.3958
16250.000000	71.272	147.2175
16500.000000	70.531	132.3460
16750.000000	68.881	120.5875
17000.000000	66.713	114.1528
17250.000000	64.486	112.1460
17500.000000	62.458	112.8368
17750.000000	60.693	115.0920
18000.000000	59.159	118.1775
18250.000000	57.779	121.5671
18500.000000	56.491	125.2778
18750.000000	55.272	129.3795
19000.000000	54.090	133.8040
19250.000000	52.910	138.7448
19500.000000	51.724	144.5182
19750.000000	50.644	150.4998
20000.000000	49.961	154.6622
