* Measurement data measured by REW V5.20.13
* Source: EXCL: Mic in at rear panel (Pink)(Realtek(R) Audio), MICROPHONE (마스), L, volume: 0.500
* Format: 256k Log Swept Sine, 1 sweep at -12.0 dBFS with no timing reference
* Dated: 2022. 10. 1 오후 4:59:05
* REW Settings:
*  C-weighting compensation: Off
*  Target level: 75.0 dB
* Note: 
* Measurement: R_AET07
* Smoothing: 1/24 octave
* Frequency Step: 1/48 octave
* Start Frequency: 20.300 Hz
*
* Freq(Hz)	SPL(dB)	Phase(degrees)
20.299999	79.866	-166.1915
20.600000	79.874	-166.3003
20.900000	79.896	-166.5291
21.200001	79.925	-166.8511
21.400000	79.943	-167.1416
21.799999	79.967	-167.9049
22.000000	79.967	-168.3592
22.400000	79.938	-169.3278
22.700001	79.893	-170.0255
23.000000	79.837	-170.6379
23.299999	79.782	-171.1536
23.600000	79.736	-171.5972
24.000000	79.699	-172.1508
24.299999	79.686	-172.6013
24.700001	79.681	-173.2913
25.000000	79.678	-173.8622
25.400000	79.667	-174.6414
25.799999	79.653	-175.3866
26.200001	79.640	-176.0930
26.500000	79.629	-176.6152
26.900000	79.606	-177.3079
27.200001	79.578	-177.7976
27.600000	79.526	-178.3436
28.000000	79.470	-178.7042
28.500000	79.424	-178.9386
29.000000	79.415	-179.1715
29.500000	79.423	-179.6188
30.000000	79.411	179.7361
30.400000	79.378	179.2085
30.700001	79.346	178.8593
31.100000	79.302	178.4535
31.500000	79.266	178.0596
32.000000	79.224	177.4965
32.500000	79.169	176.8747
33.000000	79.101	176.3327
33.500000	79.041	175.9550
34.000000	79.009	175.6598
34.500000	79.003	175.2714
35.000000	78.999	174.7097
35.500000	78.973	174.0726
36.000000	78.922	173.5467
36.500000	78.869	173.2302
37.000000	78.839	173.0441
37.500000	78.833	172.8096
38.200001	78.825	172.2078
38.700001	78.787	171.6832
39.500000	78.686	171.1063
40.000000	78.633	170.9282
40.599998	78.600	170.6776
41.200001	78.571	170.2278
41.799999	78.521	169.6964
42.500000	78.449	169.2147
43.099998	78.406	168.8729
43.700001	78.375	168.4199
44.400002	78.312	167.7997
45.000000	78.231	167.4406
45.500000	78.170	167.3520
46.200001	78.127	167.3668
46.799999	78.126	167.2301
47.500000	78.117	166.7591
48.200001	78.061	166.1844
48.700001	77.998	165.8976
49.400002	77.915	165.7343
50.000000	77.869	165.6602
50.799999	77.833	165.3939
51.500000	77.791	165.0138
52.200001	77.732	164.6542
53.000000	77.660	164.3741
53.799999	77.600	164.2029
54.500000	77.560	164.0667
55.200001	77.527	163.8884
56.000000	77.486	163.6262
57.000000	77.420	163.2613
58.000000	77.334	162.9291
59.000000	77.239	162.7282
60.000000	77.163	162.6457
60.799999	77.130	162.5000
61.500000	77.103	162.2338
62.200001	77.061	161.9277
63.000000	77.001	161.7121
64.000000	76.947	161.6216
65.000000	76.914	161.4470
66.000000	76.865	161.1913
67.000000	76.795	160.9796
68.000000	76.714	160.8961
69.000000	76.650	160.8700
70.000000	76.599	160.6961
71.000000	76.532	160.4210
72.000000	76.451	160.2185
73.000000	76.372	160.1605
74.000000	76.313	160.2293
75.000000	76.287	160.2493
76.199997	76.255	159.9507
77.500000	76.154	159.6039
78.800003	76.049	159.6485
80.000000	75.995	159.7295
81.199997	75.959	159.6304
82.500000	75.902	159.3839
83.800003	75.820	159.2627
85.000000	75.755	159.3027
86.199997	75.709	159.3067
87.500000	75.654	159.1562
88.500000	75.594	159.0543
90.000000	75.499	159.0875
91.199997	75.441	159.2410
92.500000	75.405	159.3467
93.800003	75.361	159.2547
95.000000	75.301	159.1828
96.199997	75.242	159.1437
97.500000	75.184	159.1333
98.800003	75.137	159.1201
100.000000	75.094	159.1293
101.500000	75.047	159.1768
103.000000	74.987	159.2068
104.400002	74.920	159.3102
106.000000	74.849	159.4480
107.500000	74.794	159.5259
109.000000	74.736	159.5513
110.599998	74.681	159.7086
112.000000	74.651	159.7764
113.800003	74.600	159.6877
115.000000	74.550	159.5844
117.199997	74.454	159.5480
118.000000	74.429	159.5589
120.599998	74.347	159.7387
122.000000	74.319	159.9470
124.099998	74.279	160.1123
125.000000	74.255	160.1019
126.500000	74.193	160.0465
128.000000	74.117	160.0611
131.500000	73.980	160.5821
132.000000	73.972	160.6782
134.000000	73.947	160.9697
136.000000	73.917	161.1725
138.000000	73.876	161.2483
140.000000	73.823	161.2016
143.000000	73.723	161.2681
145.000000	73.669	161.3972
147.500000	73.586	161.5020
150.000000	73.491	161.6829
152.500000	73.421	162.0151
155.000000	73.371	162.4778
157.500000	73.326	162.9512
160.000000	73.289	163.2997
162.500000	73.266	163.5219
165.000000	73.246	163.6731
167.500000	73.206	163.7704
170.000000	73.135	163.8907
172.500000	73.053	164.1989
175.000000	72.983	164.6461
177.500000	72.929	164.9956
180.000000	72.874	165.3175
182.500000	72.835	165.7955
185.000000	72.826	166.3523
187.500000	72.824	166.7552
190.000000	72.825	167.1913
192.500000	72.859	167.6801
195.000000	72.914	168.0893
197.500000	72.968	168.3560
200.000000	73.031	168.4781
203.000000	73.083	168.3909
206.000000	73.083	168.4516
209.000000	73.062	168.6677
212.000000	73.030	168.7896
214.000000	72.991	168.8788
218.000000	72.889	169.2137
220.000000	72.827	169.3052
224.000000	72.723	169.1339
227.000000	72.688	168.9123
230.000000	72.679	168.9354
233.000000	72.675	169.1460
236.000000	72.663	169.4267
240.000000	72.604	169.9404
243.000000	72.536	170.2763
247.000000	72.466	170.4468
250.000000	72.458	170.5455
254.000000	72.451	170.8432
258.000000	72.408	171.2262
262.000000	72.352	171.4864
265.000000	72.334	171.6848
269.000000	72.321	172.0709
272.000000	72.298	172.3466
276.000000	72.264	172.5506
280.000000	72.249	172.7738
285.000000	72.220	173.2050
290.000000	72.192	173.5622
295.000000	72.173	173.9243
300.000000	72.147	174.2695
304.000000	72.124	174.5483
307.000000	72.103	174.7768
311.000000	72.080	175.0931
315.000000	72.064	175.3973
320.000000	72.047	175.7864
325.000000	72.033	176.1503
330.000000	72.017	176.5424
335.000000	72.007	176.8961
340.000000	71.997	177.1653
345.000000	71.983	177.4448
350.000000	71.969	177.7737
355.000000	71.952	178.0807
360.000000	71.932	178.3665
365.000000	71.911	178.7077
370.000000	71.896	179.0716
375.000000	71.885	179.3709
382.000000	71.860	179.7825
387.000000	71.839	-179.9054
395.000000	71.802	-179.3928
400.000000	71.783	-179.0689
406.000000	71.775	-178.6400
412.000000	71.762	-178.2149
418.000000	71.741	-177.8334
425.000000	71.733	-177.4980
431.000000	71.733	-177.1924
437.000000	71.717	-176.7820
444.000000	71.698	-176.2914
450.000000	71.687	-175.9376
455.000000	71.678	-175.6681
462.000000	71.662	-175.2693
468.000000	71.655	-174.8810
475.000000	71.654	-174.4245
482.000000	71.651	-174.0198
487.000000	71.648	-173.7374
494.000000	71.643	-173.3212
500.000000	71.641	-172.9638
508.000000	71.635	-172.4896
515.000000	71.626	-172.0667
522.000000	71.624	-171.6542
530.000000	71.628	-171.1586
538.000000	71.629	-170.6532
545.000000	71.629	-170.2392
552.000000	71.630	-169.8471
560.000000	71.628	-169.4219
570.000000	71.624	-168.8788
580.000000	71.622	-168.3161
590.000000	71.625	-167.7392
600.000000	71.629	-167.1479
608.000000	71.633	-166.6682
615.000000	71.635	-166.2459
622.000000	71.637	-165.8087
630.000000	71.645	-165.3098
640.000000	71.659	-164.7086
650.000000	71.668	-164.1322
660.000000	71.672	-163.5841
670.000000	71.685	-163.0143
680.000000	71.702	-162.4248
690.000000	71.715	-161.8447
700.000000	71.730	-161.2711
710.000000	71.742	-160.6848
720.000000	71.750	-160.0862
730.000000	71.765	-159.4794
740.000000	71.783	-158.8954
750.000000	71.804	-158.3180
762.000000	71.832	-157.6182
775.000000	71.862	-156.8926
788.000000	71.899	-156.1876
800.000000	71.937	-155.5267
812.000000	71.981	-154.8732
825.000000	72.019	-154.1625
838.000000	72.058	-153.4950
850.000000	72.096	-152.9255
862.000000	72.135	-152.4474
875.000000	72.160	-151.9475
885.000000	72.160	-151.4118
900.000000	72.169	-150.2684
912.000000	72.210	-149.3612
925.000000	72.257	-148.3454
938.000000	72.348	-147.1359
950.000000	72.490	-146.2211
962.000000	72.635	-145.6877
975.000000	72.760	-145.3138
988.000000	72.860	-144.9155
1000.000000	72.944	-144.5328
1015.000000	73.061	-144.1750
1030.000000	73.175	-143.8296
1044.000000	73.277	-143.4772
1060.000000	73.387	-143.1097
1075.000000	73.487	-142.8181
1090.000000	73.589	-142.5316
1106.000000	73.703	-142.2603
1120.000000	73.806	-142.0557
1138.000000	73.936	-141.8375
1150.000000	74.019	-141.6961
1172.000000	74.169	-141.4712
1180.000000	74.225	-141.4036
1206.000000	74.395	-141.1956
1220.000000	74.481	-141.1163
1241.000000	74.605	-141.0288
1250.000000	74.657	-140.9814
1265.000000	74.743	-140.8877
1280.000000	74.826	-140.8118
1315.000000	75.009	-140.6647
1320.000000	75.034	-140.6441
1340.000000	75.130	-140.5755
1360.000000	75.221	-140.5111
1380.000000	75.313	-140.4375
1400.000000	75.405	-140.3636
1430.000000	75.543	-140.2513
1450.000000	75.635	-140.1628
1475.000000	75.750	-140.0613
1500.000000	75.863	-139.9544
1525.000000	75.975	-139.8488
1550.000000	76.085	-139.7601
1575.000000	76.193	-139.6861
1600.000000	76.303	-139.5988
1625.000000	76.412	-139.4965
1650.000000	76.522	-139.4077
1675.000000	76.633	-139.3348
1700.000000	76.744	-139.2778
1725.000000	76.851	-139.2316
1750.000000	76.958	-139.1955
1775.000000	77.065	-139.1862
1800.000000	77.171	-139.1808
1825.000000	77.280	-139.1801
1850.000000	77.387	-139.1955
1875.000000	77.491	-139.2335
1900.000000	77.597	-139.2982
1925.000000	77.702	-139.3646
1950.000000	77.806	-139.4426
1975.000000	77.911	-139.5469
2000.000000	78.014	-139.6774
2030.000000	78.138	-139.8387
2060.000000	78.260	-140.0177
2090.000000	78.379	-140.2456
2120.000000	78.498	-140.4849
2140.000000	78.576	-140.6534
2180.000000	78.726	-141.0131
2200.000000	78.800	-141.2028
2240.000000	78.945	-141.6405
2270.000000	79.052	-141.9913
2300.000000	79.159	-142.3430
2330.000000	79.262	-142.7159
2360.000000	79.361	-143.1294
2400.000000	79.490	-143.7129
2430.000000	79.584	-144.1600
2470.000000	79.704	-144.8082
2500.000000	79.789	-145.3306
2540.000000	79.896	-146.0514
2580.000000	79.996	-146.7771
2620.000000	80.087	-147.5179
2650.000000	80.150	-148.0822
2690.000000	80.227	-148.8495
2720.000000	80.280	-149.4285
2760.000000	80.345	-150.1988
2800.000000	80.403	-150.9780
2850.000000	80.466	-151.9440
2900.000000	80.517	-152.9113
2950.000000	80.558	-153.8698
3000.000000	80.589	-154.8082
3040.000000	80.607	-155.5308
3070.000000	80.617	-156.0532
3110.000000	80.627	-156.7440
3150.000000	80.633	-157.4343
3200.000000	80.633	-158.2676
3250.000000	80.628	-159.0466
3300.000000	80.617	-159.7895
3350.000000	80.600	-160.5022
3400.000000	80.580	-161.1756
3450.000000	80.562	-161.8106
3500.000000	80.545	-162.4173
3550.000000	80.523	-162.9848
3600.000000	80.499	-163.5087
3650.000000	80.473	-163.9928
3700.000000	80.443	-164.4101
3750.000000	80.411	-164.7449
3820.000000	80.366	-165.1043
3870.000000	80.336	-165.2901
3950.000000	80.297	-165.4879
4000.000000	80.281	-165.5516
4060.000000	80.278	-165.5870
4120.000000	80.299	-165.6465
4180.000000	80.333	-165.8068
4250.000000	80.376	-166.1308
4310.000000	80.407	-166.5054
4370.000000	80.423	-166.9361
4440.000000	80.427	-167.4869
4500.000000	80.423	-167.9798
4550.000000	80.418	-168.3969
4620.000000	80.406	-168.9873
4680.000000	80.390	-169.4988
4750.000000	80.369	-170.0975
4820.000000	80.344	-170.7126
4870.000000	80.323	-171.1617
4940.000000	80.288	-171.8010
5000.000000	80.254	-172.3627
5080.000000	80.197	-173.1384
5150.000000	80.137	-173.8177
5220.000000	80.071	-174.4583
5300.000000	79.988	-175.1435
5380.000000	79.900	-175.8098
5450.000000	79.819	-176.3704
5520.000000	79.735	-176.9023
5600.000000	79.631	-177.4820
5700.000000	79.489	-178.1458
5800.000000	79.339	-178.6665
5900.000000	79.187	-179.0165
6000.000000	79.046	-179.2162
6080.000000	78.944	-179.2852
6150.000000	78.867	-179.2907
6220.000000	78.804	-179.2641
6300.000000	78.749	-179.2399
6400.000000	78.699	-179.2759
6500.000000	78.659	-179.3683
6600.000000	78.628	-179.4651
6700.000000	78.608	-179.5809
6800.000000	78.606	-179.6954
6900.000000	78.642	-179.7812
7000.000000	78.729	-179.8691
7100.000000	78.864	179.9519
7200.000000	79.041	179.5831
7300.000000	79.253	178.8929
7400.000000	79.484	177.7759
7500.000000	79.716	176.2309
7620.000000	79.995	173.8347
7750.000000	80.282	170.5866
7880.000000	80.479	166.6341
8000.000000	80.589	162.2132
8120.000000	80.619	156.8488
8250.000000	80.488	149.7993
8380.000000	80.066	141.7207
8500.000000	79.320	134.2693
8620.000000	78.220	128.0717
8750.000000	76.736	123.8703
8850.000000	75.509	122.5660
9000.000000	73.725	123.1160
9120.000000	72.434	125.0447
9250.000000	71.194	128.0509
9380.000000	70.100	131.6805
9500.000000	69.203	135.3908
9620.000000	68.397	139.3434
9750.000000	67.604	143.8344
9880.000000	66.885	148.5156
10000.000000	66.276	153.0290
10150.000000	65.577	158.9915
10300.000000	64.962	165.4374
10440.000000	64.468	171.9515
10600.000000	64.008	-179.9604
10750.000000	63.717	-171.6495
10900.000000	63.651	-162.6182
11060.000000	63.921	-152.5284
11200.000000	64.515	-144.1053
11380.000000	65.689	-135.4007
11500.000000	66.579	-131.6230
11720.000000	68.065	-128.6695
11800.000000	68.502	-128.4463
12060.000000	69.546	-128.4724
12200.000000	69.955	-128.1350
12410.000000	70.535	-126.7516
12500.000000	70.815	-125.9012
12650.000000	71.370	-124.3038
12800.000000	72.068	-122.6915
13150.000000	74.468	-120.6908
13200.000000	74.917	-120.8691
13400.000000	76.952	-123.9605
13600.000000	79.073	-133.2062
13800.000000	80.558	-150.9531
14000.000000	80.717	-173.8767
14300.000000	78.534	160.0045
14500.000000	76.421	152.2451
14750.000000	74.073	149.1458
15000.000000	72.346	149.2287
15250.000000	71.179	150.1390
15500.000000	70.467	150.6227
15750.000000	70.073	149.7845
16000.000000	69.772	147.1356
16250.000000	69.360	142.8541
16500.000000	68.716	137.7052
16750.000000	67.792	132.6343
17000.000000	66.605	128.5241
17250.000000	65.238	126.0399
17500.000000	63.816	125.3951
17750.000000	62.442	126.4910
18000.000000	61.178	128.9834
18250.000000	60.050	132.4017
18500.000000	59.072	136.3015
18750.000000	58.247	140.2710
19000.000000	57.560	144.1024
19250.000000	56.940	147.5970
19500.000000	56.321	150.5656
19750.000000	55.738	152.9638
20000.000000	55.327	154.4073
