* Measurement data measured by REW V5.20.5
* Source: Input device not selected, no input selected, L, volume: no control
* Format: 128k Log Swept Sine, 4 sweeps at -15.0 dBFS with no timing reference
* Dated: 2022. 4. 19 ¿ÀÈÄ 5:47:41
* REW Settings:
*  C-weighting compensation: Off
*  Target level: 75.0 dB
* Note: ; 
* Measurement: Chu_Spring_Left
* Smoothing: 1/24 octave
* Frequency Step: 1/48 octave
* Start Frequency: 20.300 Hz
*
* Freq(Hz)	SPL(dB)	Phase(degrees)
20.299999	85.749	-171.9848
20.600000	85.750	-172.1915
20.900000	85.749	-172.5785
21.200001	85.740	-172.9913
21.400000	85.727	-173.2713
21.799999	85.688	-173.8304
22.000000	85.664	-174.1022
22.400000	85.618	-174.6191
22.700001	85.595	-175.0001
23.000000	85.585	-175.4030
23.299999	85.581	-175.8450
23.600000	85.579	-176.3268
24.000000	85.575	-177.0097
24.299999	85.571	-177.5222
24.700001	85.565	-178.1674
25.000000	85.561	-178.6078
25.400000	85.559	-179.1378
25.799999	85.568	-179.6247
26.200001	85.584	179.9039
26.500000	85.595	179.5511
26.900000	85.604	179.0845
27.200001	85.602	178.7477
27.600000	85.590	178.3323
28.000000	85.568	177.9645
28.500000	85.531	177.5539
29.000000	85.489	177.1501
29.500000	85.444	176.7261
30.000000	85.391	176.2979
30.400000	85.345	175.9644
30.700001	85.315	175.7128
31.100000	85.283	175.3525
31.500000	85.254	174.9494
32.000000	85.212	174.4104
32.500000	85.166	173.9114
33.000000	85.125	173.5038
33.500000	85.093	173.1459
34.000000	85.066	172.7737
34.500000	85.031	172.4191
35.000000	84.987	172.1897
35.500000	84.954	172.1368
36.000000	84.945	172.1636
36.500000	84.957	172.1175
37.000000	84.969	171.9255
37.500000	84.965	171.6316
38.200001	84.942	171.1706
38.700001	84.922	170.8256
39.500000	84.873	170.2430
40.000000	84.830	169.8877
40.599998	84.776	169.4793
41.200001	84.724	169.0568
41.799999	84.673	168.5841
42.500000	84.618	167.9585
43.099998	84.566	167.4180
43.700001	84.509	166.9918
44.400002	84.451	166.7004
45.000000	84.416	166.5307
45.500000	84.389	166.3701
46.200001	84.336	166.1496
46.799999	84.281	166.0490
47.500000	84.223	166.0421
48.200001	84.183	166.0828
48.700001	84.163	166.1078
49.400002	84.141	166.0784
50.000000	84.123	165.9405
50.799999	84.088	165.6160
51.500000	84.045	165.2962
52.200001	84.000	165.0020
53.000000	83.958	164.7216
53.799999	83.927	164.4998
54.500000	83.906	164.3137
55.200001	83.882	164.1119
56.000000	83.847	163.8983
57.000000	83.800	163.6719
58.000000	83.742	163.3776
59.000000	83.661	163.0860
60.000000	83.590	162.8941
60.799999	83.553	162.7151
61.500000	83.525	162.5211
62.200001	83.495	162.3210
63.000000	83.457	162.1033
64.000000	83.406	161.8621
65.000000	83.359	161.6317
66.000000	83.309	161.3971
67.000000	83.257	161.1802
68.000000	83.201	160.9476
69.000000	83.133	160.7322
70.000000	83.061	160.5586
71.000000	83.001	160.4606
72.000000	82.968	160.3279
73.000000	82.924	159.9635
74.000000	82.833	159.7049
75.000000	82.750	159.7551
76.199997	82.684	159.8123
77.500000	82.609	159.7469
78.800003	82.516	159.6326
80.000000	82.424	159.5628
81.199997	82.333	159.4797
82.500000	82.239	159.3850
83.800003	82.164	159.3252
85.000000	82.108	159.2928
86.199997	82.048	159.2686
87.500000	81.970	159.2380
88.500000	81.900	159.2168
90.000000	81.782	159.1960
91.199997	81.681	159.1857
92.500000	81.572	159.1976
93.800003	81.472	159.2485
95.000000	81.384	159.3324
96.199997	81.292	159.4644
97.500000	81.180	159.6767
98.800003	81.048	159.9714
100.000000	80.908	160.3362
101.500000	80.719	160.9622
103.000000	80.531	161.8364
104.400002	80.366	163.0010
106.000000	80.213	164.9559
107.500000	80.155	167.4473
109.000000	80.246	170.2783
110.599998	80.548	173.0066
112.000000	80.957	174.4100
113.800003	81.504	174.2665
115.000000	81.788	173.2220
117.199997	82.066	170.6113
118.000000	82.099	169.6926
120.599998	82.058	167.2737
122.000000	81.992	166.3304
124.099998	81.892	165.2957
125.000000	81.852	164.9577
126.500000	81.787	164.4973
128.000000	81.716	164.1438
131.500000	81.528	163.6003
132.000000	81.503	163.5447
134.000000	81.421	163.3654
136.000000	81.360	163.2499
138.000000	81.298	163.1867
140.000000	81.221	163.1556
143.000000	81.107	163.1641
145.000000	81.052	163.1997
147.500000	80.988	163.2493
150.000000	80.904	163.3191
152.500000	80.820	163.4052
155.000000	80.766	163.5046
157.500000	80.725	163.6237
160.000000	80.671	163.7523
162.500000	80.610	163.8801
165.000000	80.565	164.0124
167.500000	80.533	164.1560
170.000000	80.489	164.3151
172.500000	80.433	164.4816
175.000000	80.387	164.6475
177.500000	80.347	164.8217
180.000000	80.290	165.0219
182.500000	80.216	165.2297
185.000000	80.138	165.4069
187.500000	80.063	165.5879
190.000000	79.997	165.8154
192.500000	79.946	166.0802
195.000000	79.919	166.3466
197.500000	79.906	166.6027
200.000000	79.894	166.8533
203.000000	79.876	167.1245
206.000000	79.866	167.3601
209.000000	79.860	167.5620
212.000000	79.843	167.7410
214.000000	79.830	167.8434
218.000000	79.799	168.0264
220.000000	79.778	168.1224
224.000000	79.735	168.3096
227.000000	79.708	168.4636
230.000000	79.679	168.6350
233.000000	79.646	168.8159
236.000000	79.617	169.0053
240.000000	79.583	169.2670
243.000000	79.559	169.4633
247.000000	79.536	169.7290
250.000000	79.516	169.9272
254.000000	79.477	170.1947
258.000000	79.439	170.4699
262.000000	79.405	170.7444
265.000000	79.383	170.9486
269.000000	79.359	171.2091
272.000000	79.339	171.4028
276.000000	79.311	171.6626
280.000000	79.285	171.9200
285.000000	79.259	172.2469
290.000000	79.237	172.5701
295.000000	79.212	172.8947
300.000000	79.182	173.2123
304.000000	79.157	173.4684
307.000000	79.140	173.6566
311.000000	79.120	173.9035
315.000000	79.102	174.1544
320.000000	79.085	174.4699
325.000000	79.068	174.7811
330.000000	79.048	175.0826
335.000000	79.028	175.3791
340.000000	79.012	175.6790
345.000000	79.001	175.9788
350.000000	78.989	176.2774
355.000000	78.971	176.5724
360.000000	78.953	176.8666
365.000000	78.935	177.1623
370.000000	78.919	177.4562
375.000000	78.905	177.7509
382.000000	78.886	178.1638
387.000000	78.873	178.4527
395.000000	78.858	178.9073
400.000000	78.850	179.1888
406.000000	78.840	179.5242
412.000000	78.825	179.8527
418.000000	78.811	-179.8247
425.000000	78.801	-179.4451
431.000000	78.793	-179.1160
437.000000	78.782	-178.7855
444.000000	78.766	-178.4048
450.000000	78.755	-178.0835
455.000000	78.751	-177.8150
462.000000	78.747	-177.4381
468.000000	78.743	-177.1134
475.000000	78.740	-176.7319
482.000000	78.738	-176.3513
487.000000	78.734	-176.0796
494.000000	78.727	-175.7006
500.000000	78.723	-175.3784
508.000000	78.721	-174.9541
515.000000	78.716	-174.5860
522.000000	78.712	-174.2188
530.000000	78.713	-173.8040
538.000000	78.718	-173.3946
545.000000	78.716	-173.0365
552.000000	78.707	-172.6760
560.000000	78.701	-172.2635
570.000000	78.706	-171.7497
580.000000	78.713	-171.2358
590.000000	78.710	-170.7108
600.000000	78.704	-170.1818
608.000000	78.705	-169.7597
615.000000	78.712	-169.3900
622.000000	78.720	-169.0178
630.000000	78.728	-168.5908
640.000000	78.738	-168.0613
650.000000	78.750	-167.5371
660.000000	78.761	-167.0098
670.000000	78.776	-166.4789
680.000000	78.793	-165.9519
690.000000	78.806	-165.4307
700.000000	78.818	-164.9166
710.000000	78.834	-164.3993
720.000000	78.854	-163.8780
730.000000	78.878	-163.3568
740.000000	78.904	-162.8310
750.000000	78.930	-162.3006
762.000000	78.962	-161.6590
775.000000	79.001	-160.9633
788.000000	79.045	-160.2761
800.000000	79.090	-159.6487
812.000000	79.134	-159.0274
825.000000	79.183	-158.3600
838.000000	79.237	-157.6984
850.000000	79.288	-157.0998
862.000000	79.338	-156.5182
875.000000	79.399	-155.9146
885.000000	79.452	-155.4743
900.000000	79.535	-154.8616
912.000000	79.602	-154.4248
925.000000	79.675	-153.9997
938.000000	79.742	-153.6078
950.000000	79.792	-153.2560
962.000000	79.828	-152.8304
975.000000	79.874	-152.1913
988.000000	79.952	-151.5065
1000.000000	80.044	-150.9816
1015.000000	80.164	-150.4693
1030.000000	80.280	-150.0515
1044.000000	80.383	-149.7135
1060.000000	80.495	-149.3652
1075.000000	80.597	-149.0661
1090.000000	80.701	-148.7978
1106.000000	80.813	-148.5491
1120.000000	80.910	-148.3656
1138.000000	81.030	-148.1742
1150.000000	81.108	-148.0706
1172.000000	81.241	-147.9150
1180.000000	81.285	-147.8667
1206.000000	81.416	-147.7381
1220.000000	81.474	-147.6875
1241.000000	81.547	-147.6272
1250.000000	81.580	-147.6021
1265.000000	81.648	-147.5580
1280.000000	81.742	-147.5107
1315.000000	82.044	-147.3976
1320.000000	82.089	-147.3824
1340.000000	82.261	-147.3246
1360.000000	82.411	-147.2667
1380.000000	82.532	-147.2039
1400.000000	82.624	-147.1377
1430.000000	82.738	-147.0374
1450.000000	82.810	-146.9682
1475.000000	82.904	-146.8683
1500.000000	83.003	-146.7340
1525.000000	83.101	-146.5489
1550.000000	83.205	-146.3065
1575.000000	83.328	-146.0264
1600.000000	83.472	-145.7829
1625.000000	83.632	-145.6508
1650.000000	83.792	-145.6558
1675.000000	83.942	-145.7622
1700.000000	84.078	-145.9133
1725.000000	84.205	-146.0683
1750.000000	84.325	-146.2081
1775.000000	84.438	-146.3257
1800.000000	84.547	-146.4214
1825.000000	84.661	-146.5068
1850.000000	84.778	-146.5973
1875.000000	84.896	-146.7088
1900.000000	85.017	-146.8510
1925.000000	85.141	-147.0278
1950.000000	85.264	-147.2364
1975.000000	85.385	-147.4730
2000.000000	85.505	-147.7329
2030.000000	85.645	-148.0647
2060.000000	85.782	-148.4117
2090.000000	85.917	-148.7733
2120.000000	86.049	-149.1493
2140.000000	86.136	-149.4077
2180.000000	86.306	-149.9432
2200.000000	86.388	-150.2238
2240.000000	86.547	-150.8133
2270.000000	86.660	-151.2780
2300.000000	86.767	-151.7571
2330.000000	86.870	-152.2376
2360.000000	86.973	-152.7065
2400.000000	87.112	-153.3171
2430.000000	87.220	-153.7786
2470.000000	87.375	-154.4311
2500.000000	87.500	-154.9799
2540.000000	87.672	-155.8477
2580.000000	87.833	-156.8940
2620.000000	87.973	-158.0817
2650.000000	88.064	-159.0269
2690.000000	88.171	-160.3167
2720.000000	88.239	-161.2877
2760.000000	88.314	-162.5728
2800.000000	88.373	-163.8410
2850.000000	88.422	-165.3992
2900.000000	88.447	-166.9095
2950.000000	88.450	-168.3511
3000.000000	88.438	-169.7117
3040.000000	88.417	-170.7370
3070.000000	88.398	-171.4733
3110.000000	88.366	-172.4233
3150.000000	88.332	-173.3459
3200.000000	88.287	-174.4596
3250.000000	88.240	-175.5248
3300.000000	88.187	-176.5364
3350.000000	88.129	-177.4899
3400.000000	88.070	-178.3921
3450.000000	88.009	-179.2449
3500.000000	87.942	179.9698
3550.000000	87.874	179.2736
3600.000000	87.804	178.6697
3650.000000	87.733	178.1434
3700.000000	87.659	177.6782
3750.000000	87.584	177.2697
3820.000000	87.481	176.7933
3870.000000	87.412	176.5062
3950.000000	87.325	176.0914
4000.000000	87.282	175.8273
4060.000000	87.230	175.4813
4120.000000	87.170	175.1223
4180.000000	87.098	174.7847
4250.000000	87.002	174.4296
4310.000000	86.917	174.1594
4370.000000	86.842	173.9186
4440.000000	86.779	173.6584
4500.000000	86.747	173.4437
4550.000000	86.732	173.2782
4620.000000	86.722	173.0768
4680.000000	86.719	172.9158
4750.000000	86.714	172.7124
4820.000000	86.707	172.4839
4870.000000	86.701	172.3064
4940.000000	86.691	172.0403
5000.000000	86.678	171.7960
5080.000000	86.655	171.4387
5150.000000	86.634	171.0782
5220.000000	86.609	170.6527
5300.000000	86.571	170.0918
5380.000000	86.526	169.4882
5450.000000	86.482	168.9438
5520.000000	86.436	168.3884
5600.000000	86.377	167.7451
5700.000000	86.283	166.9647
5800.000000	86.166	166.2523
5900.000000	86.038	165.6793
6000.000000	85.914	165.3344
6080.000000	85.835	165.1882
6150.000000	85.786	165.0746
6220.000000	85.745	164.9221
6300.000000	85.690	164.7203
6400.000000	85.607	164.5261
6500.000000	85.529	164.4536
6600.000000	85.467	164.4977
6700.000000	85.424	164.6079
6800.000000	85.409	164.7465
6900.000000	85.426	164.8848
7000.000000	85.472	164.9933
7100.000000	85.546	165.0378
7200.000000	85.659	164.9611
7300.000000	85.819	164.6943
7400.000000	86.020	164.1849
7500.000000	86.240	163.3851
7620.000000	86.511	161.9300
7750.000000	86.774	159.5992
7880.000000	86.949	156.4315
8000.000000	87.002	152.7502
8120.000000	86.947	148.3829
8250.000000	86.753	143.0486
8380.000000	86.406	137.4236
8500.000000	85.951	132.3367
8620.000000	85.366	127.6620
8750.000000	84.594	123.3120
8850.000000	83.935	120.5555
9000.000000	82.906	117.4059
9120.000000	82.059	115.7022
9250.000000	81.129	114.6075
9380.000000	80.204	114.2205
9500.000000	79.357	114.4313
9620.000000	78.522	115.1353
9750.000000	77.643	116.4193
9880.000000	76.792	118.2394
10000.000000	76.031	120.3578
10150.000000	75.124	123.4922
10300.000000	74.276	127.0983
10440.000000	73.533	130.8679
10600.000000	72.715	135.6813
10750.000000	71.964	140.7659
10900.000000	71.255	146.5450
11060.000000	70.583	153.6958
11200.000000	70.116	160.9512
11380.000000	69.809	171.6270
11500.000000	69.882	179.2223
11720.000000	70.716	-167.9681
11800.000000	71.198	-164.3368
12060.000000	72.844	-158.0136
12200.000000	73.527	-157.4629
12410.000000	74.175	-157.9167
12500.000000	74.343	-158.0240
12650.000000	74.540	-157.7373
12800.000000	74.704	-156.8432
13150.000000	75.249	-152.9972
13200.000000	75.349	-152.3243
13400.000000	75.806	-149.5483
13600.000000	76.387	-146.8843
13800.000000	77.163	-144.6647
14000.000000	78.189	-143.2699
14300.000000	80.221	-143.8440
14500.000000	81.823	-147.1937
14750.000000	83.757	-156.6837
15000.000000	85.026	-172.8835
15250.000000	85.134	167.6392
15500.000000	84.145	151.0012
15750.000000	82.624	139.7517
16000.000000	81.161	132.4951
16250.000000	79.986	127.0857
16500.000000	79.001	122.1225
16750.000000	78.046	116.9700
17000.000000	76.970	111.6742
17250.000000	75.697	106.9016
17500.000000	74.238	103.4528
17750.000000	72.636	101.8378
18000.000000	70.970	102.1590
18250.000000	69.330	104.2482
18500.000000	67.773	107.8228
18750.000000	66.337	112.5931
19000.000000	65.037	118.3242
19250.000000	63.885	124.8743
19500.000000	62.815	132.0360
19750.000000	61.741	138.9481
20000.000000	60.992	143.1215
