* Measurement data measured by REW V5.20.13
* Source: EXCL: Mic in at rear panel (Pink)(Realtek(R) Audio), MICROPHONE (마스), L, volume: 0.500
* Format: 256k Log Swept Sine, 1 sweep at -12.0 dBFS with no timing reference
* Dated: 2022. 10. 1 오후 4:42:42
* REW Settings:
*  C-weighting compensation: Off
*  Target level: 75.0 dB
* Note: 
* Measurement: R_Final
* Smoothing: 1/24 octave
* Frequency Step: 1/48 octave
* Start Frequency: 20.300 Hz
*
* Freq(Hz)	SPL(dB)	Phase(degrees)
20.299999	79.771	-167.6445
20.600000	79.762	-167.9587
20.900000	79.742	-168.5033
21.200001	79.716	-168.9780
21.400000	79.698	-169.2623
21.799999	79.664	-169.8144
22.000000	79.648	-170.1062
22.400000	79.618	-170.7421
22.700001	79.596	-171.2693
23.000000	79.571	-171.8348
23.299999	79.544	-172.4209
23.600000	79.515	-173.0094
24.000000	79.475	-173.7712
24.299999	79.449	-174.3121
24.700001	79.421	-174.9909
25.000000	79.406	-175.4775
25.400000	79.395	-176.1161
25.799999	79.390	-176.7613
26.200001	79.386	-177.4122
26.500000	79.380	-177.8903
26.900000	79.366	-178.4935
27.200001	79.352	-178.9135
27.600000	79.334	-179.4408
28.000000	79.316	-179.9605
28.500000	79.286	179.3704
29.000000	79.238	178.7191
29.500000	79.174	178.1755
30.000000	79.111	177.7795
30.400000	79.074	177.5184
30.700001	79.055	177.3100
31.100000	79.037	176.9679
31.500000	79.019	176.5406
32.000000	78.986	175.9287
32.500000	78.939	175.3123
33.000000	78.886	174.7540
33.500000	78.836	174.2653
34.000000	78.793	173.8322
34.500000	78.756	173.4382
35.000000	78.725	173.0672
35.500000	78.700	172.6917
36.000000	78.678	172.2829
36.500000	78.650	171.8376
37.000000	78.611	171.3964
37.500000	78.561	171.0132
38.200001	78.491	170.5879
38.700001	78.446	170.2964
39.500000	78.374	169.7562
40.000000	78.323	169.4165
40.599998	78.263	169.0375
41.200001	78.212	168.6310
41.799999	78.158	168.1750
42.500000	78.090	167.6860
43.099998	78.043	167.3380
43.700001	78.008	166.9527
44.400002	77.959	166.4366
45.000000	77.902	166.0920
45.500000	77.860	165.9292
46.200001	77.825	165.7431
46.799999	77.803	165.4841
47.500000	77.761	165.1271
48.200001	77.709	164.8239
48.700001	77.670	164.6201
49.400002	77.608	164.3257
50.000000	77.545	164.1197
50.799999	77.468	163.9290
51.500000	77.412	163.7478
52.200001	77.363	163.5253
53.000000	77.314	163.2033
53.799999	77.259	162.7916
54.500000	77.200	162.5310
55.200001	77.167	162.3767
56.000000	77.157	161.9268
57.000000	77.052	161.1224
58.000000	76.895	161.1780
59.000000	76.840	161.4945
60.000000	76.799	161.3831
60.799999	76.744	161.2224
61.500000	76.688	161.0922
62.200001	76.631	161.0081
63.000000	76.580	160.9577
64.000000	76.542	160.7845
65.000000	76.503	160.3917
66.000000	76.423	159.9856
67.000000	76.328	159.9283
68.000000	76.278	159.9574
69.000000	76.224	159.6895
70.000000	76.129	159.4831
71.000000	76.052	159.4489
72.000000	75.997	159.2986
73.000000	75.935	159.1369
74.000000	75.885	159.0941
75.000000	75.848	159.0616
76.199997	75.795	158.9724
77.500000	75.684	158.7916
78.800003	75.511	158.8721
80.000000	75.379	159.1034
81.199997	75.296	158.9795
82.500000	75.177	158.5393
83.800003	75.078	158.7161
85.000000	75.113	159.0793
86.199997	75.184	158.9365
87.500000	75.149	158.6444
88.500000	75.078	158.7961
90.000000	74.972	159.0217
91.199997	74.853	159.2740
92.500000	74.776	159.6394
93.800003	74.751	159.7790
95.000000	74.751	159.7457
96.199997	74.747	159.6428
97.500000	74.721	159.5616
98.800003	74.666	159.6161
100.000000	74.608	159.7650
101.500000	74.544	159.8990
103.000000	74.481	159.8030
104.400002	74.411	159.6196
106.000000	74.324	159.4214
107.500000	74.238	159.3557
109.000000	74.155	159.4045
110.599998	74.073	159.5707
112.000000	74.012	159.7387
113.800003	73.926	159.9220
115.000000	73.865	160.0963
117.199997	73.750	160.4396
118.000000	73.704	160.5845
120.599998	73.554	161.0822
122.000000	73.456	161.4162
124.099998	73.321	162.3219
125.000000	73.280	162.8107
126.500000	73.228	163.7688
128.000000	73.213	164.9989
131.500000	73.450	167.6596
132.000000	73.504	167.8529
134.000000	73.718	168.0522
136.000000	73.895	167.4393
138.000000	73.987	166.4236
140.000000	74.007	165.4869
143.000000	73.950	164.4637
145.000000	73.879	164.0634
147.500000	73.790	163.7260
150.000000	73.699	163.5081
152.500000	73.616	163.4539
155.000000	73.545	163.4783
157.500000	73.473	163.4969
160.000000	73.397	163.5243
162.500000	73.331	163.5918
165.000000	73.276	163.7422
167.500000	73.224	163.9012
170.000000	73.154	164.0100
172.500000	73.084	164.1870
175.000000	73.037	164.4103
177.500000	72.997	164.6503
180.000000	72.949	164.8771
182.500000	72.892	165.0320
185.000000	72.837	165.1566
187.500000	72.792	165.3305
190.000000	72.758	165.5475
192.500000	72.723	165.7742
195.000000	72.684	165.9796
197.500000	72.639	166.1587
200.000000	72.594	166.3713
203.000000	72.549	166.6260
206.000000	72.509	166.8555
209.000000	72.477	167.0854
212.000000	72.441	167.3073
214.000000	72.410	167.4842
218.000000	72.356	167.8820
220.000000	72.338	168.0647
224.000000	72.307	168.4561
227.000000	72.286	168.7440
230.000000	72.261	169.0279
233.000000	72.231	169.3636
236.000000	72.196	169.6903
240.000000	72.154	169.9589
243.000000	72.129	170.0867
247.000000	72.100	170.3407
250.000000	72.077	170.5661
254.000000	72.041	170.9023
258.000000	72.009	171.2628
262.000000	71.981	171.5998
265.000000	71.954	171.8493
269.000000	71.914	172.1670
272.000000	71.895	172.3483
276.000000	71.875	172.5804
280.000000	71.846	172.9105
285.000000	71.811	173.3322
290.000000	71.793	173.7232
295.000000	71.781	174.0729
300.000000	71.751	174.3911
304.000000	71.730	174.7224
307.000000	71.717	174.9859
311.000000	71.703	175.2974
315.000000	71.693	175.6323
320.000000	71.677	176.0557
325.000000	71.656	176.4300
330.000000	71.645	176.8115
335.000000	71.630	177.1291
340.000000	71.613	177.4828
345.000000	71.594	177.8775
350.000000	71.572	178.2362
355.000000	71.553	178.5990
360.000000	71.540	178.9650
365.000000	71.522	179.3027
370.000000	71.500	179.6243
375.000000	71.478	179.9390
382.000000	71.463	-179.6004
387.000000	71.451	-179.2676
395.000000	71.440	-178.6901
400.000000	71.431	-178.3015
406.000000	71.410	-177.8940
412.000000	71.395	-177.5832
418.000000	71.390	-177.2238
425.000000	71.379	-176.7388
431.000000	71.364	-176.3645
437.000000	71.353	-175.9787
444.000000	71.343	-175.4816
450.000000	71.338	-175.0788
455.000000	71.337	-174.7633
462.000000	71.334	-174.3522
468.000000	71.325	-174.0005
475.000000	71.317	-173.5462
482.000000	71.316	-173.0912
487.000000	71.318	-172.7975
494.000000	71.306	-172.4004
500.000000	71.294	-172.0658
508.000000	71.291	-171.5948
515.000000	71.291	-171.1656
522.000000	71.291	-170.7108
530.000000	71.288	-170.1842
538.000000	71.290	-169.6995
545.000000	71.290	-169.2937
552.000000	71.288	-168.8957
560.000000	71.287	-168.4349
570.000000	71.295	-167.7914
580.000000	71.301	-167.1357
590.000000	71.305	-166.5468
600.000000	71.307	-165.9327
608.000000	71.308	-165.4667
615.000000	71.313	-165.0615
622.000000	71.321	-164.6627
630.000000	71.331	-164.2088
640.000000	71.341	-163.5854
650.000000	71.349	-162.9432
660.000000	71.360	-162.3804
670.000000	71.376	-161.7863
680.000000	71.394	-161.1882
690.000000	71.408	-160.6127
700.000000	71.422	-160.0103
710.000000	71.436	-159.3909
720.000000	71.453	-158.8165
730.000000	71.473	-158.2678
740.000000	71.492	-157.6667
750.000000	71.514	-157.0619
762.000000	71.546	-156.4008
775.000000	71.579	-155.6368
788.000000	71.613	-154.8647
800.000000	71.650	-154.1592
812.000000	71.687	-153.4913
825.000000	71.734	-152.7948
838.000000	71.779	-152.1685
850.000000	71.824	-151.6354
862.000000	71.867	-151.1229
875.000000	71.892	-150.6201
885.000000	71.890	-150.1548
900.000000	71.891	-149.1451
912.000000	71.922	-148.2714
925.000000	71.960	-147.2282
938.000000	72.045	-145.9479
950.000000	72.191	-145.0072
962.000000	72.339	-144.4924
975.000000	72.460	-144.1299
988.000000	72.550	-143.8050
1000.000000	72.626	-143.4996
1015.000000	72.736	-143.0364
1030.000000	72.842	-142.5936
1044.000000	72.935	-142.2103
1060.000000	73.037	-141.7709
1075.000000	73.129	-141.4303
1090.000000	73.220	-141.0921
1106.000000	73.319	-140.6982
1120.000000	73.413	-140.3301
1138.000000	73.536	-139.8678
1150.000000	73.623	-139.5665
1172.000000	73.804	-139.0617
1180.000000	73.877	-138.9243
1206.000000	74.106	-138.7030
1220.000000	74.217	-138.7119
1241.000000	74.363	-138.7916
1250.000000	74.419	-138.8257
1265.000000	74.508	-138.8584
1280.000000	74.591	-138.8688
1315.000000	74.767	-138.8531
1320.000000	74.790	-138.8564
1340.000000	74.876	-138.8808
1360.000000	74.956	-138.8559
1380.000000	75.041	-138.8210
1400.000000	75.130	-138.7871
1430.000000	75.252	-138.6884
1450.000000	75.331	-138.6425
1475.000000	75.435	-138.5629
1500.000000	75.534	-138.4629
1525.000000	75.626	-138.3631
1550.000000	75.716	-138.2833
1575.000000	75.805	-138.1978
1600.000000	75.892	-138.0954
1625.000000	75.976	-138.0130
1650.000000	76.058	-137.9355
1675.000000	76.133	-137.8377
1700.000000	76.203	-137.7049
1725.000000	76.268	-137.5404
1750.000000	76.326	-137.3550
1775.000000	76.381	-137.0892
1800.000000	76.439	-136.7138
1825.000000	76.507	-136.2533
1850.000000	76.583	-135.7454
1875.000000	76.672	-135.2133
1900.000000	76.777	-134.6223
1925.000000	76.903	-133.9411
1950.000000	77.066	-133.2435
1975.000000	77.273	-132.6934
2000.000000	77.513	-132.4706
2030.000000	77.799	-132.7427
2060.000000	78.041	-133.4485
2090.000000	78.220	-134.3361
2120.000000	78.341	-135.2058
2140.000000	78.398	-135.7065
2180.000000	78.478	-136.4724
2200.000000	78.511	-136.7429
2240.000000	78.580	-137.0829
2270.000000	78.633	-137.1889
2300.000000	78.691	-137.1707
2330.000000	78.764	-137.0265
2360.000000	78.866	-136.8139
2400.000000	79.055	-136.5987
2430.000000	79.225	-136.6379
2470.000000	79.461	-137.0600
2500.000000	79.623	-137.6032
2540.000000	79.808	-138.4886
2580.000000	79.961	-139.4457
2620.000000	80.094	-140.4214
2650.000000	80.181	-141.1658
2690.000000	80.280	-142.1889
2720.000000	80.337	-142.9607
2760.000000	80.394	-143.9606
2800.000000	80.435	-144.8865
2850.000000	80.473	-145.9415
2900.000000	80.496	-146.8964
2950.000000	80.511	-147.7497
3000.000000	80.520	-148.5041
3040.000000	80.526	-149.0505
3070.000000	80.530	-149.4281
3110.000000	80.534	-149.8745
3150.000000	80.543	-150.2587
3200.000000	80.564	-150.6953
3250.000000	80.596	-151.1162
3300.000000	80.633	-151.5676
3350.000000	80.671	-152.0766
3400.000000	80.704	-152.6346
3450.000000	80.736	-153.2060
3500.000000	80.764	-153.7680
3550.000000	80.787	-154.3132
3600.000000	80.804	-154.8133
3650.000000	80.816	-155.2567
3700.000000	80.822	-155.6504
3750.000000	80.825	-155.9775
3820.000000	80.831	-156.2944
3870.000000	80.841	-156.4161
3950.000000	80.874	-156.4674
4000.000000	80.917	-156.4450
4060.000000	81.000	-156.4484
4120.000000	81.113	-156.6015
4180.000000	81.241	-156.9691
4250.000000	81.389	-157.6717
4310.000000	81.501	-158.4382
4370.000000	81.592	-159.3156
4440.000000	81.678	-160.4666
4500.000000	81.738	-161.5491
4550.000000	81.778	-162.5129
4620.000000	81.816	-163.9501
4680.000000	81.833	-165.2477
4750.000000	81.829	-166.8204
4820.000000	81.800	-168.4480
4870.000000	81.761	-169.6307
4940.000000	81.683	-171.2894
5000.000000	81.590	-172.6993
5080.000000	81.430	-174.5244
5150.000000	81.258	-176.0188
5220.000000	81.062	-177.3682
5300.000000	80.814	-178.6900
5380.000000	80.551	-179.7750
5450.000000	80.314	179.4404
5520.000000	80.073	178.7997
5600.000000	79.793	178.2610
5700.000000	79.442	177.8886
5800.000000	79.102	177.8122
5900.000000	78.775	178.0140
6000.000000	78.465	178.4971
6080.000000	78.235	179.0897
6150.000000	78.056	179.7586
6220.000000	77.907	-179.4623
6300.000000	77.771	-178.5035
6400.000000	77.645	-177.3038
6500.000000	77.557	-176.1192
6600.000000	77.512	-174.9463
6700.000000	77.511	-173.8267
6800.000000	77.556	-172.7912
6900.000000	77.663	-171.8759
7000.000000	77.834	-171.1131
7100.000000	78.058	-170.5372
7200.000000	78.333	-170.2287
7300.000000	78.652	-170.2952
7400.000000	79.009	-170.8468
7500.000000	79.394	-171.9659
7620.000000	79.889	-174.1872
7750.000000	80.419	-177.8832
7880.000000	80.808	176.9058
8000.000000	80.987	170.7476
8120.000000	80.936	163.4932
8250.000000	80.547	154.9855
8380.000000	79.766	146.8151
8500.000000	78.707	140.6205
8620.000000	77.405	136.4924
8750.000000	75.861	134.6222
8850.000000	74.680	134.8683
9000.000000	73.051	137.2958
9120.000000	71.917	140.3354
9250.000000	70.861	144.2672
9380.000000	69.957	148.5526
9500.000000	69.229	152.6711
9620.000000	68.586	156.9432
9750.000000	67.969	161.7191
9880.000000	67.429	166.6786
10000.000000	66.995	171.4747
10150.000000	66.529	177.7554
10300.000000	66.149	-175.5706
10440.000000	65.886	-168.9288
10600.000000	65.740	-160.7917
10750.000000	65.809	-152.5641
10900.000000	66.148	-143.8611
11060.000000	66.916	-134.6741
11200.000000	67.977	-127.5671
11380.000000	69.718	-121.2234
11500.000000	70.958	-119.3163
11720.000000	73.088	-120.3174
11800.000000	73.791	-121.7317
12060.000000	75.915	-128.9060
12200.000000	76.994	-134.7565
12410.000000	78.323	-147.8278
12500.000000	78.670	-155.2245
12650.000000	78.784	-169.1143
12800.000000	78.241	177.2023
13150.000000	75.120	157.2045
13200.000000	74.589	155.9102
13400.000000	72.540	153.5724
13600.000000	70.766	154.3599
13800.000000	69.332	156.9241
14000.000000	68.223	160.4752
14300.000000	67.076	166.8052
14500.000000	66.628	171.2653
14750.000000	66.457	176.5607
15000.000000	66.742	-179.0320
15250.000000	67.529	-176.5329
15500.000000	68.890	-177.8194
15750.000000	70.494	173.7494
16000.000000	71.422	155.4439
16250.000000	70.790	132.1053
16500.000000	68.553	114.5651
16750.000000	65.485	106.8599
17000.000000	62.446	105.9142
17250.000000	59.841	108.2715
17500.000000	57.664	112.0953
17750.000000	55.832	116.5291
18000.000000	54.234	121.3434
18250.000000	52.738	126.4251
18500.000000	51.327	131.8452
18750.000000	50.009	137.6991
19000.000000	48.808	143.7953
19250.000000	47.641	150.5340
19500.000000	46.418	157.7609
19750.000000	45.209	164.5177
20000.000000	44.303	168.7967
