* Measurement data measured by REW V5.20.13
* Source: EXCL: Mic in at rear panel (Pink)(Realtek(R) Audio), MICROPHONE (마스), L, volume: 0.500
* Format: 256k Log Swept Sine, 1 sweep at -12.0 dBFS with no timing reference
* Dated: 2022. 10. 1 오후 4:37:59
* REW Settings:
*  C-weighting compensation: Off
*  Target level: 75.0 dB
* Note: 
* Measurement: R
* Smoothing: 1/24 octave
* Frequency Step: 1/48 octave
* Start Frequency: 20.300 Hz
*
* Freq(Hz)	SPL(dB)	Phase(degrees)
20.299999	79.557	-167.8029
20.600000	79.543	-167.9576
20.900000	79.520	-168.2539
21.200001	79.513	-168.6043
21.400000	79.512	-168.8964
21.799999	79.502	-169.6216
22.000000	79.486	-170.0293
22.400000	79.433	-170.8215
22.700001	79.382	-171.3111
23.000000	79.334	-171.6781
23.299999	79.303	-171.9585
23.600000	79.293	-172.2141
24.000000	79.309	-172.6169
24.299999	79.335	-173.0117
24.700001	79.372	-173.6540
25.000000	79.396	-174.1868
25.400000	79.423	-174.9263
25.799999	79.442	-175.6971
26.200001	79.447	-176.5133
26.500000	79.434	-177.1334
26.900000	79.385	-177.8909
27.200001	79.331	-178.3336
27.600000	79.249	-178.7023
28.000000	79.183	-178.8754
28.500000	79.135	-179.0698
29.000000	79.097	-179.4724
29.500000	79.029	179.9950
30.000000	78.933	179.5958
30.400000	78.863	179.4300
30.700001	78.824	179.3399
31.100000	78.790	179.1695
31.500000	78.763	178.9185
32.000000	78.732	178.5930
32.500000	78.725	178.3441
33.000000	78.769	178.0089
33.500000	78.845	177.3242
34.000000	78.897	176.2979
34.500000	78.899	175.2792
35.000000	78.884	174.5417
35.500000	78.902	173.9642
36.000000	78.945	173.1939
36.500000	78.955	172.1320
37.000000	78.889	171.1159
37.500000	78.768	170.5676
38.200001	78.628	170.6581
38.700001	78.598	170.8817
39.500000	78.597	170.7772
40.000000	78.576	170.4977
40.599998	78.523	170.1490
41.200001	78.457	169.8640
41.799999	78.395	169.6308
42.500000	78.343	169.2864
43.099998	78.303	168.7679
43.700001	78.235	168.1152
44.400002	78.122	167.5041
45.000000	78.035	167.1903
45.500000	77.984	166.9476
46.200001	77.924	166.5381
46.799999	77.873	166.2096
47.500000	77.831	165.8957
48.200001	77.808	165.5209
48.700001	77.791	165.1852
49.400002	77.749	164.7032
50.000000	77.698	164.3752
50.799999	77.629	164.1330
51.500000	77.587	164.0052
52.200001	77.557	163.7921
53.000000	77.510	163.4541
53.799999	77.450	163.1266
54.500000	77.394	162.8350
55.200001	77.332	162.5598
56.000000	77.263	162.3062
57.000000	77.182	162.0504
58.000000	77.120	161.9735
59.000000	77.101	161.7909
60.000000	77.051	161.3464
60.799999	76.978	161.1262
61.500000	76.913	161.0319
62.200001	76.843	160.9594
63.000000	76.752	160.9918
64.000000	76.675	161.1927
65.000000	76.648	160.9663
66.000000	76.557	160.2584
67.000000	76.408	159.9811
68.000000	76.334	159.9889
69.000000	76.293	159.6880
70.000000	76.234	159.4372
71.000000	76.197	159.3647
72.000000	76.177	159.2382
73.000000	76.136	159.0782
74.000000	76.078	159.1009
75.000000	76.034	159.1956
76.199997	75.975	159.1722
77.500000	75.898	159.0972
78.800003	75.796	158.8676
80.000000	75.687	158.8494
81.199997	75.616	158.8559
82.500000	75.545	158.7521
83.800003	75.484	158.7291
85.000000	75.440	158.6995
86.199997	75.399	158.6259
87.500000	75.331	158.4921
88.500000	75.262	158.4752
90.000000	75.158	158.5228
91.199997	75.079	158.6181
92.500000	75.021	158.6606
93.800003	74.962	158.5416
95.000000	74.904	158.5270
96.199997	74.864	158.5449
97.500000	74.816	158.5698
98.800003	74.775	158.7505
100.000000	74.757	158.8822
101.500000	74.728	158.8351
103.000000	74.661	158.7391
104.400002	74.585	158.7181
106.000000	74.496	158.7724
107.500000	74.438	158.8199
109.000000	74.386	158.7106
110.599998	74.317	158.6584
112.000000	74.265	158.7474
113.800003	74.200	158.9188
115.000000	74.151	159.0709
117.199997	74.050	159.2849
118.000000	74.011	159.3074
120.599998	73.878	159.2897
122.000000	73.818	159.2779
124.099998	73.733	159.3570
125.000000	73.697	159.4603
126.500000	73.638	159.6803
128.000000	73.572	159.9218
131.500000	73.387	160.6483
132.000000	73.359	160.7637
134.000000	73.239	161.2834
136.000000	73.132	161.7817
138.000000	73.025	162.1398
140.000000	72.908	162.7331
143.000000	72.819	164.7000
145.000000	72.853	166.3868
147.500000	73.010	168.2072
150.000000	73.247	169.0557
152.500000	73.520	169.2128
155.000000	73.740	168.6506
157.500000	73.817	167.6176
160.000000	73.768	166.6139
162.500000	73.701	165.8540
165.000000	73.629	165.2498
167.500000	73.543	164.8824
170.000000	73.462	164.6833
172.500000	73.395	164.5482
175.000000	73.323	164.4454
177.500000	73.245	164.4792
180.000000	73.180	164.6474
182.500000	73.128	164.7926
185.000000	73.072	164.8837
187.500000	73.015	164.9797
190.000000	72.966	165.0864
192.500000	72.921	165.2182
195.000000	72.882	165.3828
197.500000	72.847	165.5542
200.000000	72.809	165.7375
203.000000	72.755	165.9637
206.000000	72.706	166.2190
209.000000	72.674	166.4827
212.000000	72.645	166.6743
214.000000	72.617	166.7886
218.000000	72.560	167.1002
220.000000	72.536	167.2607
224.000000	72.483	167.5162
227.000000	72.441	167.7064
230.000000	72.414	167.9519
233.000000	72.395	168.2200
236.000000	72.366	168.4795
240.000000	72.321	168.7379
243.000000	72.280	168.9052
247.000000	72.226	169.2236
250.000000	72.199	169.4706
254.000000	72.178	169.7757
258.000000	72.152	170.1270
262.000000	72.115	170.4622
265.000000	72.083	170.6591
269.000000	72.043	170.9257
272.000000	72.024	171.1614
276.000000	72.007	171.4537
280.000000	71.983	171.7681
285.000000	71.952	172.1830
290.000000	71.927	172.5517
295.000000	71.904	172.9023
300.000000	71.882	173.2159
304.000000	71.871	173.4906
307.000000	71.865	173.7065
311.000000	71.850	174.0151
315.000000	71.827	174.3037
320.000000	71.802	174.5862
325.000000	71.784	174.9207
330.000000	71.771	175.2578
335.000000	71.756	175.5984
340.000000	71.734	175.8978
345.000000	71.712	176.1882
350.000000	71.695	176.5127
355.000000	71.678	176.8755
360.000000	71.662	177.2563
365.000000	71.646	177.6300
370.000000	71.631	177.9351
375.000000	71.617	178.2245
382.000000	71.596	178.7078
387.000000	71.577	179.0264
395.000000	71.537	179.4649
400.000000	71.518	179.7913
406.000000	71.502	-179.8389
412.000000	71.495	-179.5432
418.000000	71.482	-179.1959
425.000000	71.463	-178.7189
431.000000	71.451	-178.3403
437.000000	71.443	-177.9717
444.000000	71.434	-177.5507
450.000000	71.426	-177.2241
455.000000	71.419	-176.9949
462.000000	71.404	-176.6257
468.000000	71.394	-176.2442
475.000000	71.392	-175.8082
482.000000	71.391	-175.4347
487.000000	71.388	-175.1512
494.000000	71.387	-174.7097
500.000000	71.385	-174.3256
508.000000	71.374	-173.8415
515.000000	71.364	-173.4451
522.000000	71.367	-173.0726
530.000000	71.371	-172.6472
538.000000	71.360	-172.1903
545.000000	71.354	-171.7917
552.000000	71.352	-171.3876
560.000000	71.354	-170.9201
570.000000	71.364	-170.3600
580.000000	71.362	-169.8297
590.000000	71.349	-169.2343
600.000000	71.345	-168.6382
608.000000	71.351	-168.1849
615.000000	71.354	-167.8115
622.000000	71.357	-167.4536
630.000000	71.362	-167.0399
640.000000	71.368	-166.5221
650.000000	71.376	-165.9562
660.000000	71.390	-165.3703
670.000000	71.403	-164.7906
680.000000	71.412	-164.2302
690.000000	71.414	-163.6780
700.000000	71.417	-163.0755
710.000000	71.426	-162.5033
720.000000	71.445	-161.9419
730.000000	71.475	-161.3885
740.000000	71.499	-160.8109
750.000000	71.514	-160.2383
762.000000	71.535	-159.5857
775.000000	71.566	-158.8897
788.000000	71.599	-158.2085
800.000000	71.630	-157.5737
812.000000	71.662	-156.9556
825.000000	71.704	-156.3091
838.000000	71.750	-155.6991
850.000000	71.792	-155.1643
862.000000	71.830	-154.6500
875.000000	71.851	-154.1586
885.000000	71.844	-153.7301
900.000000	71.841	-152.7688
912.000000	71.871	-151.8978
925.000000	71.904	-150.8962
938.000000	71.980	-149.6722
950.000000	72.121	-148.7594
962.000000	72.268	-148.2653
975.000000	72.397	-147.9654
988.000000	72.497	-147.7383
1000.000000	72.577	-147.4882
1015.000000	72.677	-147.0292
1030.000000	72.773	-146.6324
1044.000000	72.865	-146.2890
1060.000000	72.970	-145.9417
1075.000000	73.060	-145.6952
1090.000000	73.153	-145.4566
1106.000000	73.256	-145.1870
1120.000000	73.347	-144.9737
1138.000000	73.466	-144.7602
1150.000000	73.544	-144.6324
1172.000000	73.681	-144.4522
1180.000000	73.730	-144.3947
1206.000000	73.869	-144.2184
1220.000000	73.938	-144.1330
1241.000000	74.042	-144.0353
1250.000000	74.082	-143.9977
1265.000000	74.144	-143.9199
1280.000000	74.206	-143.8021
1315.000000	74.346	-143.3810
1320.000000	74.365	-143.3141
1340.000000	74.438	-143.0254
1360.000000	74.509	-142.6687
1380.000000	74.597	-142.2530
1400.000000	74.712	-141.8649
1430.000000	74.919	-141.4444
1450.000000	75.054	-141.3300
1475.000000	75.197	-141.2964
1500.000000	75.323	-141.2143
1525.000000	75.454	-141.0713
1550.000000	75.601	-140.9426
1575.000000	75.753	-140.9720
1600.000000	75.895	-141.1526
1625.000000	76.019	-141.3509
1650.000000	76.124	-141.5429
1675.000000	76.221	-141.7018
1700.000000	76.310	-141.7988
1725.000000	76.398	-141.8601
1750.000000	76.484	-141.9017
1775.000000	76.572	-141.9332
1800.000000	76.665	-141.9629
1825.000000	76.758	-141.9985
1850.000000	76.848	-142.0617
1875.000000	76.937	-142.1552
1900.000000	77.027	-142.2500
1925.000000	77.111	-142.3500
1950.000000	77.191	-142.4616
1975.000000	77.271	-142.5785
2000.000000	77.350	-142.6969
2030.000000	77.440	-142.8325
2060.000000	77.524	-142.9269
2090.000000	77.602	-142.9983
2120.000000	77.681	-143.0471
2140.000000	77.734	-143.0341
2180.000000	77.841	-142.8736
2200.000000	77.901	-142.7550
2240.000000	78.050	-142.4873
2270.000000	78.191	-142.3000
2300.000000	78.353	-142.2407
2330.000000	78.525	-142.3708
2360.000000	78.698	-142.6875
2400.000000	78.910	-143.3581
2430.000000	79.043	-143.9792
2470.000000	79.187	-144.8124
2500.000000	79.278	-145.3748
2540.000000	79.395	-146.0366
2580.000000	79.517	-146.6633
2620.000000	79.644	-147.3403
2650.000000	79.740	-147.8884
2690.000000	79.860	-148.6349
2720.000000	79.949	-149.2081
2760.000000	80.071	-150.0136
2800.000000	80.190	-150.9136
2850.000000	80.322	-152.1974
2900.000000	80.422	-153.5699
2950.000000	80.491	-154.9330
3000.000000	80.540	-156.2311
3040.000000	80.569	-157.2263
3070.000000	80.587	-157.9538
3110.000000	80.605	-158.9087
3150.000000	80.619	-159.8445
3200.000000	80.626	-160.9842
3250.000000	80.623	-162.0904
3300.000000	80.613	-163.1568
3350.000000	80.596	-164.1833
3400.000000	80.573	-165.1768
3450.000000	80.546	-166.1331
3500.000000	80.517	-167.0577
3550.000000	80.482	-167.9400
3600.000000	80.439	-168.7817
3650.000000	80.387	-169.5793
3700.000000	80.328	-170.3127
3750.000000	80.260	-170.9596
3820.000000	80.148	-171.6768
3870.000000	80.062	-172.0149
3950.000000	79.948	-172.1970
4000.000000	79.914	-172.2101
4060.000000	79.906	-172.3531
4120.000000	79.907	-172.7092
4180.000000	79.894	-173.2069
4250.000000	79.860	-173.7980
4310.000000	79.815	-174.2567
4370.000000	79.760	-174.6760
4440.000000	79.689	-175.1182
4500.000000	79.626	-175.4561
4550.000000	79.573	-175.7081
4620.000000	79.502	-176.0208
4680.000000	79.449	-176.2783
4750.000000	79.392	-176.6016
4820.000000	79.333	-176.9364
4870.000000	79.290	-177.1725
4940.000000	79.229	-177.4879
5000.000000	79.176	-177.7389
5080.000000	79.107	-178.0795
5150.000000	79.044	-178.3797
5220.000000	78.979	-178.6697
5300.000000	78.904	-178.9655
5380.000000	78.835	-179.2277
5450.000000	78.779	-179.4375
5520.000000	78.726	-179.6452
5600.000000	78.669	-179.8858
5700.000000	78.602	179.8352
5800.000000	78.541	179.5641
5900.000000	78.479	179.3050
6000.000000	78.422	179.0862
6080.000000	78.386	178.9286
6150.000000	78.363	178.8163
6220.000000	78.350	178.7208
6300.000000	78.349	178.5657
6400.000000	78.362	178.2784
6500.000000	78.384	177.9264
6600.000000	78.410	177.5067
6700.000000	78.444	177.0186
6800.000000	78.495	176.4763
6900.000000	78.578	175.8712
7000.000000	78.693	175.1773
7100.000000	78.833	174.4064
7200.000000	78.997	173.4998
7300.000000	79.187	172.3585
7400.000000	79.397	170.8935
7500.000000	79.617	169.0204
7620.000000	79.885	166.2146
7750.000000	80.149	162.4865
7880.000000	80.298	158.0594
8000.000000	80.336	153.4142
8120.000000	80.300	148.1746
8250.000000	80.149	141.6658
8380.000000	79.807	134.1991
8500.000000	79.225	126.7865
8620.000000	78.316	119.7878
8750.000000	76.979	113.9424
8850.000000	75.790	111.1920
9000.000000	73.946	109.8985
9120.000000	72.544	110.7386
9250.000000	71.165	112.8542
9380.000000	69.937	115.7578
9500.000000	68.920	118.9009
9620.000000	67.998	122.3647
9750.000000	67.088	126.4188
9880.000000	66.258	130.7743
10000.000000	65.554	135.0610
10150.000000	64.743	140.7867
10300.000000	64.022	146.8879
10440.000000	63.417	152.9579
10600.000000	62.824	160.6248
10750.000000	62.412	168.6093
10900.000000	62.210	177.1965
11060.000000	62.336	-173.2868
11200.000000	62.795	-165.4247
11380.000000	63.772	-157.5472
11500.000000	64.513	-154.2673
11720.000000	65.682	-152.1351
11800.000000	65.993	-152.2126
12060.000000	66.578	-153.1078
12200.000000	66.691	-153.1468
12410.000000	66.736	-152.1758
12500.000000	66.748	-151.4087
12650.000000	66.798	-149.8046
12800.000000	66.906	-147.8996
13150.000000	67.461	-142.9874
13200.000000	67.579	-142.3037
13400.000000	68.162	-139.7849
13600.000000	68.928	-137.8463
13800.000000	69.897	-136.9084
14000.000000	71.054	-137.4966
14300.000000	72.983	-142.6864
14500.000000	74.197	-150.0524
14750.000000	75.238	-164.0879
15000.000000	75.395	178.8779
15250.000000	74.682	163.1736
15500.000000	73.487	151.1259
15750.000000	72.192	142.1327
16000.000000	70.897	134.7349
16250.000000	69.538	128.2776
16500.000000	68.058	122.9857
16750.000000	66.484	119.0469
17000.000000	64.833	116.4977
17250.000000	63.127	115.3852
17500.000000	61.427	115.7820
17750.000000	59.771	117.6671
18000.000000	58.185	120.9745
18250.000000	56.689	125.6006
18500.000000	55.320	131.3745
18750.000000	54.094	138.0105
19000.000000	53.025	145.5368
19250.000000	52.116	153.9043
19500.000000	51.331	162.5440
19750.000000	50.763	170.4515
20000.000000	50.487	175.6541
