* Measurement data measured by REW V5.20.7
* Source: ???(Realtek High Definition Audi, no input selected, L, volume: no control
* Format: 128k Log Swept Sine, 1 sweep at -12.0 dBFS with no timing reference
* Dated: 13-Oct-2022 23:01:01
* REW Settings:
*  C-weighting compensation: Off
*  Target level: 75.0 dB
* Note: ; 
* Measurement: RHA CL2 L
* Smoothing: 1/24 octave
* Frequency Step: 1/48 octave
* Start Frequency: 20.300 Hz
*
* Freq(Hz)	SPL(dB)	Phase(degrees)
20.299999	67.935	65.4865
20.600000	68.010	65.4427
20.900000	68.169	65.3541
21.200001	68.342	65.2050
21.400000	68.460	64.9866
21.799999	68.683	64.1863
22.000000	68.776	63.6175
22.400000	68.896	62.3200
22.700001	68.935	61.4026
23.000000	68.951	60.6477
23.299999	68.965	60.0226
23.600000	68.984	59.4503
24.000000	69.013	58.6789
24.299999	69.030	58.1144
24.700001	69.050	57.4979
25.000000	69.084	57.1655
25.400000	69.184	56.7332
25.799999	69.341	55.9267
26.200001	69.485	54.4947
26.500000	69.536	53.1414
26.900000	69.500	51.4258
27.200001	69.415	50.5794
27.600000	69.305	50.2772
28.000000	69.301	50.6165
28.500000	69.478	50.8411
29.000000	69.702	50.0080
29.500000	69.807	48.5849
30.000000	69.802	47.6759
30.400000	69.811	47.5754
30.700001	69.866	47.6712
31.100000	69.994	47.6238
31.500000	70.134	47.1730
32.000000	70.247	46.2634
32.500000	70.292	45.5550
33.000000	70.353	45.2595
33.500000	70.484	44.9493
34.000000	70.641	44.1242
34.500000	70.739	42.8211
35.000000	70.746	41.5016
35.500000	70.696	40.6003
36.000000	70.652	40.1869
36.500000	70.652	40.0613
37.000000	70.706	39.9535
37.500000	70.796	39.6660
38.200001	70.918	38.8299
38.700001	70.963	38.0917
39.500000	70.977	37.3334
40.000000	71.008	37.1603
40.599998	71.086	36.9048
41.200001	71.162	36.4274
41.799999	71.215	35.9788
42.500000	71.301	35.6191
43.099998	71.415	35.0514
43.700001	71.504	34.0458
44.400002	71.525	32.7242
45.000000	71.498	31.8060
45.500000	71.470	31.1958
46.200001	71.429	30.5626
46.799999	71.417	30.2597
47.500000	71.467	29.8758
48.200001	71.530	29.0302
48.700001	71.528	28.2882
49.400002	71.464	27.6439
50.000000	71.427	27.5965
50.799999	71.469	27.6535
51.500000	71.541	27.3701
52.200001	71.597	26.8365
53.000000	71.631	26.0788
53.799999	71.625	25.2960
54.500000	71.602	24.7632
55.200001	71.596	24.3447
56.000000	71.618	23.7742
57.000000	71.649	22.8501
58.000000	71.663	21.8323
59.000000	71.650	21.0138
60.000000	71.668	20.4366
60.799999	71.683	19.8084
61.500000	71.658	19.3218
62.200001	71.629	19.1039
63.000000	71.631	18.9244
64.000000	71.641	18.4393
65.000000	71.631	17.9748
66.000000	71.650	17.4808
67.000000	71.669	16.7313
68.000000	71.659	16.0045
69.000000	71.654	15.4671
70.000000	71.662	14.9683
71.000000	71.664	14.4849
72.000000	71.660	14.0971
73.000000	71.663	13.7378
74.000000	71.666	13.2846
75.000000	71.653	12.7538
76.199997	71.615	12.1653
77.500000	71.582	11.6884
78.800003	71.567	11.0923
80.000000	71.530	10.5750
81.199997	71.511	10.2245
82.500000	71.513	9.7334
83.800003	71.504	9.1517
85.000000	71.484	8.6395
86.199997	71.455	8.2013
87.500000	71.415	7.8655
88.500000	71.395	7.6944
90.000000	71.377	7.3158
91.199997	71.354	6.9611
92.500000	71.331	6.5496
93.800003	71.304	6.1318
95.000000	71.276	5.7901
96.199997	71.246	5.5275
97.500000	71.222	5.3212
98.800003	71.206	5.0537
100.000000	71.186	4.6965
101.500000	71.144	4.2026
103.000000	71.103	3.7465
104.400002	71.068	3.3260
106.000000	71.023	2.9606
107.500000	70.987	2.7221
109.000000	70.949	2.4785
110.599998	70.906	2.2404
112.000000	70.878	2.0215
113.800003	70.847	1.6941
115.000000	70.825	1.5368
117.199997	70.791	1.3211
118.000000	70.775	1.2492
120.599998	70.716	0.9920
122.000000	70.685	0.7797
124.099998	70.644	0.3847
125.000000	70.627	0.2076
126.500000	70.595	-0.0453
128.000000	70.562	-0.2094
131.500000	70.483	-0.5309
132.000000	70.469	-0.5742
134.000000	70.419	-0.7131
136.000000	70.378	-0.8276
138.000000	70.341	-0.9374
140.000000	70.295	-1.0982
143.000000	70.210	-1.3210
145.000000	70.172	-1.5194
147.500000	70.130	-1.7666
150.000000	70.088	-1.8863
152.500000	70.033	-1.9571
155.000000	69.973	-1.9541
157.500000	69.928	-1.9959
160.000000	69.882	-2.0487
162.500000	69.851	-2.0294
165.000000	69.828	-2.0210
167.500000	69.797	-1.9779
170.000000	69.758	-1.9265
172.500000	69.719	-1.8944
175.000000	69.693	-1.8929
177.500000	69.679	-1.9120
180.000000	69.667	-1.9737
182.500000	69.645	-2.0880
185.000000	69.615	-2.1886
187.500000	69.587	-2.2649
190.000000	69.558	-2.3380
192.500000	69.524	-2.3921
195.000000	69.491	-2.4454
197.500000	69.456	-2.4980
200.000000	69.418	-2.5324
203.000000	69.370	-2.5493
206.000000	69.323	-2.5741
209.000000	69.274	-2.6038
212.000000	69.233	-2.5943
214.000000	69.207	-2.5730
218.000000	69.147	-2.4921
220.000000	69.115	-2.4443
224.000000	69.058	-2.3793
227.000000	69.020	-2.3185
230.000000	68.985	-2.2140
233.000000	68.949	-2.1005
236.000000	68.908	-2.0124
240.000000	68.851	-1.9313
243.000000	68.810	-1.8591
247.000000	68.761	-1.7152
250.000000	68.729	-1.6018
254.000000	68.688	-1.4640
258.000000	68.649	-1.3397
262.000000	68.607	-1.1768
265.000000	68.577	-1.0457
269.000000	68.537	-0.8722
272.000000	68.507	-0.7488
276.000000	68.471	-0.5804
280.000000	68.438	-0.3854
285.000000	68.389	-0.1242
290.000000	68.339	0.1557
295.000000	68.295	0.4614
300.000000	68.255	0.7917
304.000000	68.225	1.1171
307.000000	68.203	1.3717
311.000000	68.174	1.7011
315.000000	68.154	2.0292
320.000000	68.141	2.3984
325.000000	68.132	2.7025
330.000000	68.128	2.9817
335.000000	68.125	3.2074
340.000000	68.112	3.3637
345.000000	68.087	3.5091
350.000000	68.058	3.6781
355.000000	68.032	3.8920
360.000000	68.006	4.1204
365.000000	67.979	4.3676
370.000000	67.956	4.6432
375.000000	67.931	4.9152
382.000000	67.896	5.2566
387.000000	67.873	5.4889
395.000000	67.841	5.8736
400.000000	67.818	6.1615
406.000000	67.790	6.5263
412.000000	67.767	6.8709
418.000000	67.740	7.1792
425.000000	67.714	7.5408
431.000000	67.696	7.8961
437.000000	67.678	8.2751
444.000000	67.661	8.7300
450.000000	67.648	9.0947
455.000000	67.637	9.3698
462.000000	67.626	9.7644
468.000000	67.616	10.1024
475.000000	67.595	10.5180
482.000000	67.576	10.9661
487.000000	67.568	11.2689
494.000000	67.557	11.6843
500.000000	67.546	12.0401
508.000000	67.531	12.5222
515.000000	67.523	12.9480
522.000000	67.514	13.3861
530.000000	67.503	13.9223
538.000000	67.493	14.4508
545.000000	67.483	14.8757
552.000000	67.473	15.3233
560.000000	67.460	15.8400
570.000000	67.447	16.4458
580.000000	67.439	17.0652
590.000000	67.429	17.7162
600.000000	67.424	18.3892
608.000000	67.421	18.9111
615.000000	67.420	19.3287
622.000000	67.421	19.7239
630.000000	67.424	20.2095
640.000000	67.429	20.8972
650.000000	67.439	21.5888
660.000000	67.444	22.2690
670.000000	67.445	22.9692
680.000000	67.451	23.6454
690.000000	67.465	24.3222
700.000000	67.480	25.0059
710.000000	67.496	25.6771
720.000000	67.514	26.3449
730.000000	67.532	27.0188
740.000000	67.547	27.7298
750.000000	67.566	28.4410
762.000000	67.598	29.2609
775.000000	67.638	30.1743
788.000000	67.669	31.0987
800.000000	67.703	31.9511
812.000000	67.745	32.7741
825.000000	67.793	33.6527
838.000000	67.844	34.5246
850.000000	67.894	35.3222
862.000000	67.945	36.1257
875.000000	68.004	37.0003
885.000000	68.055	37.6646
900.000000	68.135	38.6454
912.000000	68.199	39.4371
925.000000	68.275	40.2549
938.000000	68.356	41.0068
950.000000	68.435	41.7002
962.000000	68.515	42.3953
975.000000	68.604	43.1199
988.000000	68.695	43.8214
1000.000000	68.778	44.4452
1015.000000	68.885	45.2047
1030.000000	68.996	45.9222
1044.000000	69.106	46.5366
1060.000000	69.231	47.2172
1075.000000	69.340	47.8213
1090.000000	69.445	48.3970
1106.000000	69.557	48.9735
1120.000000	69.653	49.4435
1138.000000	69.777	49.9988
1150.000000	69.860	50.3477
1172.000000	70.009	50.9725
1180.000000	70.063	51.1902
1206.000000	70.241	51.8784
1220.000000	70.345	52.2329
1241.000000	70.508	52.7161
1250.000000	70.578	52.9128
1265.000000	70.693	53.2294
1280.000000	70.808	53.5366
1315.000000	71.069	54.2587
1320.000000	71.107	54.3553
1340.000000	71.260	54.7129
1360.000000	71.415	55.0733
1380.000000	71.575	55.4622
1400.000000	71.735	55.8515
1430.000000	71.977	56.3941
1450.000000	72.140	56.7426
1475.000000	72.346	57.1670
1500.000000	72.550	57.5801
1525.000000	72.754	57.9747
1550.000000	72.951	58.3511
1575.000000	73.144	58.7175
1600.000000	73.337	59.0619
1625.000000	73.532	59.3831
1650.000000	73.732	59.6684
1675.000000	73.932	59.9344
1700.000000	74.134	60.1718
1725.000000	74.339	60.3842
1750.000000	74.552	60.5716
1775.000000	74.770	60.7240
1800.000000	74.990	60.8308
1825.000000	75.212	60.9047
1850.000000	75.435	60.9498
1875.000000	75.660	60.9607
1900.000000	75.887	60.9255
1925.000000	76.115	60.8425
1950.000000	76.344	60.7217
1975.000000	76.574	60.5565
2000.000000	76.805	60.3375
2030.000000	77.083	60.0083
2060.000000	77.361	59.6046
2090.000000	77.637	59.1071
2120.000000	77.908	58.5274
2140.000000	78.085	58.1038
2180.000000	78.430	57.1945
2200.000000	78.601	56.7316
2240.000000	78.952	55.8212
2270.000000	79.239	55.0686
2300.000000	79.544	54.0980
2330.000000	79.845	52.8239
2360.000000	80.125	51.2593
2400.000000	80.440	48.8250
2430.000000	80.622	46.8159
2470.000000	80.765	44.0797
2500.000000	80.788	42.2794
2540.000000	80.751	40.8434
2580.000000	80.818	40.6516
2620.000000	81.109	40.4808
2650.000000	81.402	39.6128
2690.000000	81.750	37.5000
2720.000000	81.945	35.5438
2760.000000	82.123	32.8288
2800.000000	82.233	30.2044
2850.000000	82.307	27.1807
2900.000000	82.338	24.4580
2950.000000	82.346	22.0191
3000.000000	82.344	19.8358
3040.000000	82.343	18.2553
3070.000000	82.345	17.1555
3110.000000	82.355	15.7813
3150.000000	82.376	14.4948
3200.000000	82.420	12.9741
3250.000000	82.486	11.4981
3300.000000	82.576	10.0193
3350.000000	82.692	8.4887
3400.000000	82.834	6.8481
3450.000000	83.003	5.0453
3500.000000	83.195	3.0256
3550.000000	83.406	0.7216
3600.000000	83.630	-1.9496
3650.000000	83.858	-5.0834
3700.000000	84.072	-8.7608
3750.000000	84.246	-13.0246
3820.000000	84.370	-19.9221
3870.000000	84.343	-25.3525
3950.000000	84.050	-34.3932
4000.000000	83.702	-39.9096
4060.000000	83.132	-46.0365
4120.000000	82.427	-51.3843
4180.000000	81.627	-55.8278
4250.000000	80.627	-59.8680
4310.000000	79.746	-62.4241
4370.000000	78.870	-64.2429
4440.000000	77.872	-65.5815
4500.000000	77.046	-66.1751
4550.000000	76.382	-66.3427
4620.000000	75.492	-66.1391
4680.000000	74.767	-65.6186
4750.000000	73.963	-64.6861
4820.000000	73.203	-63.4407
4870.000000	72.686	-62.3867
4940.000000	71.997	-60.7364
5000.000000	71.440	-59.1849
5080.000000	70.742	-56.9279
5150.000000	70.165	-54.7928
5220.000000	69.623	-52.5629
5300.000000	69.049	-49.9203
5380.000000	68.514	-47.1700
5450.000000	68.074	-44.6735
5520.000000	67.660	-42.1448
5600.000000	67.213	-39.2553
5700.000000	66.690	-35.5570
5800.000000	66.207	-31.6696
5900.000000	65.775	-27.6358
6000.000000	65.404	-23.4760
6080.000000	65.155	-20.0656
6150.000000	64.972	-17.0939
6220.000000	64.816	-14.1475
6300.000000	64.667	-10.8313
6400.000000	64.526	-6.7796
6500.000000	64.433	-2.8113
6600.000000	64.375	1.1322
6700.000000	64.353	5.0696
6800.000000	64.384	8.9577
6900.000000	64.482	12.8580
7000.000000	64.645	16.7650
7100.000000	64.884	20.6303
7200.000000	65.204	24.3529
7300.000000	65.611	27.8247
7400.000000	66.106	30.9848
7500.000000	66.696	33.7691
7620.000000	67.540	36.4471
7750.000000	68.640	38.1182
7880.000000	69.947	37.7521
8000.000000	71.282	34.6103
8120.000000	72.547	27.5434
8250.000000	73.446	14.8425
8380.000000	73.451	-1.0391
8500.000000	72.583	-14.4827
8620.000000	71.114	-23.9152
8750.000000	69.238	-29.3013
8850.000000	67.802	-30.8209
9000.000000	65.844	-30.3355
9120.000000	64.483	-28.4635
9250.000000	63.190	-25.5128
9380.000000	62.058	-21.8873
9500.000000	61.138	-18.1237
9620.000000	60.329	-14.0937
9750.000000	59.567	-9.4970
9880.000000	58.902	-4.6752
10000.000000	58.366	-0.1005
10150.000000	57.799	5.7484
10300.000000	57.339	11.7515
10440.000000	57.014	17.4099
10600.000000	56.766	23.8820
10750.000000	56.634	29.9628
10900.000000	56.616	36.0424
11060.000000	56.733	42.3770
11200.000000	56.953	47.5102
11380.000000	57.380	53.3672
11500.000000	57.712	56.6967
11720.000000	58.382	61.7772
11800.000000	58.648	63.4399
12060.000000	59.640	68.3617
12200.000000	60.303	70.6837
12410.000000	61.574	73.3691
12500.000000	62.234	74.0216
12650.000000	63.481	74.0303
12800.000000	64.866	72.0695
13150.000000	67.809	55.7831
13200.000000	68.090	52.0384
13400.000000	68.662	35.0184
13600.000000	68.361	17.5511
13800.000000	67.362	2.3716
14000.000000	65.832	-9.2078
14300.000000	62.815	-17.3898
14500.000000	60.674	-15.5489
14750.000000	58.658	-6.6223
15000.000000	58.082	4.2472
15250.000000	58.667	12.0146
15500.000000	59.744	15.6303
15750.000000	61.107	15.5877
16000.000000	62.697	11.1593
16250.000000	64.245	0.7577
16500.000000	65.291	-15.9771
16750.000000	65.490	-36.8681
17000.000000	64.828	-58.9716
17250.000000	63.346	-80.8357
17500.000000	60.806	-98.7654
17750.000000	57.044	-103.8747
18000.000000	53.413	-100.1921
18250.000000	51.001	-96.6325
18500.000000	49.268	-94.0038
18750.000000	48.011	-91.6036
19000.000000	47.294	-89.2318
19250.000000	47.158	-88.1796
19500.000000	47.490	-90.1289
19750.000000	47.996	-96.1265
20000.000000	48.272	-102.2086
