* Measurement data measured by REW V5.20.5
* Source: Input device not selected, no input selected, L, volume: no control
* Format: 128k Log Swept Sine, 1 sweep at -12.0 dBFS with no timing reference
* Dated: 22-Feb-2023 19:56:10
* REW Settings:
*  C-weighting compensation: Off
*  Target level: 75.0 dB
* Note: ; 
* Measurement: Cowon EG2 L
* Smoothing: 1/24 octave
* Frequency Step: 1/48 octave
* Start Frequency: 20.300 Hz
*
* Freq(Hz)	SPL(dB)	Phase(degrees)
20.299999	91.252	-142.3078
20.600000	91.252	-142.4355
20.900000	91.258	-142.6804
21.200001	91.280	-142.9283
21.400000	91.305	-143.1285
21.799999	91.361	-143.7189
22.000000	91.384	-144.1209
22.400000	91.401	-145.0791
22.700001	91.383	-145.8300
23.000000	91.342	-146.5128
23.299999	91.290	-147.0667
23.600000	91.241	-147.4775
24.000000	91.204	-147.8730
24.299999	91.203	-148.1507
24.700001	91.230	-148.6239
25.000000	91.258	-149.0962
25.400000	91.290	-149.8600
25.799999	91.304	-150.6792
26.200001	91.301	-151.4429
26.500000	91.293	-151.9412
26.900000	91.282	-152.5105
27.200001	91.277	-152.8913
27.600000	91.277	-153.3874
28.000000	91.282	-153.9063
28.500000	91.284	-154.5942
29.000000	91.276	-155.2781
29.500000	91.258	-155.9052
30.000000	91.239	-156.4577
30.400000	91.227	-156.8572
30.700001	91.221	-157.1432
31.100000	91.216	-157.5201
31.500000	91.213	-157.9066
32.000000	91.210	-158.4204
32.500000	91.202	-158.9665
33.000000	91.188	-159.5111
33.500000	91.173	-160.0128
34.000000	91.165	-160.4607
34.500000	91.167	-160.8828
35.000000	91.174	-161.3118
35.500000	91.181	-161.7486
36.000000	91.187	-162.1728
36.500000	91.195	-162.5806
37.000000	91.204	-162.9914
37.500000	91.212	-163.4153
38.200001	91.212	-163.9928
38.700001	91.207	-164.3694
39.500000	91.201	-164.9426
40.000000	91.196	-165.2995
40.599998	91.190	-165.7121
41.200001	91.188	-166.1197
41.799999	91.187	-166.5604
42.500000	91.178	-167.0888
43.099998	91.169	-167.4846
43.700001	91.171	-167.8658
44.400002	91.179	-168.4396
45.000000	91.165	-169.0029
45.500000	91.135	-169.3795
46.200001	91.100	-169.6648
46.799999	91.099	-169.8311
47.500000	91.119	-170.1648
48.200001	91.126	-170.5895
48.700001	91.126	-170.8391
49.400002	91.139	-171.1335
50.000000	91.158	-171.4647
50.799999	91.166	-172.0494
51.500000	91.146	-172.5135
52.200001	91.124	-172.8548
53.000000	91.111	-173.2191
53.799999	91.100	-173.6279
54.500000	91.090	-173.9982
55.200001	91.080	-174.3892
56.000000	91.067	-174.8516
57.000000	91.055	-175.4236
58.000000	91.038	-176.0621
59.000000	90.995	-176.5437
60.000000	90.978	-176.7733
60.799999	90.986	-177.0316
61.500000	90.986	-177.3253
62.200001	90.979	-177.5903
63.000000	90.974	-177.8621
64.000000	90.973	-178.2646
65.000000	90.965	-178.7325
66.000000	90.950	-179.1865
67.000000	90.936	-179.6010
68.000000	90.927	-179.9828
69.000000	90.923	179.6588
70.000000	90.921	179.2866
71.000000	90.914	178.9116
72.000000	90.903	178.5622
73.000000	90.893	178.2148
74.000000	90.881	177.8685
75.000000	90.872	177.5173
76.199997	90.861	177.0756
77.500000	90.847	176.5986
78.800003	90.832	176.1576
80.000000	90.820	175.7865
81.199997	90.811	175.4232
82.500000	90.798	175.0106
83.800003	90.779	174.5901
85.000000	90.761	174.2197
86.199997	90.744	173.8404
87.500000	90.724	173.4310
88.500000	90.710	173.1441
90.000000	90.697	172.7148
91.199997	90.687	172.3436
92.500000	90.672	171.9509
93.800003	90.656	171.5880
95.000000	90.644	171.2516
96.199997	90.631	170.9156
97.500000	90.619	170.5547
98.800003	90.605	170.1931
100.000000	90.591	169.8787
101.500000	90.576	169.4922
103.000000	90.559	169.0838
104.400002	90.540	168.6964
106.000000	90.517	168.2646
107.500000	90.496	167.8659
109.000000	90.477	167.4911
110.599998	90.461	167.1134
112.000000	90.446	166.7865
113.800003	90.421	166.3660
115.000000	90.400	166.0753
117.199997	90.355	165.5400
118.000000	90.339	165.3510
120.599998	90.307	164.7710
122.000000	90.301	164.4505
124.099998	90.288	163.9662
125.000000	90.280	163.7720
126.500000	90.262	163.4604
128.000000	90.243	163.1453
131.500000	90.195	162.4082
132.000000	90.188	162.3024
134.000000	90.158	161.8680
136.000000	90.123	161.4474
138.000000	90.094	161.0458
140.000000	90.071	160.6203
143.000000	90.036	160.0008
145.000000	90.012	159.6320
147.500000	89.985	159.1804
150.000000	89.961	158.6863
152.500000	89.918	158.1689
155.000000	89.864	157.7129
157.500000	89.817	157.2433
160.000000	89.779	156.7373
162.500000	89.744	156.2236
165.000000	89.698	155.7607
167.500000	89.650	155.3521
170.000000	89.610	154.9368
172.500000	89.574	154.5345
175.000000	89.540	154.1508
177.500000	89.507	153.7152
180.000000	89.473	153.2474
182.500000	89.437	152.8215
185.000000	89.400	152.4410
187.500000	89.364	152.0424
190.000000	89.327	151.6297
192.500000	89.286	151.2551
195.000000	89.242	150.8816
197.500000	89.197	150.4608
200.000000	89.152	150.0403
203.000000	89.098	149.6099
206.000000	89.043	149.2044
209.000000	88.990	148.7662
212.000000	88.940	148.3165
214.000000	88.906	148.0193
218.000000	88.828	147.4819
220.000000	88.787	147.2350
224.000000	88.701	146.7194
227.000000	88.636	146.3149
230.000000	88.573	145.8781
233.000000	88.514	145.4426
236.000000	88.459	145.0967
240.000000	88.388	144.6730
243.000000	88.325	144.3102
247.000000	88.247	143.7867
250.000000	88.193	143.3923
254.000000	88.119	142.9601
258.000000	88.043	142.5569
262.000000	87.962	142.1040
265.000000	87.904	141.7780
269.000000	87.829	141.3338
272.000000	87.771	140.9755
276.000000	87.693	140.5379
280.000000	87.619	140.1534
285.000000	87.532	139.7042
290.000000	87.438	139.2521
295.000000	87.331	138.7114
300.000000	87.220	138.1923
304.000000	87.135	137.8228
307.000000	87.075	137.5787
311.000000	86.995	137.2981
315.000000	86.914	137.0266
320.000000	86.806	136.7061
325.000000	86.687	136.4376
330.000000	86.564	136.2266
335.000000	86.444	136.0889
340.000000	86.335	136.1165
345.000000	86.247	136.2869
350.000000	86.201	136.4986
355.000000	86.192	136.5803
360.000000	86.191	136.2877
365.000000	86.182	135.7173
370.000000	86.151	135.0194
375.000000	86.089	134.3038
382.000000	85.960	133.4481
387.000000	85.856	132.9641
395.000000	85.693	132.2928
400.000000	85.590	131.9058
406.000000	85.464	131.4877
412.000000	85.344	131.1045
418.000000	85.223	130.7523
425.000000	85.081	130.3879
431.000000	84.959	130.0995
437.000000	84.842	129.8159
444.000000	84.708	129.4637
450.000000	84.594	129.2251
455.000000	84.502	129.0622
462.000000	84.373	128.8117
468.000000	84.259	128.5811
475.000000	84.128	128.3530
482.000000	84.004	128.1707
487.000000	83.916	128.0494
494.000000	83.792	127.8717
500.000000	83.682	127.7063
508.000000	83.535	127.5410
515.000000	83.408	127.4259
522.000000	83.284	127.3005
530.000000	83.152	127.1346
538.000000	83.014	127.0365
545.000000	82.887	127.0006
552.000000	82.763	126.9258
560.000000	82.623	126.8291
570.000000	82.444	126.7608
580.000000	82.267	126.7058
590.000000	82.086	126.6495
600.000000	81.907	126.6487
608.000000	81.770	126.7113
615.000000	81.652	126.7798
622.000000	81.535	126.8353
630.000000	81.402	126.8856
640.000000	81.239	126.9531
650.000000	81.084	127.0435
660.000000	80.941	127.1134
670.000000	80.796	127.1359
680.000000	80.645	127.1366
690.000000	80.496	127.1232
700.000000	80.350	127.0108
710.000000	80.193	126.6874
720.000000	80.005	126.1194
730.000000	79.730	125.4833
740.000000	79.338	125.4642
750.000000	78.933	126.6761
762.000000	78.652	129.0275
775.000000	78.553	131.0150
788.000000	78.483	132.0745
800.000000	78.380	132.6917
812.000000	78.255	133.2205
825.000000	78.119	133.7767
838.000000	77.984	134.3575
850.000000	77.850	134.8721
862.000000	77.709	135.4464
875.000000	77.547	136.0871
885.000000	77.426	136.5458
900.000000	77.255	137.2268
912.000000	77.108	137.8295
925.000000	76.945	138.4961
938.000000	76.789	139.1043
950.000000	76.643	139.6464
962.000000	76.493	140.2253
975.000000	76.314	140.8765
988.000000	76.114	141.6345
1000.000000	75.919	142.4984
1015.000000	75.687	143.9677
1030.000000	75.520	145.9891
1044.000000	75.499	147.7941
1060.000000	75.566	148.9473
1075.000000	75.564	149.2610
1090.000000	75.465	149.4541
1106.000000	75.308	149.6457
1120.000000	75.147	149.9497
1138.000000	74.931	150.5290
1150.000000	74.789	150.9542
1172.000000	74.513	151.8482
1180.000000	74.414	152.2322
1206.000000	74.103	153.6783
1220.000000	73.936	154.4846
1241.000000	73.700	155.7209
1250.000000	73.595	156.2868
1265.000000	73.417	157.2987
1280.000000	73.249	158.4330
1315.000000	72.854	161.5615
1320.000000	72.796	162.0483
1340.000000	72.567	164.1489
1360.000000	72.352	166.4814
1380.000000	72.169	169.0211
1400.000000	72.021	171.8278
1430.000000	71.874	176.8633
1450.000000	71.832	-179.4234
1475.000000	71.851	-174.6701
1500.000000	71.992	-169.7399
1525.000000	72.273	-164.7380
1550.000000	72.686	-159.8237
1575.000000	73.227	-155.4858
1600.000000	73.878	-152.0620
1625.000000	74.610	-149.4669
1650.000000	75.380	-147.8916
1675.000000	76.129	-147.3799
1700.000000	76.829	-147.8169
1725.000000	77.458	-148.9695
1750.000000	78.014	-150.7465
1775.000000	78.475	-153.0516
1800.000000	78.824	-155.6764
1825.000000	79.072	-158.3797
1850.000000	79.232	-161.0486
1875.000000	79.303	-163.6290
1900.000000	79.298	-165.9889
1925.000000	79.237	-168.0232
1950.000000	79.127	-169.7336
1975.000000	78.987	-171.1010
2000.000000	78.834	-172.1092
2030.000000	78.636	-172.9259
2060.000000	78.438	-173.4119
2090.000000	78.255	-173.6450
2120.000000	78.092	-173.6274
2140.000000	77.990	-173.5105
2180.000000	77.806	-173.2150
2200.000000	77.718	-173.0686
2240.000000	77.534	-172.6626
2270.000000	77.389	-172.2676
2300.000000	77.243	-171.7347
2330.000000	77.096	-171.0453
2360.000000	76.943	-170.2066
2400.000000	76.750	-168.7336
2430.000000	76.625	-167.4389
2470.000000	76.497	-165.5320
2500.000000	76.444	-163.9499
2540.000000	76.421	-161.7018
2580.000000	76.431	-159.4860
2620.000000	76.486	-157.3506
2650.000000	76.545	-155.7668
2690.000000	76.653	-153.7202
2720.000000	76.761	-152.2412
2760.000000	76.930	-150.3510
2800.000000	77.120	-148.5699
2850.000000	77.384	-146.4477
2900.000000	77.692	-144.5516
2950.000000	78.030	-142.9329
3000.000000	78.383	-141.6265
3040.000000	78.676	-140.7769
3070.000000	78.901	-140.2690
3110.000000	79.207	-139.7952
3150.000000	79.511	-139.4954
3200.000000	79.890	-139.3382
3250.000000	80.254	-139.4417
3300.000000	80.591	-139.8256
3350.000000	80.908	-140.4651
3400.000000	81.189	-141.2877
3450.000000	81.427	-142.2204
3500.000000	81.623	-143.2109
3550.000000	81.776	-144.2154
3600.000000	81.894	-145.1123
3650.000000	81.997	-145.8966
3700.000000	82.082	-146.6456
3750.000000	82.144	-147.2360
3820.000000	82.226	-147.8746
3870.000000	82.275	-148.2070
3950.000000	82.352	-148.3887
4000.000000	82.408	-148.2599
4060.000000	82.491	-147.9113
4120.000000	82.596	-147.4020
4180.000000	82.731	-146.7292
4250.000000	82.931	-145.7851
4310.000000	83.144	-144.9073
4370.000000	83.407	-143.9823
4440.000000	83.773	-142.9305
4500.000000	84.143	-142.1697
4550.000000	84.494	-141.6964
4620.000000	85.043	-141.2852
4680.000000	85.562	-141.1974
4750.000000	86.233	-141.4988
4820.000000	86.978	-142.3520
4870.000000	87.547	-143.4070
4940.000000	88.393	-145.7346
5000.000000	89.151	-148.7619
5080.000000	90.146	-154.7144
5150.000000	90.896	-162.0289
5220.000000	91.400	-171.2548
5300.000000	91.532	176.7411
5380.000000	91.131	164.8885
5450.000000	90.399	155.9586
5520.000000	89.424	148.9861
5600.000000	88.172	143.4432
5700.000000	86.600	139.4679
5800.000000	85.147	137.8115
5900.000000	83.857	137.7106
6000.000000	82.733	138.6256
6080.000000	81.945	139.8260
6150.000000	81.328	141.1045
6220.000000	80.771	142.5286
6300.000000	80.195	144.2751
6400.000000	79.548	146.6336
6500.000000	78.980	149.1899
6600.000000	78.487	151.9366
6700.000000	78.057	154.8602
6800.000000	77.710	158.0271
6900.000000	77.467	161.4125
7000.000000	77.347	164.9095
7100.000000	77.355	168.4061
7200.000000	77.502	171.7192
7300.000000	77.793	174.6384
7400.000000	78.226	177.0812
7500.000000	78.795	178.8605
7620.000000	79.657	179.6332
7750.000000	80.777	178.0418
7880.000000	81.944	172.4560
8000.000000	82.780	162.5551
8120.000000	83.018	148.6235
8250.000000	82.324	132.4859
8380.000000	80.728	119.8292
8500.000000	78.813	112.8653
8620.000000	76.810	109.6938
8750.000000	74.746	109.1763
8850.000000	73.285	110.1464
9000.000000	71.304	113.0474
9120.000000	69.908	116.2253
9250.000000	68.565	120.2042
9380.000000	67.334	124.5485
9500.000000	66.287	128.7518
9620.000000	65.337	133.2256
9750.000000	64.453	138.1460
9880.000000	63.682	142.9899
10000.000000	63.009	147.5089
10150.000000	62.195	153.3004
10300.000000	61.458	159.2930
10440.000000	60.854	164.9498
10600.000000	60.232	171.2074
10750.000000	59.719	177.1150
10900.000000	59.262	-176.9545
11060.000000	58.885	-170.1768
11200.000000	58.592	-164.2385
11380.000000	58.295	-157.1369
11500.000000	58.168	-152.5349
11720.000000	57.986	-143.9056
11800.000000	57.942	-140.6654
12060.000000	58.027	-130.4443
12200.000000	58.171	-125.4131
12410.000000	58.522	-118.2522
12500.000000	58.735	-115.1514
12650.000000	59.139	-109.9105
12800.000000	59.621	-104.7508
13150.000000	61.116	-94.0237
13200.000000	61.379	-92.5778
13400.000000	62.618	-87.0696
13600.000000	64.236	-82.2797
13800.000000	66.369	-78.9111
14000.000000	68.989	-78.1967
14300.000000	73.320	-87.0819
14500.000000	75.531	-103.9521
14750.000000	76.266	-133.6760
15000.000000	74.874	-156.3610
15250.000000	72.830	-165.9552
15500.000000	71.332	-168.3762
15750.000000	70.677	-168.7706
16000.000000	70.839	-169.8973
16250.000000	71.618	-174.7637
16500.000000	72.433	173.2565
16750.000000	72.457	153.7952
17000.000000	71.122	133.3642
17250.000000	68.546	119.8414
17500.000000	65.314	114.5385
17750.000000	62.054	115.2864
18000.000000	59.167	119.6998
18250.000000	56.875	125.9311
18500.000000	55.260	132.3456
18750.000000	54.135	137.3294
19000.000000	53.402	140.8215
19250.000000	52.948	142.2523
19500.000000	52.757	141.4573
19750.000000	52.480	139.7706
