* Measurement data measured by REW V5.20.7
* Source: 마이크(Realtek High Definition Audi, MICROPHONE (마스), L, volume: 0.050
* Format: 128k Log Swept Sine, 4 sweeps at -12.0 dBFS with no timing reference
* Dated: 2022. 4. 30 오전 9:04:51
* REW Settings:
*  C-weighting compensation: Off
*  Target level: 75.0 dB
* Note: 
* Measurement: CCA CRA (제출용) L
* Smoothing: 1/24 octave
* Frequency Step: 1/48 octave
* Start Frequency: 20.300 Hz
*
* Freq(Hz)	SPL(dB)	Phase(degrees)
20.299999	93.931	-168.7291
20.600000	93.906	-168.8719
20.900000	93.852	-169.1345
21.200001	93.793	-169.4107
21.400000	93.750	-169.6184
21.799999	93.652	-170.1218
22.000000	93.597	-170.4248
22.400000	93.478	-171.1209
22.700001	93.388	-171.7061
23.000000	93.304	-172.3376
23.299999	93.227	-173.0203
23.600000	93.156	-173.7641
24.000000	93.075	-174.8633
24.299999	93.023	-175.7639
24.700001	92.965	-177.0326
25.000000	92.928	-177.9957
25.400000	92.889	-179.2437
25.799999	92.873	179.5836
26.200001	92.882	178.4852
26.500000	92.902	177.6973
26.900000	92.937	176.6850
27.200001	92.965	175.9613
27.600000	92.997	175.0688
28.000000	93.020	174.2923
28.500000	93.039	173.5023
29.000000	93.053	172.8668
29.500000	93.062	172.3097
30.000000	93.052	171.7858
30.400000	93.026	171.3954
30.700001	93.000	171.1264
31.100000	92.963	170.7957
31.500000	92.924	170.4751
32.000000	92.872	170.0388
32.500000	92.818	169.5232
33.000000	92.760	168.9339
33.500000	92.698	168.3057
34.000000	92.638	167.6612
34.500000	92.592	166.9917
35.000000	92.560	166.2791
35.500000	92.538	165.5278
36.000000	92.521	164.7755
36.500000	92.505	164.0704
37.000000	92.488	163.4471
37.500000	92.473	162.9081
38.200001	92.457	162.2637
38.700001	92.449	161.8655
39.500000	92.418	161.3298
40.000000	92.384	161.0438
40.599998	92.331	160.7159
41.200001	92.264	160.3749
41.799999	92.189	160.0040
42.500000	92.109	159.5058
43.099998	92.050	159.0033
43.700001	92.001	158.4523
44.400002	91.952	157.8061
45.000000	91.918	157.2776
45.500000	91.894	156.8561
46.200001	91.864	156.3031
46.799999	91.841	155.8778
47.500000	91.815	155.4341
48.200001	91.788	155.0316
48.700001	91.761	154.7747
49.400002	91.705	154.4656
50.000000	91.647	154.2234
50.799999	91.563	153.8683
51.500000	91.484	153.5054
52.200001	91.408	153.1096
53.000000	91.336	152.6385
53.799999	91.280	152.1745
54.500000	91.243	151.7905
55.200001	91.214	151.4155
56.000000	91.182	150.9947
57.000000	91.129	150.5451
58.000000	91.056	150.2024
59.000000	90.968	149.8920
60.000000	90.877	149.5570
60.799999	90.807	149.2501
61.500000	90.747	148.9667
62.200001	90.690	148.6917
63.000000	90.630	148.3959
64.000000	90.568	148.0464
65.000000	90.521	147.7131
66.000000	90.478	147.3954
67.000000	90.425	147.1046
68.000000	90.360	146.8455
69.000000	90.278	146.6031
70.000000	90.187	146.3562
71.000000	90.100	146.0944
72.000000	90.021	145.8235
73.000000	89.947	145.5603
74.000000	89.884	145.3228
75.000000	89.830	145.1110
76.199997	89.772	144.8718
77.500000	89.702	144.6153
78.800003	89.619	144.3454
80.000000	89.529	144.0981
81.199997	89.429	143.8825
82.500000	89.327	143.6810
83.800003	89.249	143.4875
85.000000	89.191	143.3045
86.199997	89.131	143.1198
87.500000	89.056	142.9288
88.500000	88.991	142.7932
90.000000	88.885	142.6128
91.199997	88.798	142.4838
92.500000	88.710	142.3505
93.800003	88.635	142.2189
95.000000	88.576	142.1001
96.199997	88.521	141.9904
97.500000	88.457	141.8813
98.800003	88.382	141.7806
100.000000	88.301	141.6971
101.500000	88.198	141.6017
103.000000	88.104	141.5132
104.400002	88.032	141.4347
106.000000	87.961	141.3484
107.500000	87.889	141.2723
109.000000	87.805	141.2025
110.599998	87.704	141.1410
112.000000	87.617	141.1008
113.800003	87.522	141.0673
115.000000	87.470	141.0540
117.199997	87.378	141.0439
118.000000	87.340	141.0411
120.599998	87.196	141.0248
122.000000	87.117	141.0235
124.099998	87.017	141.0488
125.000000	86.980	141.0691
126.500000	86.923	141.1100
128.000000	86.862	141.1530
131.500000	86.693	141.2412
132.000000	86.670	141.2525
134.000000	86.591	141.2944
136.000000	86.529	141.3282
138.000000	86.461	141.3538
140.000000	86.373	141.3776
143.000000	86.235	141.4279
145.000000	86.161	141.4808
147.500000	86.074	141.5663
150.000000	85.968	141.6646
152.500000	85.860	141.7773
155.000000	85.778	141.9010
157.500000	85.709	142.0267
160.000000	85.628	142.1483
162.500000	85.544	142.2668
165.000000	85.473	142.3853
167.500000	85.413	142.4980
170.000000	85.340	142.6044
172.500000	85.255	142.7114
175.000000	85.179	142.8227
177.500000	85.106	142.9398
180.000000	85.017	143.0671
182.500000	84.910	143.2079
185.000000	84.797	143.3613
187.500000	84.688	143.5267
190.000000	84.585	143.7037
192.500000	84.498	143.8885
195.000000	84.434	144.0792
197.500000	84.382	144.2729
200.000000	84.325	144.4641
203.000000	84.253	144.6895
206.000000	84.188	144.9122
209.000000	84.122	145.1380
212.000000	84.048	145.3714
214.000000	84.000	145.5275
218.000000	83.910	145.8352
220.000000	83.860	145.9909
224.000000	83.759	146.3149
227.000000	83.692	146.5720
230.000000	83.626	146.8376
233.000000	83.557	147.1037
236.000000	83.495	147.3666
240.000000	83.417	147.7222
243.000000	83.360	147.9932
247.000000	83.294	148.3491
250.000000	83.242	148.6143
254.000000	83.164	148.9701
258.000000	83.087	149.3229
262.000000	83.015	149.6688
265.000000	82.965	149.9228
269.000000	82.901	150.2554
272.000000	82.851	150.5040
276.000000	82.785	150.8359
280.000000	82.722	151.1634
285.000000	82.649	151.5632
290.000000	82.580	151.9609
295.000000	82.508	152.3606
300.000000	82.433	152.7558
304.000000	82.371	153.0753
307.000000	82.327	153.3174
311.000000	82.271	153.6422
315.000000	82.218	153.9657
320.000000	82.158	154.3661
325.000000	82.097	154.7690
330.000000	82.034	155.1765
335.000000	81.972	155.5843
340.000000	81.915	155.9918
345.000000	81.864	156.4003
350.000000	81.811	156.8123
355.000000	81.752	157.2226
360.000000	81.695	157.6306
365.000000	81.639	158.0431
370.000000	81.584	158.4617
375.000000	81.530	158.8833
382.000000	81.459	159.4741
387.000000	81.409	159.9005
395.000000	81.338	160.5930
400.000000	81.296	161.0320
406.000000	81.248	161.5649
412.000000	81.198	162.1042
418.000000	81.152	162.6479
425.000000	81.109	163.2840
431.000000	81.077	163.8229
437.000000	81.048	164.3370
444.000000	81.014	164.8907
450.000000	80.987	165.3275
455.000000	80.966	165.6724
462.000000	80.935	166.1417
468.000000	80.904	166.5447
475.000000	80.868	167.0265
482.000000	80.832	167.5178
487.000000	80.804	167.8718
494.000000	80.764	168.3730
500.000000	80.733	168.8093
508.000000	80.695	169.3965
515.000000	80.660	169.9089
522.000000	80.626	170.4213
530.000000	80.596	171.0101
538.000000	80.569	171.5986
545.000000	80.540	172.1163
552.000000	80.505	172.6340
560.000000	80.469	173.2206
570.000000	80.440	173.9561
580.000000	80.414	174.6959
590.000000	80.378	175.4312
600.000000	80.340	176.1662
608.000000	80.317	176.7533
615.000000	80.303	177.2668
622.000000	80.291	177.7819
630.000000	80.277	178.3674
640.000000	80.260	179.0928
650.000000	80.244	179.8198
660.000000	80.230	-179.4530
670.000000	80.219	-178.7275
680.000000	80.211	-178.0050
690.000000	80.202	-177.2833
700.000000	80.192	-176.5590
710.000000	80.185	-175.8368
720.000000	80.184	-175.1203
730.000000	80.187	-174.4063
740.000000	80.194	-173.6943
750.000000	80.201	-172.9842
762.000000	80.210	-172.1317
775.000000	80.224	-171.2160
788.000000	80.243	-170.3095
800.000000	80.265	-169.4794
812.000000	80.287	-168.6546
825.000000	80.309	-167.7548
838.000000	80.336	-166.8213
850.000000	80.370	-165.9317
862.000000	80.415	-165.0840
875.000000	80.475	-164.2660
885.000000	80.522	-163.6805
900.000000	80.589	-162.8282
912.000000	80.641	-162.1602
925.000000	80.702	-161.4480
938.000000	80.769	-160.7507
950.000000	80.832	-160.1265
962.000000	80.896	-159.5243
975.000000	80.967	-158.9009
988.000000	81.041	-158.3119
1000.000000	81.111	-157.7991
1015.000000	81.204	-157.1950
1030.000000	81.299	-156.6299
1044.000000	81.387	-156.1401
1060.000000	81.483	-155.6265
1075.000000	81.573	-155.1857
1090.000000	81.665	-154.7898
1106.000000	81.767	-154.4127
1120.000000	81.856	-154.1139
1138.000000	81.969	-153.7746
1150.000000	82.041	-153.5741
1172.000000	82.163	-153.2550
1180.000000	82.204	-153.1538
1206.000000	82.320	-152.8657
1220.000000	82.369	-152.7331
1241.000000	82.432	-152.5607
1250.000000	82.459	-152.4950
1265.000000	82.517	-152.3962
1280.000000	82.601	-152.3093
1315.000000	82.877	-152.1315
1320.000000	82.918	-152.1080
1340.000000	83.074	-152.0188
1360.000000	83.209	-151.9346
1380.000000	83.312	-151.8509
1400.000000	83.386	-151.7683
1430.000000	83.473	-151.6520
1450.000000	83.525	-151.5747
1475.000000	83.595	-151.4742
1500.000000	83.669	-151.3722
1525.000000	83.737	-151.2676
1550.000000	83.801	-151.1631
1575.000000	83.867	-151.0579
1600.000000	83.933	-150.9531
1625.000000	83.999	-150.8521
1650.000000	84.064	-150.7531
1675.000000	84.126	-150.6561
1700.000000	84.190	-150.5577
1725.000000	84.256	-150.4622
1750.000000	84.322	-150.3729
1775.000000	84.382	-150.2913
1800.000000	84.441	-150.2162
1825.000000	84.500	-150.1441
1850.000000	84.559	-150.0751
1875.000000	84.618	-150.0128
1900.000000	84.675	-149.9551
1925.000000	84.732	-149.9019
1950.000000	84.787	-149.8544
1975.000000	84.841	-149.8106
2000.000000	84.894	-149.7728
2030.000000	84.957	-149.7355
2060.000000	85.018	-149.7035
2090.000000	85.076	-149.6744
2120.000000	85.131	-149.6509
2140.000000	85.166	-149.6383
2180.000000	85.235	-149.6192
2200.000000	85.267	-149.6117
2240.000000	85.329	-149.5998
2270.000000	85.373	-149.5906
2300.000000	85.413	-149.5800
2330.000000	85.451	-149.5702
2360.000000	85.490	-149.5609
2400.000000	85.542	-149.5476
2430.000000	85.579	-149.5357
2470.000000	85.626	-149.5161
2500.000000	85.659	-149.4958
2540.000000	85.700	-149.4617
2580.000000	85.736	-149.4205
2620.000000	85.765	-149.3698
2650.000000	85.787	-149.3255
2690.000000	85.817	-149.2534
2720.000000	85.838	-149.1871
2760.000000	85.864	-149.0822
2800.000000	85.887	-148.9589
2850.000000	85.915	-148.7768
2900.000000	85.941	-148.5560
2950.000000	85.965	-148.2683
3000.000000	85.992	-147.8730
3040.000000	86.022	-147.4637
3070.000000	86.054	-147.1161
3110.000000	86.114	-146.6527
3150.000000	86.194	-146.2670
3200.000000	86.307	-145.9656
3250.000000	86.415	-145.8307
3300.000000	86.507	-145.7732
3350.000000	86.591	-145.7262
3400.000000	86.672	-145.6622
3450.000000	86.754	-145.5798
3500.000000	86.838	-145.4901
3550.000000	86.924	-145.4024
3600.000000	87.015	-145.3244
3650.000000	87.108	-145.2625
3700.000000	87.203	-145.2267
3750.000000	87.300	-145.2263
3820.000000	87.440	-145.2978
3870.000000	87.544	-145.4077
3950.000000	87.727	-145.7007
4000.000000	87.849	-145.9670
4060.000000	87.995	-146.3783
4120.000000	88.130	-146.9030
4180.000000	88.249	-147.5557
4250.000000	88.364	-148.4881
4310.000000	88.447	-149.4341
4370.000000	88.521	-150.5070
4440.000000	88.607	-151.8927
4500.000000	88.680	-153.1701
4550.000000	88.737	-154.2947
4620.000000	88.806	-155.9796
4680.000000	88.849	-157.5424
4750.000000	88.867	-159.4987
4820.000000	88.840	-161.5605
4870.000000	88.790	-163.0638
4940.000000	88.678	-165.1538
5000.000000	88.541	-166.8821
5080.000000	88.299	-169.0215
5150.000000	88.040	-170.6707
5220.000000	87.741	-172.0448
5300.000000	87.356	-173.1893
5380.000000	86.943	-173.7860
5450.000000	86.586	-173.8403
5520.000000	86.259	-173.5347
5600.000000	85.935	-172.9315
5700.000000	85.579	-172.0504
5800.000000	85.266	-170.9884
5900.000000	85.051	-170.0528
6000.000000	84.842	-169.8348
6080.000000	84.616	-169.7428
6150.000000	84.390	-169.4225
6220.000000	84.158	-168.7952
6300.000000	83.903	-167.7537
6400.000000	83.619	-166.1315
6500.000000	83.383	-164.3000
6600.000000	83.188	-162.3216
6700.000000	83.032	-160.1904
6800.000000	82.927	-157.9007
6900.000000	82.883	-155.4940
7000.000000	82.901	-153.0435
7100.000000	82.976	-150.6100
7200.000000	83.116	-148.2223
7300.000000	83.335	-145.8898
7400.000000	83.641	-143.6351
7500.000000	84.031	-141.5295
7620.000000	84.610	-139.3749
7750.000000	85.364	-137.8032
7880.000000	86.218	-137.4715
8000.000000	87.086	-138.8555
8120.000000	88.002	-142.6580
8250.000000	88.902	-150.5124
8380.000000	89.434	-162.6785
8500.000000	89.369	-176.4757
8620.000000	88.696	170.0924
8750.000000	87.420	158.9727
8850.000000	86.229	153.4772
9000.000000	84.387	149.2009
9120.000000	82.979	148.1304
9250.000000	81.576	148.5478
9380.000000	80.329	150.0789
9500.000000	79.309	152.1445
9620.000000	78.403	154.6253
9750.000000	77.545	157.6192
9880.000000	76.801	160.8073
10000.000000	76.205	163.8450
10150.000000	75.586	167.6843
10300.000000	75.114	171.4711
10440.000000	74.797	174.8736
10600.000000	74.548	178.5115
10750.000000	74.418	-178.4332
10900.000000	74.410	-175.8600
11060.000000	74.548	-173.8401
11200.000000	74.786	-172.8954
11380.000000	75.217	-173.2096
11500.000000	75.548	-174.6662
11720.000000	76.109	179.3745
11800.000000	76.247	176.0673
12060.000000	76.158	162.0058
12200.000000	75.679	153.5900
12410.000000	74.424	142.3331
12500.000000	73.739	138.4758
12650.000000	72.486	133.5311
12800.000000	71.197	130.2729
13150.000000	68.499	127.2192
13200.000000	68.160	127.1232
13400.000000	66.907	127.2056
13600.000000	65.835	127.7063
13800.000000	64.994	128.3209
14000.000000	64.438	128.8235
14300.000000	64.204	128.8062
14500.000000	64.453	127.6704
14750.000000	65.137	123.7646
15000.000000	65.951	114.8864
15250.000000	66.037	100.0867
15500.000000	64.536	92.0287
15750.000000	64.037	99.1506
16000.000000	65.605	96.4537
16250.000000	66.304	83.4965
16500.000000	66.114	71.7679
16750.000000	65.577	63.8320
17000.000000	65.027	58.9517
17250.000000	64.630	55.8622
17500.000000	64.425	53.4351
17750.000000	64.324	50.5690
18000.000000	64.148	46.6232
18250.000000	63.659	42.3018
18500.000000	62.737	40.3383
18750.000000	61.751	43.2693
19000.000000	61.490	49.2421
19250.000000	62.098	52.9763
19500.000000	62.763	51.4005
19750.000000	62.874	46.2534
20000.000000	62.652	42.3868
