* Measurement data measured by REW V5.20.7
* Source: 마이크(Realtek High Definition Audi, MICROPHONE (마스), L, volume: no control
* Format: 128k Log Swept Sine, 1 sweep at -12.0 dBFS with no timing reference
* Dated: May 8, 2023 4:52:45 PM
* REW Settings:
*  C-weighting compensation: Off
*  Target level: 75.0 dB
* Note: ; 
* Measurement: KZ D-Fi R (1000)
* Smoothing: 1/24 octave
* Frequency Step: 1/48 octave
* Start Frequency: 20.300 Hz
*
* Freq(Hz)	SPL(dB)	Phase(degrees)
20.299999	78.855	-153.7959
20.600000	78.867	-154.0103
20.900000	78.889	-154.4371
21.200001	78.900	-154.9564
21.400000	78.897	-155.3371
21.799999	78.867	-156.1120
22.000000	78.842	-156.4664
22.400000	78.784	-157.0400
22.700001	78.750	-157.3639
23.000000	78.734	-157.6617
23.299999	78.738	-158.0132
23.600000	78.755	-158.4683
24.000000	78.785	-159.2613
24.299999	78.802	-159.9605
24.700001	78.808	-160.9452
25.000000	78.800	-161.6606
25.400000	78.779	-162.5252
25.799999	78.751	-163.2499
26.200001	78.725	-163.8177
26.500000	78.711	-164.1473
26.900000	78.706	-164.4955
27.200001	78.712	-164.7355
27.600000	78.732	-165.0942
28.000000	78.752	-165.5403
28.500000	78.760	-166.1841
29.000000	78.741	-166.7942
29.500000	78.709	-167.2882
30.000000	78.680	-167.7054
30.400000	78.660	-168.0443
30.700001	78.645	-168.3161
31.100000	78.622	-168.6913
31.500000	78.597	-169.0596
32.000000	78.566	-169.4975
32.500000	78.545	-169.9397
33.000000	78.530	-170.4281
33.500000	78.518	-170.9637
34.000000	78.506	-171.5055
34.500000	78.494	-172.0125
35.000000	78.485	-172.4768
35.500000	78.480	-172.9154
36.000000	78.477	-173.3396
36.500000	78.471	-173.7408
37.000000	78.463	-174.1060
37.500000	78.455	-174.4402
38.200001	78.440	-174.8931
38.700001	78.422	-175.2155
39.500000	78.383	-175.6949
40.000000	78.358	-175.9698
40.599998	78.329	-176.3027
41.200001	78.300	-176.6581
41.799999	78.272	-177.0275
42.500000	78.240	-177.4618
43.099998	78.216	-177.8380
43.700001	78.195	-178.2173
44.400002	78.171	-178.6514
45.000000	78.150	-179.0015
45.500000	78.134	-179.2710
46.200001	78.114	-179.6200
46.799999	78.098	-179.9110
47.500000	78.078	179.7447
48.200001	78.053	179.4108
48.700001	78.032	179.1930
49.400002	78.004	178.9182
50.000000	77.982	178.6887
50.799999	77.955	178.3535
51.500000	77.929	178.0359
52.200001	77.901	177.7263
53.000000	77.871	177.3935
53.799999	77.844	177.0659
54.500000	77.820	176.7853
55.200001	77.795	176.5187
56.000000	77.768	176.2222
57.000000	77.731	175.8628
58.000000	77.692	175.5466
59.000000	77.657	175.2297
60.000000	77.618	174.8898
60.799999	77.584	174.6418
61.500000	77.556	174.4354
62.200001	77.529	174.2231
63.000000	77.495	173.9894
64.000000	77.453	173.7396
65.000000	77.416	173.5070
66.000000	77.380	173.2747
67.000000	77.345	173.0577
68.000000	77.314	172.8314
69.000000	77.283	172.5938
70.000000	77.252	172.3722
71.000000	77.225	172.1490
72.000000	77.198	171.9038
73.000000	77.168	171.6589
74.000000	77.135	171.4296
75.000000	77.101	171.2141
76.199997	77.059	170.9743
77.500000	77.012	170.7176
78.800003	76.963	170.4667
80.000000	76.916	170.2509
81.199997	76.871	170.0380
82.500000	76.820	169.8229
83.800003	76.771	169.6241
85.000000	76.727	169.4416
86.199997	76.680	169.2699
87.500000	76.630	169.0963
88.500000	76.590	168.9520
90.000000	76.523	168.7549
91.199997	76.468	168.6343
92.500000	76.406	168.5327
93.800003	76.342	168.5067
95.000000	76.286	168.5667
96.199997	76.240	168.6889
97.500000	76.205	168.8491
98.800003	76.188	168.9504
100.000000	76.175	168.9280
101.500000	76.145	168.8177
103.000000	76.102	168.7308
104.400002	76.053	168.7407
106.000000	76.001	168.9308
107.500000	75.977	169.2509
109.000000	75.987	169.5671
110.599998	76.029	169.7152
112.000000	76.072	169.5909
113.800003	76.102	169.1746
115.000000	76.102	168.8388
117.199997	76.070	168.2343
118.000000	76.050	168.0460
120.599998	75.978	167.5753
122.000000	75.937	167.3714
124.099998	75.873	167.1305
125.000000	75.847	167.0380
126.500000	75.802	166.8913
128.000000	75.756	166.7728
131.500000	75.659	166.5646
132.000000	75.646	166.5401
134.000000	75.593	166.4514
136.000000	75.539	166.3762
138.000000	75.487	166.3148
140.000000	75.438	166.2602
143.000000	75.364	166.2009
145.000000	75.314	166.1780
147.500000	75.254	166.1615
150.000000	75.197	166.1469
152.500000	75.141	166.1353
155.000000	75.087	166.1238
157.500000	75.031	166.1263
160.000000	74.977	166.1358
162.500000	74.924	166.1425
165.000000	74.872	166.1655
167.500000	74.822	166.1966
170.000000	74.772	166.2233
172.500000	74.723	166.2535
175.000000	74.677	166.2855
177.500000	74.630	166.3228
180.000000	74.585	166.3712
182.500000	74.540	166.4291
185.000000	74.496	166.4952
187.500000	74.451	166.5672
190.000000	74.406	166.6413
192.500000	74.360	166.7212
195.000000	74.313	166.8159
197.500000	74.267	166.9212
200.000000	74.223	167.0369
203.000000	74.173	167.1989
206.000000	74.129	167.3808
209.000000	74.091	167.5531
212.000000	74.055	167.6814
214.000000	74.031	167.7427
218.000000	73.978	167.8469
220.000000	73.948	167.9039
224.000000	73.886	168.0345
227.000000	73.839	168.1425
230.000000	73.793	168.2601
233.000000	73.748	168.3910
236.000000	73.704	168.5312
240.000000	73.646	168.7216
243.000000	73.604	168.8604
247.000000	73.552	169.0513
250.000000	73.515	169.1989
254.000000	73.466	169.3951
258.000000	73.418	169.5994
262.000000	73.372	169.8187
265.000000	73.339	169.9874
269.000000	73.294	170.2151
272.000000	73.261	170.3926
276.000000	73.219	170.6286
280.000000	73.178	170.8610
285.000000	73.128	171.1593
290.000000	73.079	171.4489
295.000000	73.032	171.7321
300.000000	72.988	172.0252
304.000000	72.953	172.2639
307.000000	72.927	172.4397
311.000000	72.894	172.6718
315.000000	72.861	172.9102
320.000000	72.821	173.2175
325.000000	72.781	173.5282
330.000000	72.743	173.8393
335.000000	72.706	174.1572
340.000000	72.669	174.4792
345.000000	72.632	174.7995
350.000000	72.596	175.1221
355.000000	72.560	175.4440
360.000000	72.525	175.7556
365.000000	72.492	176.0655
370.000000	72.460	176.3802
375.000000	72.429	176.6933
382.000000	72.388	177.1381
387.000000	72.360	177.4596
395.000000	72.317	177.9850
400.000000	72.290	178.3091
406.000000	72.259	178.6873
412.000000	72.229	179.0700
418.000000	72.201	179.4652
425.000000	72.168	179.9160
431.000000	72.142	-179.6997
437.000000	72.118	-179.3103
444.000000	72.093	-178.8555
450.000000	72.070	-178.4725
455.000000	72.052	-178.1564
462.000000	72.029	-177.7085
468.000000	72.011	-177.3203
475.000000	71.990	-176.8695
482.000000	71.970	-176.4193
487.000000	71.957	-176.0941
494.000000	71.940	-175.6419
500.000000	71.925	-175.2594
508.000000	71.907	-174.7550
515.000000	71.893	-174.3053
522.000000	71.879	-173.8431
530.000000	71.864	-173.3125
538.000000	71.849	-172.7829
545.000000	71.834	-172.3309
552.000000	71.820	-171.8840
560.000000	71.807	-171.3685
570.000000	71.792	-170.7283
580.000000	71.777	-170.0816
590.000000	71.765	-169.4338
600.000000	71.754	-168.7910
608.000000	71.747	-168.2738
615.000000	71.743	-167.8187
622.000000	71.740	-167.3690
630.000000	71.737	-166.8604
640.000000	71.735	-166.2173
650.000000	71.738	-165.5845
660.000000	71.743	-164.9731
670.000000	71.747	-164.3752
680.000000	71.753	-163.7888
690.000000	71.759	-163.2685
700.000000	71.750	-162.7520
710.000000	71.735	-162.1290
720.000000	71.731	-161.4729
730.000000	71.722	-160.8281
740.000000	71.707	-160.0815
750.000000	71.708	-159.2123
762.000000	71.737	-158.1875
775.000000	71.780	-157.1910
788.000000	71.821	-156.2604
800.000000	71.857	-155.4236
812.000000	71.893	-154.6024
825.000000	71.932	-153.7341
838.000000	71.975	-152.8720
850.000000	72.018	-152.0926
862.000000	72.063	-151.3388
875.000000	72.117	-150.5376
885.000000	72.161	-149.9235
900.000000	72.230	-149.0022
912.000000	72.288	-148.2855
925.000000	72.355	-147.5388
938.000000	72.428	-146.8116
950.000000	72.496	-146.1520
962.000000	72.565	-145.5103
975.000000	72.642	-144.8388
988.000000	72.722	-144.1916
1000.000000	72.798	-143.6202
1015.000000	72.894	-142.9456
1030.000000	72.993	-142.3106
1044.000000	73.086	-141.7542
1060.000000	73.192	-141.1599
1075.000000	73.287	-140.6412
1090.000000	73.377	-140.1595
1106.000000	73.473	-139.6806
1120.000000	73.559	-139.2881
1138.000000	73.669	-138.8272
1150.000000	73.741	-138.5471
1172.000000	73.869	-138.0840
1180.000000	73.914	-137.9288
1206.000000	74.064	-137.4534
1220.000000	74.150	-137.2168
1241.000000	74.285	-136.8954
1250.000000	74.343	-136.7681
1265.000000	74.439	-136.5646
1280.000000	74.534	-136.3714
1315.000000	74.745	-135.9577
1320.000000	74.775	-135.8994
1340.000000	74.892	-135.6725
1360.000000	75.010	-135.4592
1380.000000	75.131	-135.2570
1400.000000	75.252	-135.0553
1430.000000	75.429	-134.7506
1450.000000	75.545	-134.5478
1475.000000	75.688	-134.3010
1500.000000	75.827	-134.0631
1525.000000	75.962	-133.8265
1550.000000	76.087	-133.5959
1575.000000	76.206	-133.3773
1600.000000	76.324	-133.1591
1625.000000	76.442	-132.9480
1650.000000	76.558	-132.7475
1675.000000	76.673	-132.5498
1700.000000	76.786	-132.3517
1725.000000	76.898	-132.1515
1750.000000	77.009	-131.9401
1775.000000	77.115	-131.7044
1800.000000	77.215	-131.4223
1825.000000	77.313	-131.0506
1850.000000	77.412	-130.5361
1875.000000	77.527	-129.8353
1900.000000	77.681	-128.9628
1925.000000	77.895	-128.0679
1950.000000	78.171	-127.4074
1975.000000	78.479	-127.2014
2000.000000	78.775	-127.4804
2030.000000	79.075	-128.2277
2060.000000	79.314	-129.1187
2090.000000	79.514	-129.9749
2120.000000	79.690	-130.7529
2140.000000	79.802	-131.2341
2180.000000	80.014	-132.1426
2200.000000	80.117	-132.5853
2240.000000	80.317	-133.4719
2270.000000	80.464	-134.1507
2300.000000	80.607	-134.8508
2330.000000	80.746	-135.5790
2360.000000	80.882	-136.3362
2400.000000	81.058	-137.3928
2430.000000	81.184	-138.2221
2470.000000	81.345	-139.3737
2500.000000	81.459	-140.2718
2540.000000	81.602	-141.5152
2580.000000	81.733	-142.8095
2620.000000	81.850	-144.1512
2650.000000	81.927	-145.1798
2690.000000	82.016	-146.5724
2720.000000	82.073	-147.6272
2760.000000	82.135	-149.0385
2800.000000	82.183	-150.4490
2850.000000	82.221	-152.2003
2900.000000	82.236	-153.9265
2950.000000	82.228	-155.6039
3000.000000	82.196	-157.2173
3040.000000	82.153	-158.4484
3070.000000	82.108	-159.3206
3110.000000	82.034	-160.3796
3150.000000	81.944	-161.2707
3200.000000	81.822	-162.0654
3250.000000	81.715	-162.4400
3300.000000	81.667	-162.5257
3350.000000	81.691	-162.6951
3400.000000	81.749	-163.2437
3450.000000	81.794	-164.1615
3500.000000	81.804	-165.2637
3550.000000	81.783	-166.3806
3600.000000	81.742	-167.4439
3650.000000	81.687	-168.4383
3700.000000	81.623	-169.3558
3750.000000	81.553	-170.2054
3820.000000	81.450	-171.3023
3870.000000	81.378	-172.0313
3950.000000	81.266	-173.1360
4000.000000	81.195	-173.8010
4060.000000	81.107	-174.5692
4120.000000	81.016	-175.3107
4180.000000	80.922	-176.0337
4250.000000	80.807	-176.8506
4310.000000	80.704	-177.5263
4370.000000	80.596	-178.1827
4440.000000	80.465	-178.9257
4500.000000	80.346	-179.5456
4550.000000	80.242	179.9493
4620.000000	80.088	179.2675
4680.000000	79.948	178.7216
4750.000000	79.774	178.1393
4820.000000	79.588	177.6199
4870.000000	79.446	177.2940
4940.000000	79.235	176.9059
5000.000000	79.045	176.6421
5080.000000	78.785	176.4006
5150.000000	78.553	176.2982
5220.000000	78.318	176.2942
5300.000000	78.047	176.4030
5380.000000	77.773	176.6406
5450.000000	77.528	176.9673
5520.000000	77.278	177.4209
5600.000000	76.992	178.1076
5700.000000	76.649	179.2094
5800.000000	76.332	-179.4610
5900.000000	76.044	-177.9584
6000.000000	75.787	-176.3080
6080.000000	75.602	-174.8924
6150.000000	75.457	-173.5927
6220.000000	75.328	-172.2426
6300.000000	75.201	-170.6463
6400.000000	75.075	-168.5810
6500.000000	74.987	-166.4454
6600.000000	74.938	-164.2612
6700.000000	74.932	-162.0566
6800.000000	74.973	-159.8585
6900.000000	75.068	-157.6880
7000.000000	75.220	-155.5605
7100.000000	75.430	-153.4988
7200.000000	75.706	-151.5504
7300.000000	76.057	-149.8030
7400.000000	76.490	-148.3720
7500.000000	77.008	-147.4087
7620.000000	77.741	-147.1637
7750.000000	78.631	-148.5689
7880.000000	79.526	-152.4396
8000.000000	80.201	-158.6674
8120.000000	80.544	-167.1117
8250.000000	80.410	-177.1730
8380.000000	79.785	173.9143
8500.000000	78.933	167.7473
8620.000000	77.975	163.4756
8750.000000	76.917	160.3504
8850.000000	76.094	158.6805
9000.000000	74.798	157.7418
9120.000000	73.817	158.7600
9250.000000	72.978	160.4562
9380.000000	72.278	161.9183
9500.000000	71.672	163.1487
9620.000000	71.070	164.4435
9750.000000	70.424	166.2103
9880.000000	69.823	168.3992
10000.000000	69.324	170.6346
10150.000000	68.763	173.5900
10300.000000	68.262	176.7434
10440.000000	67.850	179.8595
10600.000000	67.453	-176.4277
10750.000000	67.156	-172.8615
10900.000000	66.931	-169.2802
11060.000000	66.770	-165.4904
11200.000000	66.696	-162.2522
11380.000000	66.690	-158.2995
11500.000000	66.742	-155.8164
11720.000000	66.958	-151.6748
11800.000000	67.077	-150.3500
12060.000000	67.601	-146.9221
12200.000000	67.970	-145.7304
12410.000000	68.623	-144.9895
12500.000000	68.926	-145.1037
12650.000000	69.433	-145.9226
12800.000000	69.913	-147.4710
13150.000000	70.927	-153.0377
13200.000000	71.071	-154.0917
13400.000000	71.605	-159.4361
13600.000000	71.933	-166.5147
13800.000000	71.973	-174.1616
14000.000000	71.756	178.9620
14300.000000	71.164	171.3422
14500.000000	70.775	167.8976
14750.000000	70.461	164.5830
15000.000000	70.391	161.1959
15250.000000	70.532	156.5444
15500.000000	70.763	149.4200
15750.000000	70.820	138.8961
16000.000000	70.326	125.6637
16250.000000	68.965	113.7961
16500.000000	66.942	109.4457
16750.000000	65.524	110.8378
17000.000000	64.977	109.2825
17250.000000	64.258	105.9901
17500.000000	63.366	104.6404
17750.000000	62.770	104.6945
18000.000000	62.754	103.8921
18250.000000	63.208	100.4009
18500.000000	63.845	92.8989
18750.000000	64.396	80.8804
19000.000000	64.656	65.2370
19250.000000	64.525	47.1720
19500.000000	63.968	28.2921
19750.000000	63.091	11.5247
20000.000000	62.429	2.0629
