* Measurement data measured by REW V5.20.5
* Source: 마이크(7- USB Sound Device       , MICROPHONE (마스), L, volume: 0.560
* Format: 128k Log Swept Sine, 2 sweeps at -15.0 dBFS with no timing reference
* Dated: 2022. 4. 19 오후 8:57:19
* REW Settings:
*  C-weighting compensation: Off
*  Target level: 75.0 dB
* Note: 
* Measurement: L
* Smoothing: 1/24 octave
* Frequency Step: 1/48 octave
* Start Frequency: 20.300 Hz
*
* Freq(Hz)	SPL(dB)	Phase(degrees)
20.299999	115.731	17.7403
20.600000	115.737	17.6210
20.900000	115.745	17.4065
21.200001	115.748	17.1961
21.400000	115.747	17.0513
21.799999	115.740	16.7311
22.000000	115.736	16.5502
22.400000	115.726	16.1507
22.700001	115.718	15.8237
23.000000	115.712	15.4771
23.299999	115.708	15.1147
23.600000	115.707	14.7399
24.000000	115.712	14.2281
24.299999	115.718	13.8428
24.700001	115.732	13.3388
25.000000	115.746	12.9761
25.400000	115.769	12.5206
25.799999	115.796	12.1010
26.200001	115.825	11.7173
26.500000	115.848	11.4522
26.900000	115.878	11.1288
27.200001	115.898	10.9087
27.600000	115.922	10.6449
28.000000	115.943	10.4112
28.500000	115.963	10.1498
29.000000	115.976	9.9037
29.500000	115.983	9.6575
30.000000	115.984	9.4025
30.400000	115.981	9.1894
30.700001	115.978	9.0227
31.100000	115.973	8.7876
31.500000	115.968	8.5345
32.000000	115.964	8.1906
32.500000	115.962	7.8216
33.000000	115.961	7.4404
33.500000	115.964	7.0596
34.000000	115.969	6.6886
34.500000	115.979	6.3333
35.000000	115.990	5.9979
35.500000	116.002	5.6863
36.000000	116.014	5.4004
36.500000	116.025	5.1389
37.000000	116.034	4.8977
37.500000	116.040	4.6709
38.200001	116.044	4.3654
38.700001	116.044	4.1475
39.500000	116.038	3.7861
40.000000	116.032	3.5489
40.599998	116.025	3.2523
41.200001	116.018	2.9430
41.799999	116.013	2.6229
42.500000	116.009	2.2432
43.099998	116.007	1.9231
43.700001	116.008	1.6159
44.400002	116.010	1.2763
45.000000	116.011	1.0021
45.500000	116.012	0.7873
46.200001	116.011	0.5051
46.799999	116.009	0.2722
47.500000	116.003	0.0008
48.200001	115.995	-0.2704
48.700001	115.988	-0.4646
49.400002	115.977	-0.7432
50.000000	115.967	-0.9894
50.799999	115.955	-1.3156
51.500000	115.946	-1.5941
52.200001	115.940	-1.8750
53.000000	115.933	-2.1971
53.799999	115.925	-2.5026
54.500000	115.918	-2.7546
55.200001	115.910	-2.9994
56.000000	115.899	-3.2694
57.000000	115.883	-3.5911
58.000000	115.867	-3.9121
59.000000	115.850	-4.2411
60.000000	115.833	-4.5751
60.799999	115.819	-4.8409
61.500000	115.807	-5.0657
62.200001	115.795	-5.2817
63.000000	115.781	-5.5220
64.000000	115.763	-5.8157
65.000000	115.744	-6.1015
66.000000	115.724	-6.3821
67.000000	115.703	-6.6553
68.000000	115.683	-6.9283
69.000000	115.663	-7.2026
70.000000	115.642	-7.4694
71.000000	115.621	-7.7305
72.000000	115.600	-7.9880
73.000000	115.579	-8.2417
74.000000	115.556	-8.4870
75.000000	115.534	-8.7215
76.199997	115.507	-8.9966
77.500000	115.479	-9.2880
78.800003	115.450	-9.5699
80.000000	115.422	-9.8283
81.199997	115.393	-10.0798
82.500000	115.362	-10.3403
83.800003	115.331	-10.5953
85.000000	115.303	-10.8288
86.199997	115.274	-11.0579
87.500000	115.243	-11.2954
88.500000	115.219	-11.4724
90.000000	115.183	-11.7323
91.199997	115.154	-11.9302
92.500000	115.122	-12.1394
93.800003	115.091	-12.3487
95.000000	115.060	-12.5390
96.199997	115.030	-12.7183
97.500000	114.997	-12.9064
98.800003	114.965	-13.0969
100.000000	114.935	-13.2665
101.500000	114.898	-13.4681
103.000000	114.861	-13.6589
104.400002	114.827	-13.8340
106.000000	114.786	-14.0343
107.500000	114.748	-14.2119
109.000000	114.710	-14.3806
110.599998	114.672	-14.5541
112.000000	114.638	-14.7020
113.800003	114.594	-14.8845
115.000000	114.564	-14.9981
117.199997	114.510	-15.1986
118.000000	114.490	-15.2742
120.599998	114.425	-15.5063
122.000000	114.390	-15.6165
124.099998	114.341	-15.7796
125.000000	114.319	-15.8477
126.500000	114.284	-15.9568
128.000000	114.249	-16.0616
131.500000	114.165	-16.2938
132.000000	114.153	-16.3253
134.000000	114.105	-16.4431
136.000000	114.059	-16.5542
138.000000	114.013	-16.6601
140.000000	113.967	-16.7652
143.000000	113.897	-16.9129
145.000000	113.851	-16.9939
147.500000	113.797	-17.0796
150.000000	113.744	-17.1559
152.500000	113.691	-17.2287
155.000000	113.636	-17.3042
157.500000	113.580	-17.3726
160.000000	113.526	-17.4314
162.500000	113.474	-17.4822
165.000000	113.422	-17.5184
167.500000	113.371	-17.5438
170.000000	113.319	-17.5657
172.500000	113.269	-17.5848
175.000000	113.219	-17.6035
177.500000	113.170	-17.6201
180.000000	113.121	-17.6281
182.500000	113.074	-17.6281
185.000000	113.027	-17.6234
187.500000	112.979	-17.6125
190.000000	112.932	-17.5944
192.500000	112.887	-17.5735
195.000000	112.842	-17.5492
197.500000	112.797	-17.5191
200.000000	112.752	-17.4872
203.000000	112.699	-17.4443
206.000000	112.647	-17.3942
209.000000	112.596	-17.3359
212.000000	112.546	-17.2782
214.000000	112.513	-17.2355
218.000000	112.448	-17.1388
220.000000	112.416	-17.0920
224.000000	112.352	-16.9956
227.000000	112.305	-16.9092
230.000000	112.259	-16.8181
233.000000	112.213	-16.7352
236.000000	112.167	-16.6483
240.000000	112.107	-16.5073
243.000000	112.065	-16.3973
247.000000	112.009	-16.2542
250.000000	111.967	-16.1438
254.000000	111.911	-15.9936
258.000000	111.858	-15.8309
262.000000	111.805	-15.6519
265.000000	111.766	-15.5193
269.000000	111.716	-15.3442
272.000000	111.679	-15.2043
276.000000	111.631	-15.0101
280.000000	111.582	-14.8136
285.000000	111.521	-14.5588
290.000000	111.466	-14.3007
295.000000	111.412	-14.0307
300.000000	111.360	-13.7416
304.000000	111.319	-13.5033
307.000000	111.290	-13.3213
311.000000	111.255	-13.0746
315.000000	111.222	-12.8272
320.000000	111.183	-12.5286
325.000000	111.147	-12.2331
330.000000	111.113	-11.9486
335.000000	111.082	-11.6765
340.000000	111.052	-11.4162
345.000000	111.025	-11.1739
350.000000	110.998	-10.9508
355.000000	110.971	-10.7455
360.000000	110.942	-10.5555
365.000000	110.912	-10.3696
370.000000	110.880	-10.1821
375.000000	110.848	-9.9874
382.000000	110.801	-9.7033
387.000000	110.766	-9.4929
395.000000	110.712	-9.1489
400.000000	110.680	-8.9275
406.000000	110.640	-8.6486
412.000000	110.601	-8.3645
418.000000	110.564	-8.0781
425.000000	110.521	-7.7334
431.000000	110.486	-7.4355
437.000000	110.451	-7.1337
444.000000	110.412	-6.7764
450.000000	110.379	-6.4661
455.000000	110.353	-6.2079
462.000000	110.317	-5.8456
468.000000	110.287	-5.5277
475.000000	110.254	-5.1503
482.000000	110.221	-4.7776
487.000000	110.199	-4.5142
494.000000	110.168	-4.1405
500.000000	110.144	-3.8153
508.000000	110.112	-3.3748
515.000000	110.084	-2.9877
522.000000	110.058	-2.6047
530.000000	110.027	-2.1631
538.000000	109.998	-1.7201
545.000000	109.974	-1.3263
552.000000	109.952	-0.9274
560.000000	109.928	-0.4763
570.000000	109.901	0.0883
580.000000	109.874	0.6598
590.000000	109.848	1.2425
600.000000	109.825	1.8250
608.000000	109.808	2.2942
615.000000	109.794	2.7067
622.000000	109.781	3.1178
630.000000	109.769	3.5906
640.000000	109.755	4.1914
650.000000	109.742	4.8004
660.000000	109.732	5.4083
670.000000	109.725	6.0167
680.000000	109.720	6.6212
690.000000	109.717	7.2297
700.000000	109.717	7.8380
710.000000	109.719	8.4399
720.000000	109.722	9.0401
730.000000	109.728	9.6407
740.000000	109.736	10.2391
750.000000	109.745	10.8394
762.000000	109.760	11.5670
775.000000	109.780	12.3608
788.000000	109.804	13.1439
800.000000	109.829	13.8608
812.000000	109.859	14.5732
825.000000	109.897	15.3411
838.000000	109.939	16.1061
850.000000	109.980	16.8068
862.000000	110.024	17.4976
875.000000	110.078	18.2263
885.000000	110.124	18.7736
900.000000	110.197	19.5728
912.000000	110.259	20.1901
925.000000	110.329	20.8360
938.000000	110.402	21.4553
950.000000	110.473	22.0019
962.000000	110.548	22.5220
975.000000	110.631	23.0530
988.000000	110.717	23.5523
1000.000000	110.797	23.9851
1015.000000	110.899	24.4866
1030.000000	111.000	24.9483
1044.000000	111.095	25.3372
1060.000000	111.204	25.7297
1075.000000	111.306	26.0552
1090.000000	111.406	26.3428
1106.000000	111.511	26.6109
1120.000000	111.599	26.8127
1138.000000	111.710	27.0379
1150.000000	111.781	27.1683
1172.000000	111.907	27.3659
1180.000000	111.951	27.4260
1206.000000	112.088	27.5878
1220.000000	112.157	27.6627
1241.000000	112.257	27.7649
1250.000000	112.298	27.8043
1265.000000	112.364	27.8647
1280.000000	112.427	27.9205
1315.000000	112.568	28.0510
1320.000000	112.587	28.0693
1340.000000	112.662	28.1443
1360.000000	112.734	28.2268
1380.000000	112.803	28.3136
1400.000000	112.871	28.4070
1430.000000	112.969	28.5623
1450.000000	113.035	28.6749
1475.000000	113.115	28.8196
1500.000000	113.196	28.9706
1525.000000	113.277	29.1322
1550.000000	113.358	29.2985
1575.000000	113.442	29.4657
1600.000000	113.526	29.6333
1625.000000	113.610	29.7947
1650.000000	113.696	29.9513
1675.000000	113.783	30.1069
1700.000000	113.872	30.2559
1725.000000	113.963	30.3897
1750.000000	114.054	30.5173
1775.000000	114.147	30.6433
1800.000000	114.241	30.7619
1825.000000	114.336	30.8697
1850.000000	114.434	30.9653
1875.000000	114.535	31.0450
1900.000000	114.637	31.1034
1925.000000	114.740	31.1406
1950.000000	114.843	31.1576
1975.000000	114.948	31.1512
2000.000000	115.052	31.1179
2030.000000	115.177	31.0472
2060.000000	115.300	30.9547
2090.000000	115.423	30.8492
2120.000000	115.543	30.7335
2140.000000	115.624	30.6539
2180.000000	115.785	30.4937
2200.000000	115.867	30.4123
2240.000000	116.032	30.2433
2270.000000	116.160	30.1037
2300.000000	116.292	29.9436
2330.000000	116.428	29.7582
2360.000000	116.569	29.5433
2400.000000	116.762	29.1925
2430.000000	116.911	28.8719
2470.000000	117.114	28.3526
2500.000000	117.268	27.8912
2540.000000	117.475	27.1835
2580.000000	117.681	26.3656
2620.000000	117.886	25.4296
2650.000000	118.038	24.6484
2690.000000	118.236	23.5000
2720.000000	118.380	22.5563
2760.000000	118.562	21.1872
2800.000000	118.734	19.6933
2850.000000	118.929	17.6585
2900.000000	119.098	15.4514
2950.000000	119.237	13.0905
3000.000000	119.345	10.6060
3040.000000	119.405	8.5542
3070.000000	119.435	6.9900
3110.000000	119.453	4.8891
3150.000000	119.448	2.7900
3200.000000	119.408	0.1967
3250.000000	119.334	-2.3277
3300.000000	119.227	-4.7552
3350.000000	119.093	-7.0642
3400.000000	118.934	-9.2409
3450.000000	118.752	-11.2780
3500.000000	118.551	-13.1691
3550.000000	118.334	-14.9066
3600.000000	118.105	-16.4842
3650.000000	117.865	-17.9014
3700.000000	117.619	-19.1651
3750.000000	117.368	-20.2842
3820.000000	117.014	-21.6208
3870.000000	116.760	-22.4197
3950.000000	116.356	-23.4518
4000.000000	116.105	-23.9539
4060.000000	115.809	-24.4235
4120.000000	115.518	-24.7605
4180.000000	115.233	-24.9806
4250.000000	114.907	-25.1045
4310.000000	114.635	-25.1048
4370.000000	114.369	-25.0206
4440.000000	114.065	-24.8213
4500.000000	113.811	-24.5688
4550.000000	113.602	-24.3036
4620.000000	113.317	-23.8532
4680.000000	113.078	-23.3981
4750.000000	112.807	-22.7868
4820.000000	112.542	-22.0928
4870.000000	112.356	-21.5493
4940.000000	112.103	-20.7239
5000.000000	111.889	-19.9533
5080.000000	111.611	-18.8288
5150.000000	111.375	-17.7560
5220.000000	111.147	-16.5984
5300.000000	110.896	-15.1641
5380.000000	110.658	-13.6098
5450.000000	110.461	-12.1501
5520.000000	110.276	-10.6009
5600.000000	110.082	-8.7272
5700.000000	109.867	-6.2445
5800.000000	109.685	-3.6173
5900.000000	109.541	-0.8691
6000.000000	109.437	1.9837
6080.000000	109.384	4.3211
6150.000000	109.360	6.3959
6220.000000	109.359	8.4947
6300.000000	109.386	10.9157
6400.000000	109.464	13.9423
6500.000000	109.594	16.9497
6600.000000	109.779	19.9232
6700.000000	110.021	22.8209
6800.000000	110.329	25.6043
6900.000000	110.709	28.2270
7000.000000	111.168	30.6116
7100.000000	111.715	32.6478
7200.000000	112.353	34.1668
7300.000000	113.078	34.9491
7400.000000	113.873	34.7494
7500.000000	114.707	33.2930
7620.000000	115.679	29.4993
7750.000000	116.541	22.6213
7880.000000	117.014	13.3852
8000.000000	117.009	4.1274
8120.000000	116.609	-4.2573
8250.000000	115.873	-11.2002
8380.000000	115.002	-15.7183
8500.000000	114.200	-18.1237
8620.000000	113.464	-19.3252
8750.000000	112.773	-19.7621
8850.000000	112.321	-19.7461
9000.000000	111.763	-19.4998
9120.000000	111.406	-19.3332
9250.000000	111.088	-19.3678
9380.000000	110.813	-19.7508
9500.000000	110.574	-20.4822
9620.000000	110.323	-21.5813
9750.000000	110.010	-23.1278
9880.000000	109.630	-24.9108
10000.000000	109.208	-26.5987
10150.000000	108.575	-28.5060
10300.000000	107.835	-29.9143
10440.000000	107.072	-30.6004
10600.000000	106.151	-30.5528
10750.000000	105.275	-29.6873
10900.000000	104.412	-28.0780
11060.000000	103.528	-25.6486
11200.000000	102.800	-23.0089
11380.000000	101.936	-19.0265
11500.000000	101.407	-16.0609
11720.000000	100.544	-10.1094
11800.000000	100.266	-7.8122
12060.000000	99.483	0.0099
12200.000000	99.141	4.3853
12410.000000	98.735	11.1117
12500.000000	98.601	14.0468
12650.000000	98.432	19.0043
12800.000000	98.329	24.0058
13150.000000	98.370	35.6273
13200.000000	98.412	37.2727
13400.000000	98.676	43.7736
13600.000000	99.115	50.0884
13800.000000	99.756	56.1067
14000.000000	100.643	61.7185
14300.000000	102.659	68.8201
14500.000000	104.679	71.5501
14750.000000	108.007	69.0637
15000.000000	111.150	52.0392
15250.000000	112.168	18.1405
15500.000000	110.424	-12.2096
15750.000000	107.367	-25.9553
16000.000000	104.837	-31.5515
16250.000000	103.094	-37.0359
16500.000000	101.697	-38.3736
16750.000000	102.358	-44.6195
17000.000000	103.154	-76.4613
17250.000000	101.314	-125.4175
17500.000000	96.418	-170.8687
17750.000000	89.447	141.0223
18000.000000	82.769	89.2991
18250.000000	80.925	53.0141
18500.000000	81.178	34.6972
18750.000000	80.877	26.2341
19000.000000	79.950	22.8029
19250.000000	78.625	22.6224
19500.000000	77.079	24.9943
19750.000000	75.592	28.7643
20000.000000	74.751	31.3663
