* Measurement data measured by REW V5.20.9
* Source: Mic in at rear panel (Pink)(Realtek(R) Audio), MICROPHONE (마스), R, volume: 0.250
* Format: 256k Log Swept Sine, 1 sweep at -12.0 dBFS with no timing reference
* Dated: 2022. 9. 16 오후 11:17:42
* REW Settings:
*  C-weighting compensation: Off
*  Target level: 75.0 dB
* Note: 
* Measurement: R
* Smoothing: 1/24 octave
* Frequency Step: 1/48 octave
* Start Frequency: 20.300 Hz
*
* Freq(Hz)	SPL(dB)	Phase(degrees)
20.299999	66.917	-170.1585
20.600000	66.849	-170.8725
20.900000	66.705	-171.9460
21.200001	66.568	-172.4387
21.400000	66.502	-172.4710
21.799999	66.449	-172.4891
22.000000	66.459	-172.5296
22.400000	66.520	-173.1562
22.700001	66.555	-174.0659
23.000000	66.546	-175.2250
23.299999	66.484	-176.4019
23.600000	66.379	-177.3999
24.000000	66.212	-178.2415
24.299999	66.104	-178.4990
24.700001	66.027	-178.5504
25.000000	66.023	-178.6000
25.400000	66.068	-178.9367
25.799999	66.122	-179.6713
26.200001	66.140	179.3381
26.500000	66.123	178.5837
26.900000	66.067	177.7245
27.200001	66.016	177.2366
27.600000	65.954	176.7542
28.000000	65.911	176.3359
28.500000	65.870	175.7366
29.000000	65.815	175.0456
29.500000	65.736	174.4044
30.000000	65.649	173.9306
30.400000	65.591	173.6552
30.700001	65.559	173.4675
31.100000	65.530	173.1765
31.500000	65.512	172.7882
32.000000	65.487	172.1395
32.500000	65.442	171.3748
33.000000	65.372	170.6524
33.500000	65.293	170.1088
34.000000	65.230	169.7467
34.500000	65.197	169.4084
35.000000	65.181	168.9306
35.500000	65.151	168.2987
36.000000	65.091	167.6720
36.500000	65.010	167.2256
37.000000	64.938	166.9925
37.500000	64.893	166.8360
38.200001	64.861	166.4164
38.700001	64.827	165.9207
39.500000	64.719	165.1352
40.000000	64.640	164.8151
40.599998	64.564	164.5458
41.200001	64.511	164.2092
41.799999	64.460	163.7315
42.500000	64.382	163.0977
43.099998	64.302	162.5871
43.700001	64.211	162.1534
44.400002	64.099	161.8314
45.000000	64.016	161.7626
45.500000	63.975	161.7808
46.200001	63.960	161.6903
46.799999	63.962	161.3510
47.500000	63.937	160.7263
48.200001	63.871	160.1459
48.700001	63.816	159.8764
49.400002	63.755	159.6375
50.000000	63.721	159.3817
50.799999	63.660	158.8717
51.500000	63.569	158.4962
52.200001	63.467	158.3933
53.000000	63.385	158.4794
53.799999	63.337	158.4822
54.500000	63.303	158.3308
55.200001	63.263	158.0523
56.000000	63.198	157.6456
57.000000	63.084	157.2750
58.000000	62.990	157.1810
59.000000	62.937	157.0383
60.000000	62.886	156.7158
60.799999	62.834	156.4250
61.500000	62.779	156.1740
62.200001	62.710	155.9744
63.000000	62.626	155.9054
64.000000	62.545	155.9879
65.000000	62.493	155.9633
66.000000	62.438	155.7858
67.000000	62.369	155.5784
68.000000	62.293	155.4398
69.000000	62.227	155.3518
70.000000	62.167	155.2371
71.000000	62.108	155.1329
72.000000	62.060	155.0455
73.000000	62.022	154.8170
74.000000	61.958	154.4431
75.000000	61.855	154.2050
76.199997	61.735	154.3045
77.500000	61.664	154.5927
78.800003	61.640	154.6769
80.000000	61.612	154.4385
81.199997	61.536	154.1922
82.500000	61.451	154.1628
83.800003	61.375	154.0790
85.000000	61.295	154.0462
86.199997	61.226	154.0732
87.500000	61.165	154.0575
88.500000	61.122	154.0170
90.000000	61.059	153.8981
91.199997	61.000	153.8041
92.500000	60.933	153.7967
93.800003	60.879	153.8665
95.000000	60.843	153.8822
96.199997	60.804	153.8210
97.500000	60.749	153.7672
98.800003	60.689	153.8182
100.000000	60.644	153.9188
101.500000	60.592	153.9576
103.000000	60.517	153.9580
104.400002	60.441	154.0563
106.000000	60.370	154.2314
107.500000	60.323	154.3669
109.000000	60.285	154.4242
110.599998	60.237	154.4310
112.000000	60.187	154.4309
113.800003	60.117	154.4463
115.000000	60.074	154.4688
117.199997	60.008	154.5663
118.000000	59.989	154.6110
120.599998	59.908	154.7554
122.000000	59.850	154.9252
124.099998	59.774	155.1812
125.000000	59.746	155.2343
126.500000	59.699	155.2545
128.000000	59.647	155.2513
131.500000	59.533	155.3773
132.000000	59.518	155.4063
134.000000	59.459	155.5491
136.000000	59.397	155.7643
138.000000	59.337	156.0316
140.000000	59.272	156.2873
143.000000	59.176	156.6714
145.000000	59.109	156.9735
147.500000	59.018	157.5723
150.000000	58.930	158.3844
152.500000	58.888	159.3668
155.000000	58.920	160.3696
157.500000	59.019	161.1373
160.000000	59.141	161.3813
162.500000	59.242	161.1552
165.000000	59.299	160.8026
167.500000	59.323	160.4783
170.000000	59.316	160.1469
172.500000	59.285	159.8759
175.000000	59.237	159.7503
177.500000	59.185	159.6978
180.000000	59.135	159.5966
182.500000	59.092	159.5489
185.000000	59.061	159.6050
187.500000	59.026	159.7108
190.000000	58.988	159.8204
192.500000	58.955	159.9070
195.000000	58.932	159.9806
197.500000	58.907	160.0120
200.000000	58.866	160.0164
203.000000	58.818	160.0747
206.000000	58.790	160.2112
209.000000	58.760	160.4089
212.000000	58.721	160.5776
214.000000	58.701	160.6457
218.000000	58.679	160.7739
220.000000	58.667	160.8791
224.000000	58.632	161.0610
227.000000	58.604	161.1601
230.000000	58.574	161.3075
233.000000	58.543	161.4835
236.000000	58.518	161.6356
240.000000	58.496	161.8528
243.000000	58.483	162.0309
247.000000	58.467	162.2414
250.000000	58.457	162.3589
254.000000	58.431	162.5096
258.000000	58.407	162.6863
262.000000	58.391	162.8443
265.000000	58.375	162.9591
269.000000	58.349	163.1002
272.000000	58.334	163.2144
276.000000	58.315	163.4088
280.000000	58.300	163.6136
285.000000	58.287	163.8286
290.000000	58.274	163.9738
295.000000	58.247	164.1231
300.000000	58.223	164.3488
304.000000	58.210	164.4956
307.000000	58.206	164.6126
311.000000	58.199	164.7921
315.000000	58.190	164.9627
320.000000	58.182	165.1725
325.000000	58.174	165.3851
330.000000	58.171	165.5837
335.000000	58.166	165.7503
340.000000	58.157	165.8837
345.000000	58.152	166.0656
350.000000	58.143	166.2729
355.000000	58.130	166.4895
360.000000	58.119	166.7036
365.000000	58.109	166.8597
370.000000	58.099	166.9592
375.000000	58.092	167.0510
382.000000	58.082	167.2869
387.000000	58.075	167.4669
395.000000	58.060	167.6940
400.000000	58.050	167.8622
406.000000	58.039	168.0782
412.000000	58.029	168.2734
418.000000	58.021	168.5178
425.000000	58.021	168.7859
431.000000	58.016	168.9393
437.000000	58.008	169.0658
444.000000	58.007	169.2383
450.000000	58.010	169.4391
455.000000	58.012	169.6092
462.000000	58.014	169.8220
468.000000	58.014	170.0261
475.000000	58.007	170.2836
482.000000	58.009	170.4926
487.000000	58.011	170.6250
494.000000	58.011	170.8413
500.000000	58.011	171.0263
508.000000	58.015	171.2696
515.000000	58.026	171.4967
522.000000	58.039	171.7144
530.000000	58.047	171.9405
538.000000	58.053	172.1716
545.000000	58.057	172.3696
552.000000	58.058	172.5908
560.000000	58.060	172.8697
570.000000	58.069	173.1424
580.000000	58.083	173.3870
590.000000	58.096	173.7193
600.000000	58.108	174.0958
608.000000	58.120	174.3485
615.000000	58.132	174.5532
622.000000	58.143	174.7700
630.000000	58.154	175.0299
640.000000	58.169	175.3261
650.000000	58.188	175.6005
660.000000	58.209	175.8943
670.000000	58.228	176.2032
680.000000	58.247	176.5381
690.000000	58.270	176.8808
700.000000	58.295	177.1951
710.000000	58.321	177.5091
720.000000	58.342	177.7861
730.000000	58.363	178.0667
740.000000	58.390	178.3978
750.000000	58.422	178.7369
762.000000	58.460	179.1138
775.000000	58.502	179.5306
788.000000	58.543	179.9294
800.000000	58.583	-179.6976
812.000000	58.630	-179.3202
825.000000	58.683	-178.9326
838.000000	58.736	-178.5425
850.000000	58.788	-178.1771
862.000000	58.849	-177.7948
875.000000	58.914	-177.4631
885.000000	58.964	-177.2301
900.000000	59.045	-176.8588
912.000000	59.112	-176.5740
925.000000	59.189	-176.2822
938.000000	59.271	-176.0063
950.000000	59.348	-175.7853
962.000000	59.425	-175.6058
975.000000	59.514	-175.4448
988.000000	59.609	-175.3272
1000.000000	59.695	-175.2156
1015.000000	59.792	-175.0320
1030.000000	59.892	-174.9142
1044.000000	59.988	-174.8472
1060.000000	60.096	-174.8252
1075.000000	60.198	-174.8685
1090.000000	60.302	-174.9043
1106.000000	60.417	-174.9615
1120.000000	60.517	-175.0558
1138.000000	60.646	-175.1963
1150.000000	60.732	-175.3063
1172.000000	60.888	-175.5661
1180.000000	60.943	-175.6751
1206.000000	61.117	-176.0720
1220.000000	61.206	-176.3111
1241.000000	61.331	-176.7125
1250.000000	61.381	-176.8906
1265.000000	61.461	-177.1785
1280.000000	61.535	-177.4464
1315.000000	61.689	-177.9284
1320.000000	61.711	-177.9814
1340.000000	61.807	-178.1595
1360.000000	61.913	-178.3164
1380.000000	62.027	-178.5007
1400.000000	62.153	-178.7259
1430.000000	62.352	-179.1488
1450.000000	62.490	-179.4969
1475.000000	62.674	179.9483
1500.000000	62.865	179.2558
1525.000000	63.067	178.3595
1550.000000	63.276	177.1639
1575.000000	63.472	175.4311
1600.000000	63.598	172.9944
1625.000000	63.541	170.0042
1650.000000	63.209	167.6299
1675.000000	62.727	167.5292
1700.000000	62.423	169.4972
1725.000000	62.417	171.7803
1750.000000	62.580	173.3248
1775.000000	62.789	174.1029
1800.000000	62.994	174.3792
1825.000000	63.185	174.3570
1850.000000	63.359	174.1442
1875.000000	63.521	173.7960
1900.000000	63.675	173.3538
1925.000000	63.822	172.8522
1950.000000	63.964	172.2912
1975.000000	64.098	171.6560
2000.000000	64.221	170.9286
2030.000000	64.348	169.9954
2060.000000	64.458	169.1035
2090.000000	64.567	168.2630
2120.000000	64.683	167.4194
2140.000000	64.763	166.8187
2180.000000	64.923	165.4665
2200.000000	65.000	164.7009
2240.000000	65.149	162.9283
2270.000000	65.245	161.2821
2300.000000	65.294	159.2488
2330.000000	65.242	156.8795
2360.000000	65.021	154.7074
2400.000000	64.527	153.8921
2430.000000	64.270	155.0932
2470.000000	64.276	156.9567
2500.000000	64.410	157.6019
2540.000000	64.593	157.6197
2580.000000	64.739	157.1557
2620.000000	64.853	156.4631
2650.000000	64.926	155.8716
2690.000000	65.013	155.0228
2720.000000	65.072	154.3432
2760.000000	65.141	153.3642
2800.000000	65.190	152.2912
2850.000000	65.202	150.9724
2900.000000	65.195	150.0284
2950.000000	65.233	149.2505
3000.000000	65.311	148.2382
3040.000000	65.375	147.1851
3070.000000	65.410	146.2684
3110.000000	65.429	144.9988
3150.000000	65.435	143.8177
3200.000000	65.486	142.1573
3250.000000	65.516	139.4927
3300.000000	65.321	136.1103
3350.000000	64.814	134.0430
3400.000000	64.288	135.0936
3450.000000	64.183	137.6473
3500.000000	64.466	138.9392
3550.000000	64.860	137.8561
3600.000000	65.126	134.0633
3650.000000	64.967	128.2471
3700.000000	64.187	123.5923
3750.000000	63.030	123.4003
3820.000000	61.803	129.5107
3870.000000	61.577	134.6444
3950.000000	61.758	139.2531
4000.000000	61.824	140.7380
4060.000000	61.878	142.7343
4120.000000	62.027	144.6299
4180.000000	62.227	145.8369
4250.000000	62.427	146.3748
4310.000000	62.489	146.4815
4370.000000	62.475	147.1930
4440.000000	62.560	148.8171
4500.000000	62.775	150.0352
4550.000000	63.019	150.5538
4620.000000	63.400	150.2828
4680.000000	63.709	148.9538
4750.000000	63.942	146.0014
4820.000000	63.874	142.0916
4870.000000	63.583	139.7246
4940.000000	62.958	138.7032
5000.000000	62.510	139.9697
5080.000000	62.281	142.1418
5150.000000	62.220	142.9681
5220.000000	62.079	143.3605
5300.000000	61.872	144.5157
5380.000000	61.772	146.0919
5450.000000	61.758	147.1408
5520.000000	61.760	147.7771
5600.000000	61.727	147.9417
5700.000000	61.469	147.7844
5800.000000	60.956	149.5741
5900.000000	60.597	154.1526
6000.000000	60.657	159.6605
6080.000000	60.974	163.4851
6150.000000	61.366	165.9885
6220.000000	61.803	167.6959
6300.000000	62.318	168.7715
6400.000000	62.942	168.8967
6500.000000	63.490	167.7227
6600.000000	63.887	165.4398
6700.000000	64.040	162.7004
6800.000000	64.000	160.8471
6900.000000	64.031	159.7359
7000.000000	64.058	157.3478
7100.000000	63.625	154.9868
7200.000000	62.857	157.4032
7300.000000	62.649	164.0753
7400.000000	63.261	170.0852
7500.000000	64.229	173.1495
7620.000000	65.469	173.3080
7750.000000	66.745	169.7993
7880.000000	67.646	162.2913
8000.000000	67.894	153.0670
8120.000000	67.552	144.2065
8250.000000	66.705	137.1792
8380.000000	65.650	133.4109
8500.000000	64.713	132.1418
8620.000000	63.895	131.9212
8750.000000	63.086	132.2680
8850.000000	62.504	132.8984
9000.000000	61.693	134.0750
9120.000000	61.033	135.2806
9250.000000	60.306	137.2246
9380.000000	59.602	139.7644
9500.000000	58.965	142.7277
9620.000000	58.371	146.4408
9750.000000	57.847	151.2999
9880.000000	57.515	156.5964
10000.000000	57.385	161.2655
10150.000000	57.369	166.2762
10300.000000	57.405	170.3234
10440.000000	57.433	173.3898
10600.000000	57.399	176.2334
10750.000000	57.242	178.8021
10900.000000	57.004	-177.9968
11060.000000	56.733	-173.8293
11200.000000	56.503	-169.3191
11380.000000	56.390	-162.4189
11500.000000	56.461	-157.7390
11720.000000	56.800	-149.4412
11800.000000	56.988	-146.5201
12060.000000	57.856	-137.8329
12200.000000	58.454	-133.8881
12410.000000	59.465	-129.2101
12500.000000	59.938	-127.7295
12650.000000	60.776	-126.1004
12800.000000	61.649	-125.7174
13150.000000	63.475	-130.1821
13200.000000	63.683	-131.3189
13400.000000	64.409	-136.6737
13600.000000	64.939	-144.0508
13800.000000	64.980	-153.4491
14000.000000	64.378	-161.9464
14300.000000	62.770	-168.1844
14500.000000	61.714	-168.2034
14750.000000	60.778	-165.8283
15000.000000	60.361	-163.0538
15250.000000	60.403	-161.7731
15500.000000	60.741	-163.8555
15750.000000	60.956	-170.4012
16000.000000	60.590	179.9931
16250.000000	59.478	170.6304
16500.000000	57.760	164.4110
16750.000000	55.741	162.2008
17000.000000	53.717	163.1444
17250.000000	51.839	166.1420
17500.000000	50.163	170.3480
17750.000000	48.673	175.0680
18000.000000	47.300	-179.7277
18250.000000	46.172	-174.4272
18500.000000	45.478	-171.7053
18750.000000	45.019	-175.9114
19000.000000	44.292	168.0347
19250.000000	42.768	135.0487
19500.000000	40.459	83.8522
19750.000000	38.437	26.6377
20000.000000	37.207	-15.2658
