* Measurement data measured by REW V5.20.5
* Source: Mic in at rear panel (Pink)(Realtek(R) Audio), MICROPHONE (마스), L, volume: 1.000
* Format: 128k Log Swept Sine, 1 sweep at -12.0 dBFS with no timing reference
* Dated: 2022. 4. 12 오전 12:01:45
* REW Settings:
*  C-weighting compensation: Off
*  Target level: 75.0 dB
* Note: 
* Measurement: l
* Smoothing: 1/24 octave
* Frequency Step: 1/48 octave
* Start Frequency: 20.300 Hz
*
* Freq(Hz)	SPL(dB)	Phase(degrees)
20.299999	76.375	176.3635
20.600000	76.320	176.0927
20.900000	76.203	175.7736
21.200001	76.091	175.8906
21.400000	76.036	176.1265
21.799999	75.984	176.6146
22.000000	75.978	176.7098
22.400000	75.969	176.4465
22.700001	75.937	175.9543
23.000000	75.870	175.4094
23.299999	75.780	174.9739
23.600000	75.686	174.6917
24.000000	75.591	174.4744
24.299999	75.555	174.2798
24.700001	75.541	173.8121
25.000000	75.537	173.2855
25.400000	75.521	172.4466
25.799999	75.496	171.6224
26.200001	75.476	170.9247
26.500000	75.470	170.4918
26.900000	75.476	170.0070
27.200001	75.491	169.6904
27.600000	75.522	169.3085
28.000000	75.560	168.9369
28.500000	75.600	168.4173
29.000000	75.603	167.8454
29.500000	75.549	167.4111
30.000000	75.448	167.3486
30.400000	75.363	167.5634
30.700001	75.310	167.7961
31.100000	75.257	168.0685
31.500000	75.210	168.2095
32.000000	75.147	168.1216
32.500000	75.070	167.6448
33.000000	74.949	166.7793
33.500000	74.764	165.8370
34.000000	74.568	165.2276
34.500000	74.467	164.7888
35.000000	74.476	163.8856
35.500000	74.485	162.4178
36.000000	74.447	161.2644
36.500000	74.481	161.0144
37.000000	74.686	160.8790
37.500000	74.905	159.9221
38.200001	74.885	159.1760
38.700001	74.850	161.1986
39.500000	75.369	164.7123
40.000000	75.497	164.5777
40.599998	74.994	167.1562
41.200001	75.049	178.0686
41.799999	76.771	-172.1900
42.500000	78.594	-176.6304
43.099998	78.725	171.0388
43.700001	77.588	162.4614
44.400002	75.609	162.8379
45.000000	74.625	166.3798
45.500000	74.337	166.8750
46.200001	73.926	164.8709
46.799999	73.548	163.3815
47.500000	73.389	161.2580
48.200001	73.320	158.2338
48.700001	73.249	156.6255
49.400002	73.261	155.7358
50.000000	73.393	155.3629
50.799999	73.527	154.8094
51.500000	73.492	154.9386
52.200001	73.368	156.1445
53.000000	73.260	158.7373
53.799999	73.368	161.5069
54.500000	73.622	162.2907
55.200001	73.755	160.7528
56.000000	73.510	158.3396
57.000000	73.040	158.3042
58.000000	73.018	158.6211
59.000000	73.009	157.4019
60.000000	72.927	156.6501
60.799999	72.825	156.2545
61.500000	72.690	156.4973
62.200001	72.618	157.3084
63.000000	72.671	157.9028
64.000000	72.773	157.0754
65.000000	72.678	155.1557
66.000000	72.383	154.5046
67.000000	72.265	155.4067
68.000000	72.292	155.5685
69.000000	72.184	155.8209
70.000000	72.128	156.9047
71.000000	72.156	157.1037
72.000000	72.033	156.5080
73.000000	71.806	156.4359
74.000000	71.654	156.7247
75.000000	71.607	156.7201
76.199997	71.623	156.0851
77.500000	71.597	154.5738
78.800003	71.350	153.8692
80.000000	71.256	154.9240
81.199997	71.258	154.9614
82.500000	71.072	155.5723
83.800003	70.947	157.1255
85.000000	70.845	159.1613
86.199997	70.878	161.5723
87.500000	71.025	163.1152
88.500000	71.107	163.4516
90.000000	71.126	164.0214
91.199997	71.311	165.3222
92.500000	71.741	165.3798
93.800003	72.024	163.5875
95.000000	72.060	161.6001
96.199997	71.920	160.0592
97.500000	71.754	159.3103
98.800003	71.724	158.1602
100.000000	71.642	156.6814
101.500000	71.548	155.9982
103.000000	71.558	155.9253
104.400002	71.558	156.0333
106.000000	71.517	155.8670
107.500000	71.382	155.1573
109.000000	71.218	154.2499
110.599998	71.011	153.0780
112.000000	70.768	152.8782
113.800003	70.654	153.7799
115.000000	70.719	153.6341
117.199997	70.903	151.5670
118.000000	70.974	150.3645
120.599998	70.708	148.0406
122.000000	70.493	150.4860
124.099998	70.530	154.3155
125.000000	70.555	155.1036
126.500000	70.486	155.2803
128.000000	70.291	154.9524
131.500000	69.994	154.5786
132.000000	69.983	154.5463
134.000000	69.923	154.4083
136.000000	69.813	154.6965
138.000000	69.734	155.1051
140.000000	69.651	155.2869
143.000000	69.506	155.7832
145.000000	69.440	156.0514
147.500000	69.356	156.2088
150.000000	69.222	156.2043
152.500000	69.050	156.3865
155.000000	68.952	156.4734
157.500000	68.877	156.5155
160.000000	68.827	156.9771
162.500000	68.770	157.4949
165.000000	68.669	158.0212
167.500000	68.517	158.8276
170.000000	68.462	159.4546
172.500000	68.485	158.9017
175.000000	68.473	158.2801
177.500000	68.461	158.5747
180.000000	68.445	158.9099
182.500000	68.360	158.7905
185.000000	68.243	158.7117
187.500000	68.120	159.0019
190.000000	67.998	159.5614
192.500000	67.907	159.9625
195.000000	67.839	160.1731
197.500000	67.791	160.5152
200.000000	67.780	160.8526
203.000000	67.795	160.8920
206.000000	67.778	160.8474
209.000000	67.772	161.2639
212.000000	67.817	162.0150
214.000000	67.841	162.4504
218.000000	67.676	162.4565
220.000000	67.552	162.3406
224.000000	67.493	162.6062
227.000000	67.508	163.3806
230.000000	67.441	164.1907
233.000000	67.368	164.4348
236.000000	67.324	164.1868
240.000000	67.261	164.2440
243.000000	67.186	164.6013
247.000000	67.105	164.7985
250.000000	67.056	164.9742
254.000000	66.955	165.6750
258.000000	66.823	166.2387
262.000000	66.702	166.7266
265.000000	66.658	167.3954
269.000000	66.687	168.1736
272.000000	66.747	168.3535
276.000000	66.754	168.2935
280.000000	66.697	168.6534
285.000000	66.611	169.3591
290.000000	66.538	169.8913
295.000000	66.518	169.8032
300.000000	66.450	169.9458
304.000000	66.383	170.8619
307.000000	66.328	171.5107
311.000000	66.262	171.8574
315.000000	66.224	171.8733
320.000000	66.178	172.1122
325.000000	66.166	172.6389
330.000000	66.165	172.7951
335.000000	66.112	173.2461
340.000000	66.017	174.1097
345.000000	65.941	175.1176
350.000000	65.861	176.1608
355.000000	65.696	176.6641
360.000000	65.591	176.7821
365.000000	65.571	176.8390
370.000000	65.527	177.3356
375.000000	65.487	178.1432
382.000000	65.416	178.5260
387.000000	65.373	178.7578
395.000000	65.314	179.7781
400.000000	65.303	-179.4749
406.000000	65.332	-178.9471
412.000000	65.318	-178.7325
418.000000	65.280	-178.4624
425.000000	65.271	-177.6098
431.000000	65.172	-176.6661
437.000000	65.057	-176.2336
444.000000	65.054	-175.6872
450.000000	65.033	-174.8896
455.000000	65.001	-174.4408
462.000000	65.009	-174.1688
468.000000	65.038	-173.7794
475.000000	65.041	-173.0017
482.000000	64.999	-172.1747
487.000000	64.922	-171.7286
494.000000	64.810	-171.1378
500.000000	64.782	-170.7764
508.000000	64.805	-170.1226
515.000000	64.803	-169.2710
522.000000	64.761	-168.5422
530.000000	64.715	-167.8810
538.000000	64.709	-166.9487
545.000000	64.699	-166.1086
552.000000	64.674	-165.4856
560.000000	64.651	-164.7468
570.000000	64.641	-163.5775
580.000000	64.629	-162.6969
590.000000	64.603	-161.8884
600.000000	64.573	-160.7316
608.000000	64.575	-159.9760
615.000000	64.553	-159.4852
622.000000	64.527	-158.7623
630.000000	64.515	-157.8812
640.000000	64.500	-157.2941
650.000000	64.466	-156.6244
660.000000	64.480	-155.5482
670.000000	64.511	-154.6967
680.000000	64.481	-154.1198
690.000000	64.420	-153.2917
700.000000	64.390	-152.0681
710.000000	64.419	-150.6913
720.000000	64.436	-149.7612
730.000000	64.441	-148.8512
740.000000	64.477	-147.6969
750.000000	64.471	-146.6415
762.000000	64.502	-145.6647
775.000000	64.597	-144.2303
788.000000	64.681	-143.2134
800.000000	64.677	-142.6965
812.000000	64.671	-142.0124
825.000000	64.706	-140.9103
838.000000	64.737	-139.6140
850.000000	64.799	-138.5679
862.000000	64.893	-137.3503
875.000000	64.926	-136.1977
885.000000	64.941	-135.4838
900.000000	65.028	-134.4113
912.000000	65.139	-133.5764
925.000000	65.230	-132.8521
938.000000	65.296	-132.1633
950.000000	65.335	-131.4449
962.000000	65.403	-130.8439
975.000000	65.535	-130.3250
988.000000	65.733	-129.6591
1000.000000	65.877	-128.9418
1015.000000	65.875	-127.9146
1030.000000	65.916	-127.0465
1044.000000	65.992	-126.4918
1060.000000	66.045	-125.7113
1075.000000	66.118	-124.9397
1090.000000	66.199	-124.2044
1106.000000	66.272	-123.4681
1120.000000	66.327	-122.7366
1138.000000	66.399	-121.9358
1150.000000	66.452	-121.4993
1172.000000	66.536	-120.8001
1180.000000	66.560	-120.4284
1206.000000	66.607	-118.8408
1220.000000	66.642	-117.8714
1241.000000	66.714	-116.8491
1250.000000	66.747	-116.5262
1265.000000	66.823	-115.9724
1280.000000	66.922	-115.3788
1315.000000	67.241	-114.3683
1320.000000	67.286	-114.2360
1340.000000	67.421	-113.5701
1360.000000	67.518	-112.6887
1380.000000	67.609	-111.9266
1400.000000	67.683	-111.0262
1430.000000	67.827	-109.3084
1450.000000	67.989	-108.0874
1475.000000	68.240	-106.8593
1500.000000	68.466	-106.1710
1525.000000	68.633	-105.7906
1550.000000	68.784	-105.2255
1575.000000	68.897	-104.3327
1600.000000	68.985	-103.3969
1625.000000	69.103	-102.7066
1650.000000	69.231	-101.7263
1675.000000	69.338	-100.5881
1700.000000	69.434	-99.3412
1725.000000	69.530	-97.8724
1750.000000	69.639	-96.2136
1775.000000	69.798	-94.3862
1800.000000	70.044	-92.4651
1825.000000	70.388	-90.6387
1850.000000	70.810	-89.2094
1875.000000	71.250	-88.3631
1900.000000	71.668	-88.0028
1925.000000	72.027	-87.9985
1950.000000	72.318	-88.0550
1975.000000	72.585	-88.0416
2000.000000	72.849	-87.9862
2030.000000	73.184	-87.9041
2060.000000	73.551	-87.9264
2090.000000	73.919	-88.1784
2120.000000	74.261	-88.5745
2140.000000	74.470	-88.9400
2180.000000	74.852	-89.9401
2200.000000	75.025	-90.5382
2240.000000	75.351	-91.6293
2270.000000	75.577	-92.3452
2300.000000	75.794	-92.9904
2330.000000	76.017	-93.6818
2360.000000	76.242	-94.5390
2400.000000	76.526	-95.6723
2430.000000	76.721	-96.3899
2470.000000	76.964	-97.3259
2500.000000	77.145	-98.0260
2540.000000	77.394	-98.9843
2580.000000	77.670	-100.0066
2620.000000	77.971	-101.1985
2650.000000	78.199	-102.2483
2690.000000	78.491	-103.8662
2720.000000	78.683	-105.2185
2760.000000	78.902	-107.1653
2800.000000	79.087	-109.2952
2850.000000	79.257	-112.2153
2900.000000	79.378	-115.2896
2950.000000	79.452	-118.3709
3000.000000	79.460	-121.3779
3040.000000	79.419	-123.6885
3070.000000	79.360	-125.3373
3110.000000	79.250	-127.4290
3150.000000	79.115	-129.3838
3200.000000	78.923	-131.6006
3250.000000	78.725	-133.5444
3300.000000	78.523	-135.2408
3350.000000	78.315	-136.7344
3400.000000	78.116	-138.0209
3450.000000	77.928	-139.1058
3500.000000	77.733	-140.0353
3550.000000	77.535	-140.8421
3600.000000	77.344	-141.5059
3650.000000	77.165	-142.0864
3700.000000	77.000	-142.5597
3750.000000	76.851	-142.9472
3820.000000	76.644	-143.3551
3870.000000	76.494	-143.5212
3950.000000	76.277	-143.6124
4000.000000	76.155	-143.6272
4060.000000	76.015	-143.5947
4120.000000	75.881	-143.6127
4180.000000	75.748	-143.6986
4250.000000	75.611	-143.6602
4310.000000	75.499	-143.6041
4370.000000	75.390	-143.6067
4440.000000	75.267	-143.6434
4500.000000	75.175	-143.7103
4550.000000	75.114	-143.7799
4620.000000	75.050	-143.8824
4680.000000	75.010	-143.9927
4750.000000	74.984	-144.1660
4820.000000	74.970	-144.3590
4870.000000	74.960	-144.5355
4940.000000	74.939	-144.8390
5000.000000	74.911	-145.1891
5080.000000	74.870	-145.7570
5150.000000	74.838	-146.3411
5220.000000	74.802	-146.9363
5300.000000	74.752	-147.6880
5380.000000	74.702	-148.5060
5450.000000	74.655	-149.2686
5520.000000	74.602	-150.0294
5600.000000	74.540	-150.7634
5700.000000	74.439	-151.7296
5800.000000	74.322	-152.9393
5900.000000	74.214	-154.1024
6000.000000	74.121	-155.2301
6080.000000	74.049	-156.1893
6150.000000	73.991	-156.9650
6220.000000	73.936	-157.6216
6300.000000	73.870	-158.2881
6400.000000	73.762	-159.0763
6500.000000	73.645	-159.8863
6600.000000	73.555	-160.6855
6700.000000	73.496	-161.3308
6800.000000	73.474	-161.8289
6900.000000	73.475	-162.2225
7000.000000	73.501	-162.4637
7100.000000	73.567	-162.7524
7200.000000	73.678	-163.1457
7300.000000	73.843	-163.6973
7400.000000	74.068	-164.5797
7500.000000	74.332	-165.8770
7620.000000	74.681	-168.0240
7750.000000	75.031	-171.2592
7880.000000	75.271	-175.6015
8000.000000	75.331	179.2648
8120.000000	75.203	173.2089
8250.000000	74.845	166.0480
8380.000000	74.238	158.8259
8500.000000	73.472	152.7211
8620.000000	72.565	147.5020
8750.000000	71.469	143.1394
8850.000000	70.564	140.7216
9000.000000	69.199	138.4908
9120.000000	68.136	137.7836
9250.000000	67.021	137.7905
9380.000000	65.962	138.3833
9500.000000	65.056	139.3930
9620.000000	64.199	140.7816
9750.000000	63.297	142.5667
9880.000000	62.475	144.5680
10000.000000	61.774	146.5410
10150.000000	60.949	149.2657
10300.000000	60.195	152.5983
10440.000000	59.605	155.7736
10600.000000	59.027	159.2368
10750.000000	58.542	162.4857
10900.000000	58.075	165.2197
11060.000000	57.606	168.4198
11200.000000	57.281	172.0064
11380.000000	56.959	176.5969
11500.000000	56.778	179.2609
11720.000000	56.484	-175.8935
11800.000000	56.418	-173.8398
12060.000000	56.375	-167.1724
12200.000000	56.381	-164.0504
12410.000000	56.564	-158.8839
12500.000000	56.693	-156.6804
12650.000000	56.965	-152.9472
12800.000000	57.302	-149.2370
13150.000000	58.411	-141.2557
13200.000000	58.599	-140.1245
13400.000000	59.407	-135.6720
13600.000000	60.345	-131.5739
13800.000000	61.577	-128.4105
14000.000000	63.165	-126.3221
14300.000000	66.282	-126.9225
14500.000000	68.672	-132.3158
14750.000000	71.202	-148.5844
15000.000000	72.180	-174.2478
15250.000000	71.326	162.1853
15500.000000	69.518	148.5696
15750.000000	67.949	142.3362
16000.000000	67.298	138.9940
16250.000000	67.705	135.0930
16500.000000	68.999	126.5285
16750.000000	70.374	107.4939
17000.000000	70.429	77.4804
17250.000000	68.459	49.3861
17500.000000	65.066	33.7617
17750.000000	61.366	28.4976
18000.000000	58.104	28.5786
18250.000000	55.458	31.2662
18500.000000	53.270	27.8174
18750.000000	51.601	-19.3076
19000.000000	50.367	170.9168
19250.000000	49.399	166.1785
19500.000000	48.450	119.0543
19750.000000	47.358	-50.6519
20000.000000	46.575	55.1653
