* Measurement data measured by REW V5.20.5
* Source: Mic in at rear panel (Pink)(Realtek(R) Audio), MICROPHONE (마스), L, volume: 1.000
* Format: 128k Log Swept Sine, 1 sweep at -12.0 dBFS with no timing reference
* Dated: 2022. 4. 12 오후 1:20:10
* REW Settings:
*  C-weighting compensation: Off
*  Target level: 75.0 dB
* Note: 
* Measurement: 4월 12
* Smoothing: 1/24 octave
* Frequency Step: 1/48 octave
* Start Frequency: 20.300 Hz
*
* Freq(Hz)	SPL(dB)	Phase(degrees)
20.299999	76.869	175.8592
20.600000	76.836	175.8139
20.900000	76.777	175.7889
21.200001	76.744	175.8849
21.400000	76.739	175.9422
21.799999	76.739	175.8944
22.000000	76.739	175.7460
22.400000	76.716	175.2236
22.700001	76.675	174.7289
23.000000	76.614	174.2467
23.299999	76.537	173.8484
23.600000	76.451	173.5692
24.000000	76.345	173.3864
24.299999	76.286	173.3391
24.700001	76.245	173.2677
25.000000	76.235	173.1039
25.400000	76.230	172.6562
25.799999	76.207	172.0045
26.200001	76.150	171.3646
26.500000	76.093	171.0352
26.900000	76.023	170.8580
27.200001	75.997	170.8378
27.600000	76.007	170.7336
28.000000	76.041	170.2972
28.500000	76.043	169.2607
29.000000	75.955	168.1445
29.500000	75.814	167.4580
30.000000	75.695	167.2619
30.400000	75.647	167.2026
30.700001	75.638	167.0767
31.100000	75.639	166.7340
31.500000	75.633	166.2458
32.000000	75.599	165.6135
32.500000	75.549	165.1304
33.000000	75.503	164.8557
33.500000	75.475	164.7341
34.000000	75.468	164.6349
34.500000	75.470	164.4306
35.000000	75.455	164.1171
35.500000	75.405	163.8569
36.000000	75.332	163.8399
36.500000	75.269	164.0817
37.000000	75.242	164.3684
37.500000	75.242	164.4389
38.200001	75.234	164.0005
38.700001	75.195	163.4557
39.500000	75.078	162.6263
40.000000	75.007	162.1324
40.599998	74.936	161.3093
41.200001	74.829	160.1009
41.799999	74.631	158.9353
42.500000	74.339	158.6081
43.099998	74.200	159.3385
43.700001	74.243	160.0558
44.400002	74.370	159.9702
45.000000	74.399	159.5207
45.500000	74.378	159.4513
46.200001	74.380	159.7710
46.799999	74.419	159.8269
47.500000	74.405	159.4760
48.200001	74.304	159.3096
48.700001	74.222	159.4372
49.400002	74.127	159.6395
50.000000	74.049	159.6669
50.799999	73.957	159.5673
51.500000	73.908	159.1988
52.200001	73.853	158.4774
53.000000	73.758	157.7449
53.799999	73.694	157.4532
54.500000	73.680	157.3034
55.200001	73.665	157.2530
56.000000	73.657	157.4894
57.000000	73.666	157.6479
58.000000	73.546	157.4733
59.000000	73.307	157.7321
60.000000	73.097	158.0632
60.799999	72.983	157.9155
61.500000	72.924	157.1751
62.200001	72.838	155.7731
63.000000	72.638	154.2902
64.000000	72.484	153.9724
65.000000	72.614	153.3843
66.000000	72.639	152.7438
67.000000	72.799	153.8046
68.000000	73.061	153.2161
69.000000	72.874	152.1636
70.000000	72.543	153.2826
71.000000	72.364	154.6647
72.000000	72.259	155.6448
73.000000	72.234	155.9399
74.000000	72.215	155.4972
75.000000	72.097	154.7258
76.199997	71.760	155.8040
77.500000	71.616	158.6489
78.800003	71.426	162.5572
80.000000	71.697	165.7490
81.199997	71.617	164.8783
82.500000	71.374	166.7817
83.800003	71.820	166.6438
85.000000	72.085	163.4689
86.199997	72.140	161.3837
87.500000	72.248	160.3244
88.500000	72.258	160.0002
90.000000	72.421	160.8595
91.199997	72.659	159.8848
92.500000	72.610	158.1976
93.800003	72.534	157.8768
95.000000	72.459	157.4666
96.199997	72.332	157.9233
97.500000	72.316	157.8338
98.800003	72.141	156.7797
100.000000	71.979	156.6154
101.500000	72.080	155.9649
103.000000	72.126	154.3060
104.400002	72.052	154.0911
106.000000	71.906	154.5708
107.500000	71.681	155.0736
109.000000	71.506	154.3192
110.599998	71.395	152.8365
112.000000	71.487	152.1883
113.800003	71.622	153.2642
115.000000	71.547	155.6216
117.199997	70.860	163.2825
118.000000	70.536	167.9648
120.599998	70.883	178.0840
122.000000	70.906	169.0175
124.099998	70.545	156.8261
125.000000	70.608	154.4564
126.500000	70.845	153.2856
128.000000	70.978	153.9149
131.500000	70.730	155.3594
132.000000	70.680	155.2512
134.000000	70.510	154.8042
136.000000	70.432	155.1013
138.000000	70.388	155.6486
140.000000	70.308	155.6149
143.000000	70.208	155.4362
145.000000	70.186	155.3674
147.500000	70.051	155.3621
150.000000	69.903	155.6025
152.500000	69.832	155.9685
155.000000	69.776	156.7411
157.500000	69.672	157.4330
160.000000	69.583	157.8266
162.500000	69.565	157.7479
165.000000	69.559	157.6836
167.500000	69.529	157.9203
170.000000	69.462	158.3940
172.500000	69.390	158.6613
175.000000	69.284	158.4952
177.500000	69.140	158.5851
180.000000	69.069	158.7932
182.500000	69.019	158.5973
185.000000	68.962	158.7085
187.500000	68.899	159.1922
190.000000	68.835	159.6986
192.500000	68.777	159.8618
195.000000	68.738	160.2387
197.500000	68.760	160.9871
200.000000	68.783	161.3976
203.000000	68.719	161.2296
206.000000	68.600	160.6484
209.000000	68.580	160.0112
212.000000	68.787	158.5244
214.000000	68.793	158.0962
218.000000	68.484	162.0984
220.000000	68.324	163.7633
224.000000	68.261	164.4449
227.000000	68.645	166.3801
230.000000	69.019	168.6684
233.000000	68.754	167.9568
236.000000	68.205	166.6537
240.000000	67.952	166.0148
243.000000	67.916	165.7661
247.000000	67.944	165.7998
250.000000	67.946	166.1694
254.000000	67.876	166.6998
258.000000	67.849	167.0883
262.000000	67.771	167.2284
265.000000	67.664	167.2888
269.000000	67.554	167.5838
272.000000	67.501	167.9523
276.000000	67.483	168.3668
280.000000	67.470	168.6759
285.000000	67.405	169.1431
290.000000	67.324	169.3059
295.000000	67.229	170.2015
300.000000	67.132	170.5020
304.000000	67.068	170.4870
307.000000	67.025	170.5424
311.000000	67.010	170.8777
315.000000	66.999	171.5282
320.000000	66.923	172.1761
325.000000	66.856	172.7386
330.000000	66.762	173.5096
335.000000	66.716	174.0779
340.000000	66.692	174.5555
345.000000	66.650	175.1410
350.000000	66.597	175.6284
355.000000	66.524	176.1366
360.000000	66.468	176.7289
365.000000	66.414	177.2871
370.000000	66.350	177.4555
375.000000	66.306	177.4824
382.000000	66.326	178.1439
387.000000	66.336	179.0884
395.000000	66.231	179.7789
400.000000	66.173	179.8533
406.000000	66.141	-179.6500
412.000000	66.116	-178.7172
418.000000	66.086	-178.3408
425.000000	66.061	-177.7888
431.000000	66.022	-176.8398
437.000000	65.940	-176.0869
444.000000	65.916	-175.3300
450.000000	65.944	-174.9153
455.000000	65.909	-174.7200
462.000000	65.858	-174.3167
468.000000	65.876	-173.7224
475.000000	65.865	-172.8803
482.000000	65.829	-171.9071
487.000000	65.792	-171.2279
494.000000	65.689	-170.3761
500.000000	65.598	-169.8771
508.000000	65.547	-169.4062
515.000000	65.541	-168.5672
522.000000	65.555	-167.8596
530.000000	65.553	-167.2680
538.000000	65.548	-166.6112
545.000000	65.533	-166.1332
552.000000	65.472	-165.7915
560.000000	65.429	-165.0034
570.000000	65.457	-163.9127
580.000000	65.503	-163.0482
590.000000	65.475	-162.1144
600.000000	65.393	-161.4661
608.000000	65.338	-160.6228
615.000000	65.340	-159.7885
622.000000	65.357	-158.9302
630.000000	65.352	-157.9633
640.000000	65.291	-156.9824
650.000000	65.288	-156.0110
660.000000	65.332	-154.9615
670.000000	65.358	-153.9899
680.000000	65.379	-153.3239
690.000000	65.375	-152.5505
700.000000	65.352	-151.4792
710.000000	65.341	-150.3735
720.000000	65.328	-149.5141
730.000000	65.277	-148.6411
740.000000	65.265	-147.7506
750.000000	65.306	-147.1229
762.000000	65.342	-146.3806
775.000000	65.364	-145.3637
788.000000	65.409	-144.2258
800.000000	65.509	-143.0060
812.000000	65.602	-141.9487
825.000000	65.647	-140.8982
838.000000	65.683	-139.5428
850.000000	65.737	-138.3411
862.000000	65.823	-137.4807
875.000000	65.885	-136.4301
885.000000	65.899	-135.6433
900.000000	65.933	-134.6179
912.000000	65.974	-133.7338
925.000000	66.033	-132.8309
938.000000	66.093	-131.9060
950.000000	66.139	-130.9699
962.000000	66.186	-130.2005
975.000000	66.265	-129.4222
988.000000	66.379	-128.3303
1000.000000	66.451	-127.2489
1015.000000	66.451	-126.7540
1030.000000	66.512	-126.2971
1044.000000	66.584	-125.5735
1060.000000	66.625	-124.4852
1075.000000	66.679	-123.6554
1090.000000	66.789	-122.9601
1106.000000	66.931	-121.8591
1120.000000	67.053	-120.6264
1138.000000	67.195	-119.4582
1150.000000	67.303	-119.0858
1172.000000	67.462	-118.7663
1180.000000	67.511	-118.5560
1206.000000	67.621	-117.7274
1220.000000	67.627	-117.2628
1241.000000	67.616	-116.6215
1250.000000	67.625	-116.3412
1265.000000	67.660	-115.7452
1280.000000	67.718	-114.9969
1315.000000	67.960	-112.8361
1320.000000	68.000	-112.4913
1340.000000	68.167	-111.0141
1360.000000	68.378	-109.3411
1380.000000	68.622	-107.8560
1400.000000	68.860	-106.8771
1430.000000	69.168	-106.2393
1450.000000	69.320	-106.2434
1475.000000	69.448	-106.0836
1500.000000	69.508	-105.4076
1525.000000	69.569	-104.2813
1550.000000	69.620	-103.0128
1575.000000	69.695	-101.4554
1600.000000	69.838	-99.6938
1625.000000	70.041	-97.8040
1650.000000	70.304	-96.1325
1675.000000	70.623	-95.0498
1700.000000	70.948	-94.2933
1725.000000	71.228	-93.6865
1750.000000	71.467	-92.9577
1775.000000	71.691	-92.0056
1800.000000	71.945	-90.8579
1825.000000	72.252	-89.6814
1850.000000	72.619	-88.8182
1875.000000	73.016	-88.4496
1900.000000	73.401	-88.4997
1925.000000	73.747	-88.9094
1950.000000	74.043	-89.4899
1975.000000	74.302	-90.0476
2000.000000	74.527	-90.5991
2030.000000	74.764	-91.1864
2060.000000	74.987	-91.5703
2090.000000	75.211	-91.7723
2120.000000	75.436	-91.9658
2140.000000	75.587	-92.1158
2180.000000	75.907	-92.5028
2200.000000	76.080	-92.7910
2240.000000	76.425	-93.4190
2270.000000	76.670	-93.9576
2300.000000	76.897	-94.5744
2330.000000	77.104	-95.3304
2360.000000	77.290	-96.1801
2400.000000	77.520	-97.1982
2430.000000	77.684	-97.8348
2470.000000	77.895	-98.6468
2500.000000	78.051	-99.1535
2540.000000	78.272	-99.6526
2580.000000	78.530	-100.1983
2620.000000	78.815	-100.9250
2650.000000	79.035	-101.6259
2690.000000	79.344	-102.7834
2720.000000	79.580	-103.7998
2760.000000	79.875	-105.4547
2800.000000	80.141	-107.4890
2850.000000	80.429	-110.3891
2900.000000	80.645	-113.5187
2950.000000	80.784	-116.7359
3000.000000	80.848	-119.9918
3040.000000	80.851	-122.5790
3070.000000	80.822	-124.4918
3110.000000	80.743	-126.9333
3150.000000	80.627	-129.1874
3200.000000	80.451	-131.6997
3250.000000	80.247	-133.8817
3300.000000	80.032	-135.7130
3350.000000	79.824	-137.2823
3400.000000	79.610	-138.6328
3450.000000	79.397	-139.7733
3500.000000	79.193	-140.7793
3550.000000	78.991	-141.6292
3600.000000	78.794	-142.3643
3650.000000	78.597	-143.0109
3700.000000	78.399	-143.5630
3750.000000	78.202	-143.9908
3820.000000	77.941	-144.3559
3870.000000	77.773	-144.4921
3950.000000	77.541	-144.6359
4000.000000	77.407	-144.6207
4060.000000	77.256	-144.5344
4120.000000	77.121	-144.4946
4180.000000	76.985	-144.4244
4250.000000	76.833	-144.3006
4310.000000	76.718	-144.2441
4370.000000	76.615	-144.2142
4440.000000	76.512	-144.1975
4500.000000	76.455	-144.2626
4550.000000	76.429	-144.3662
4620.000000	76.399	-144.5468
4680.000000	76.377	-144.7111
4750.000000	76.359	-144.9999
4820.000000	76.348	-145.4263
4870.000000	76.336	-145.7263
4940.000000	76.318	-146.2018
5000.000000	76.296	-146.7646
5080.000000	76.255	-147.6233
5150.000000	76.212	-148.3606
5220.000000	76.157	-149.1063
5300.000000	76.084	-149.9452
5380.000000	76.019	-150.6799
5450.000000	75.964	-151.3313
5520.000000	75.907	-152.0125
5600.000000	75.848	-152.7944
5700.000000	75.773	-153.8591
5800.000000	75.685	-155.1145
5900.000000	75.588	-156.3550
6000.000000	75.477	-157.5732
6080.000000	75.395	-158.5494
6150.000000	75.323	-159.3563
6220.000000	75.248	-160.1152
6300.000000	75.157	-160.8802
6400.000000	75.026	-161.6536
6500.000000	74.906	-162.3033
6600.000000	74.824	-162.8469
6700.000000	74.764	-163.2614
6800.000000	74.714	-163.6079
6900.000000	74.712	-163.9201
7000.000000	74.753	-164.1769
7100.000000	74.824	-164.4879
7200.000000	74.933	-164.9574
7300.000000	75.098	-165.6754
7400.000000	75.326	-166.6716
7500.000000	75.593	-168.0632
7620.000000	75.915	-170.4093
7750.000000	76.228	-173.9148
7880.000000	76.427	-178.7688
8000.000000	76.427	175.5945
8120.000000	76.223	169.1235
8250.000000	75.770	161.6461
8380.000000	75.059	154.3674
8500.000000	74.207	148.5036
8620.000000	73.206	143.7569
8750.000000	72.010	139.9736
8850.000000	71.063	138.0118
9000.000000	69.655	136.3376
9120.000000	68.581	135.9611
9250.000000	67.507	136.2060
9380.000000	66.493	137.0469
9500.000000	65.592	138.3323
9620.000000	64.738	139.9542
9750.000000	63.868	141.6540
9880.000000	63.064	143.4620
10000.000000	62.414	145.5827
10150.000000	61.712	148.9272
10300.000000	61.044	152.3414
10440.000000	60.448	155.3219
10600.000000	59.838	158.7814
10750.000000	59.372	162.1361
10900.000000	58.992	165.4238
11060.000000	58.595	168.7978
11200.000000	58.274	171.9836
11380.000000	57.985	175.9591
11500.000000	57.877	178.4982
11720.000000	57.715	-175.9594
11800.000000	57.672	-173.7112
12060.000000	57.654	-166.8743
12200.000000	57.754	-163.9854
12410.000000	58.013	-159.2982
12500.000000	58.165	-156.9692
12650.000000	58.459	-153.1830
12800.000000	58.826	-149.7501
13150.000000	60.076	-142.2933
13200.000000	60.283	-141.2071
13400.000000	61.200	-137.0389
13600.000000	62.307	-133.5826
13800.000000	63.720	-131.1223
14000.000000	65.493	-130.3763
14300.000000	68.764	-135.1219
14500.000000	70.923	-145.3189
14750.000000	72.566	-167.3784
15000.000000	72.440	167.7780
15250.000000	71.041	150.4845
15500.000000	69.451	141.7234
15750.000000	68.514	137.0993
16000.000000	68.665	132.4859
16250.000000	69.845	123.2556
16500.000000	71.111	103.0301
16750.000000	70.990	71.8852
17000.000000	68.789	43.8246
17250.000000	65.151	28.8888
17500.000000	61.290	24.0392
17750.000000	57.961	24.3839
18000.000000	55.282	26.9987
18250.000000	53.102	27.6842
18500.000000	51.367	1.7814
18750.000000	49.994	-151.4250
19000.000000	48.876	45.7820
19250.000000	48.150	149.6357
19500.000000	47.633	-126.2295
19750.000000	46.919	-91.8779
20000.000000	46.284	-157.7158
