* Measurement data measured by REW V5.20.7
* Source: Mic in at rear panel (Pink)(Realtek(R) Audio), MICROPHONE (마스), L, volume: 1.000
* Format: 128k Log Swept Sine, 1 sweep at -12.0 dBFS with no timing reference
* Dated: 2022. 5. 9 오후 12:49:14
* REW Settings:
*  C-weighting compensation: Off
*  Target level: 75.0 dB
* Note: 
* Measurement: L
* Smoothing: 1/24 octave
* Frequency Step: 1/48 octave
* Start Frequency: 20.300 Hz
*
* Freq(Hz)	SPL(dB)	Phase(degrees)
20.299999	80.868	-162.6739
20.600000	80.868	-162.7923
20.900000	80.871	-162.9669
21.200001	80.882	-163.0457
21.400000	80.897	-163.0803
21.799999	80.941	-163.2219
22.000000	80.968	-163.3748
22.400000	81.015	-163.8759
22.700001	81.037	-164.3642
23.000000	81.045	-164.8432
23.299999	81.043	-165.2171
23.600000	81.044	-165.4580
24.000000	81.075	-165.6417
24.299999	81.128	-165.8121
24.700001	81.219	-166.2425
25.000000	81.277	-166.7175
25.400000	81.316	-167.3735
25.799999	81.327	-167.7493
26.200001	81.362	-167.7197
26.500000	81.432	-167.5779
26.900000	81.587	-167.5746
27.200001	81.717	-167.9224
27.600000	81.852	-168.8978
28.000000	81.888	-170.1426
28.500000	81.790	-171.3130
29.000000	81.642	-171.5128
29.500000	81.572	-171.0060
30.000000	81.607	-170.5599
30.400000	81.664	-170.5767
30.700001	81.698	-170.7956
31.100000	81.717	-171.1955
31.500000	81.704	-171.5350
32.000000	81.671	-171.7079
32.500000	81.666	-171.6550
33.000000	81.704	-171.6241
33.500000	81.762	-171.8300
34.000000	81.802	-172.2939
34.500000	81.804	-172.8278
35.000000	81.779	-173.2278
35.500000	81.759	-173.4532
36.000000	81.762	-173.6624
36.500000	81.776	-174.0325
37.000000	81.771	-174.5715
37.500000	81.735	-175.1038
38.200001	81.689	-175.5882
38.700001	81.704	-175.9166
39.500000	81.744	-176.9499
40.000000	81.724	-177.6304
40.599998	81.710	-177.9774
41.200001	81.822	-178.2540
41.799999	81.999	-179.5514
42.500000	82.005	177.7520
43.099998	81.761	176.3573
43.700001	81.516	176.9169
44.400002	81.515	178.5790
45.000000	81.665	179.1994
45.500000	81.751	179.1512
46.200001	81.787	179.0392
46.799999	81.801	179.0409
47.500000	81.800	178.8441
48.200001	81.752	178.5921
48.700001	81.707	178.5076
49.400002	81.656	178.4080
50.000000	81.626	178.1946
50.799999	81.596	177.6494
51.500000	81.555	177.0096
52.200001	81.498	176.5588
53.000000	81.492	176.4957
53.799999	81.583	176.3230
54.500000	81.648	175.7353
55.200001	81.632	175.1916
56.000000	81.580	175.1163
57.000000	81.563	174.9932
58.000000	81.426	174.3505
59.000000	81.208	174.5985
60.000000	81.194	174.8722
60.799999	81.244	174.0170
61.500000	81.228	172.7863
62.200001	81.139	171.6902
63.000000	81.000	171.2285
64.000000	80.971	171.7769
65.000000	81.129	171.9650
66.000000	81.237	171.4492
67.000000	81.246	171.0718
68.000000	81.204	170.9049
69.000000	81.130	170.8439
70.000000	81.051	170.7072
71.000000	80.972	170.4060
72.000000	80.902	170.0745
73.000000	80.861	169.7148
74.000000	80.834	169.2917
75.000000	80.798	168.9630
76.199997	80.746	168.8696
77.500000	80.689	169.0137
78.800003	80.628	169.1218
80.000000	80.547	169.0497
81.199997	80.459	168.9299
82.500000	80.397	168.5346
83.800003	80.342	167.8697
85.000000	80.280	167.3474
86.199997	80.223	167.1132
87.500000	80.183	166.9655
88.500000	80.147	166.8467
90.000000	80.085	166.7432
91.199997	80.043	166.6694
92.500000	80.012	166.4982
93.800003	79.989	166.2722
95.000000	79.975	166.0613
96.199997	79.957	165.8110
97.500000	79.893	165.5560
98.800003	79.792	165.6221
100.000000	79.705	165.7925
101.500000	79.594	165.9347
103.000000	79.494	166.0462
104.400002	79.425	166.0461
106.000000	79.334	166.0045
107.500000	79.250	166.2957
109.000000	79.231	166.4874
110.599998	79.183	166.0248
112.000000	79.086	165.6380
113.800003	79.010	165.5512
115.000000	79.014	165.6197
117.199997	79.056	166.0873
118.000000	79.076	166.3868
120.599998	79.071	166.5133
122.000000	78.919	166.2891
124.099998	78.662	166.3103
125.000000	78.587	166.4101
126.500000	78.521	166.5353
128.000000	78.481	166.6848
131.500000	78.425	167.3212
132.000000	78.407	167.3239
134.000000	78.294	167.4908
136.000000	78.228	167.6529
138.000000	78.167	167.5400
140.000000	78.093	167.3937
143.000000	77.953	167.5682
145.000000	77.890	168.1620
147.500000	77.832	168.8477
150.000000	77.743	169.0845
152.500000	77.639	169.1213
155.000000	77.576	169.3597
157.500000	77.543	169.4983
160.000000	77.480	169.4545
162.500000	77.389	169.9952
165.000000	77.325	171.1824
167.500000	77.218	171.9485
170.000000	77.064	172.0496
172.500000	76.892	172.3098
175.000000	76.833	173.3477
177.500000	76.852	174.3632
180.000000	76.900	175.2914
182.500000	76.955	176.1095
185.000000	76.956	177.0674
187.500000	76.931	177.7747
190.000000	76.909	178.0567
192.500000	76.981	178.0549
195.000000	77.089	178.0211
197.500000	77.144	178.3990
200.000000	77.150	178.6540
203.000000	77.150	178.3149
206.000000	77.179	178.8278
209.000000	77.178	-179.0638
212.000000	77.129	-178.1195
214.000000	77.036	-178.9901
218.000000	76.890	179.5638
220.000000	76.887	179.7657
224.000000	77.013	-178.5932
227.000000	77.157	-177.7192
230.000000	77.062	-177.6647
233.000000	76.874	-177.6014
236.000000	76.819	-177.4909
240.000000	76.811	-177.0082
243.000000	76.796	-176.5157
247.000000	76.796	-175.9729
250.000000	76.784	-175.6017
254.000000	76.753	-175.0146
258.000000	76.724	-174.3120
262.000000	76.716	-173.7026
265.000000	76.727	-173.3513
269.000000	76.748	-172.8787
272.000000	76.762	-172.5093
276.000000	76.769	-171.9166
280.000000	76.780	-171.2994
285.000000	76.792	-170.7191
290.000000	76.810	-170.2531
295.000000	76.847	-169.6406
300.000000	76.876	-168.9058
304.000000	76.877	-168.4031
307.000000	76.876	-168.0770
311.000000	76.887	-167.7101
315.000000	76.911	-167.3977
320.000000	76.933	-167.0241
325.000000	76.956	-166.5539
330.000000	77.006	-166.0043
335.000000	77.054	-165.5180
340.000000	77.077	-165.0909
345.000000	77.104	-164.6861
350.000000	77.131	-164.2943
355.000000	77.159	-163.9002
360.000000	77.197	-163.4619
365.000000	77.240	-163.0386
370.000000	77.274	-162.6496
375.000000	77.301	-162.2389
382.000000	77.327	-161.7619
387.000000	77.352	-161.4990
395.000000	77.393	-161.0418
400.000000	77.424	-160.6941
406.000000	77.472	-160.3492
412.000000	77.521	-160.0726
418.000000	77.564	-159.7812
425.000000	77.605	-159.4776
431.000000	77.629	-159.1538
437.000000	77.652	-158.7808
444.000000	77.680	-158.4134
450.000000	77.699	-158.0883
455.000000	77.725	-157.8195
462.000000	77.774	-157.4543
468.000000	77.806	-157.1375
475.000000	77.833	-156.7730
482.000000	77.864	-156.4205
487.000000	77.888	-156.2172
494.000000	77.927	-155.9464
500.000000	77.956	-155.6387
508.000000	77.979	-155.2555
515.000000	78.001	-154.9762
522.000000	78.034	-154.6990
530.000000	78.090	-154.3072
538.000000	78.142	-153.8927
545.000000	78.173	-153.5616
552.000000	78.191	-153.2175
560.000000	78.216	-152.8310
570.000000	78.262	-152.3661
580.000000	78.309	-151.8940
590.000000	78.348	-151.5688
600.000000	78.385	-151.1817
608.000000	78.424	-150.7915
615.000000	78.461	-150.5227
622.000000	78.496	-150.2924
630.000000	78.528	-149.9983
640.000000	78.568	-149.6284
650.000000	78.611	-149.2466
660.000000	78.656	-148.8257
670.000000	78.701	-148.3336
680.000000	78.748	-147.8615
690.000000	78.794	-147.5076
700.000000	78.836	-147.2107
710.000000	78.878	-146.9138
720.000000	78.929	-146.6026
730.000000	78.982	-146.2457
740.000000	79.030	-145.8393
750.000000	79.074	-145.4944
762.000000	79.127	-145.1335
775.000000	79.179	-144.7298
788.000000	79.236	-144.3773
800.000000	79.299	-144.0288
812.000000	79.356	-143.6652
825.000000	79.407	-143.3514
838.000000	79.462	-143.0021
850.000000	79.515	-142.6682
862.000000	79.566	-142.3330
875.000000	79.618	-142.0266
885.000000	79.659	-141.8216
900.000000	79.719	-141.4888
912.000000	79.768	-141.2449
925.000000	79.827	-140.9713
938.000000	79.880	-140.6448
950.000000	79.922	-140.3307
962.000000	79.966	-140.0738
975.000000	80.012	-139.8454
988.000000	80.059	-139.5585
1000.000000	80.107	-139.2808
1015.000000	80.167	-139.1450
1030.000000	80.220	-139.0200
1044.000000	80.270	-138.8502
1060.000000	80.321	-138.5883
1075.000000	80.363	-138.3100
1090.000000	80.412	-138.0345
1106.000000	80.462	-137.7973
1120.000000	80.506	-137.5622
1138.000000	80.562	-137.2362
1150.000000	80.596	-137.0360
1172.000000	80.655	-136.6676
1180.000000	80.677	-136.5242
1206.000000	80.735	-136.0585
1220.000000	80.752	-135.8318
1241.000000	80.777	-135.4982
1250.000000	80.790	-135.3591
1265.000000	80.828	-135.1332
1280.000000	80.898	-134.8756
1315.000000	81.154	-134.2076
1320.000000	81.194	-134.1143
1340.000000	81.347	-133.7785
1360.000000	81.484	-133.5036
1380.000000	81.596	-133.2681
1400.000000	81.684	-133.0661
1430.000000	81.802	-132.7946
1450.000000	81.881	-132.7181
1475.000000	81.978	-132.7211
1500.000000	82.061	-132.8145
1525.000000	82.114	-133.0246
1550.000000	82.127	-133.2542
1575.000000	82.093	-133.3911
1600.000000	82.025	-133.2597
1625.000000	81.940	-132.6940
1650.000000	81.870	-131.6838
1675.000000	81.848	-130.3476
1700.000000	81.883	-128.8890
1725.000000	81.966	-127.4918
1750.000000	82.090	-126.2238
1775.000000	82.249	-125.0814
1800.000000	82.420	-124.0888
1825.000000	82.594	-123.2450
1850.000000	82.767	-122.5043
1875.000000	82.942	-121.8602
1900.000000	83.119	-121.2995
1925.000000	83.291	-120.7967
1950.000000	83.463	-120.3859
1975.000000	83.638	-120.0384
2000.000000	83.818	-119.7492
2030.000000	84.035	-119.4736
2060.000000	84.247	-119.2317
2090.000000	84.453	-119.0253
2120.000000	84.648	-118.8913
2140.000000	84.774	-118.8196
2180.000000	85.038	-118.7408
2200.000000	85.170	-118.7536
2240.000000	85.418	-118.8491
2270.000000	85.592	-118.9342
2300.000000	85.763	-119.0528
2330.000000	85.931	-119.1886
2360.000000	86.101	-119.3467
2400.000000	86.329	-119.6173
2430.000000	86.494	-119.8483
2470.000000	86.708	-120.2021
2500.000000	86.868	-120.4742
2540.000000	87.079	-120.8566
2580.000000	87.278	-121.2964
2620.000000	87.469	-121.7301
2650.000000	87.608	-122.0317
2690.000000	87.793	-122.4236
2720.000000	87.934	-122.7265
2760.000000	88.131	-123.1678
2800.000000	88.337	-123.6416
2850.000000	88.610	-124.3205
2900.000000	88.892	-125.1318
2950.000000	89.173	-126.0790
3000.000000	89.451	-127.2620
3040.000000	89.666	-128.3989
3070.000000	89.820	-129.3452
3110.000000	90.011	-130.7080
3150.000000	90.182	-132.1766
3200.000000	90.369	-134.1257
3250.000000	90.521	-136.1559
3300.000000	90.636	-138.2194
3350.000000	90.717	-140.2564
3400.000000	90.767	-142.2367
3450.000000	90.794	-144.1358
3500.000000	90.800	-145.9445
3550.000000	90.791	-147.6742
3600.000000	90.771	-149.3110
3650.000000	90.734	-150.8290
3700.000000	90.681	-152.2486
3750.000000	90.616	-153.5883
3820.000000	90.516	-155.3269
3870.000000	90.442	-156.5068
3950.000000	90.318	-158.2255
4000.000000	90.240	-159.1492
4060.000000	90.146	-160.1256
4120.000000	90.048	-160.9937
4180.000000	89.944	-161.7891
4250.000000	89.822	-162.6552
4310.000000	89.721	-163.3722
4370.000000	89.632	-164.0715
4440.000000	89.552	-164.9070
4500.000000	89.504	-165.6793
4550.000000	89.470	-166.3525
4620.000000	89.422	-167.3004
4680.000000	89.377	-168.0771
4750.000000	89.313	-168.9642
4820.000000	89.238	-169.8588
4870.000000	89.178	-170.4979
4940.000000	89.079	-171.3761
5000.000000	88.979	-172.0293
5080.000000	88.851	-172.5688
5150.000000	88.785	-172.8170
5220.000000	88.770	-173.2205
5300.000000	88.757	-174.1039
5380.000000	88.706	-175.2776
5450.000000	88.632	-176.3551
5520.000000	88.538	-177.4046
5600.000000	88.414	-178.5788
5700.000000	88.233	-179.9580
5800.000000	88.025	178.8115
5900.000000	87.807	177.6481
6000.000000	87.593	176.5798
6080.000000	87.431	175.8449
6150.000000	87.300	175.2721
6220.000000	87.174	174.7344
6300.000000	87.032	174.1580
6400.000000	86.851	173.4668
6500.000000	86.670	172.8148
6600.000000	86.490	172.2326
6700.000000	86.314	171.6759
6800.000000	86.144	171.1056
6900.000000	85.975	170.4972
7000.000000	85.799	169.8901
7100.000000	85.612	169.3907
7200.000000	85.424	169.0113
7300.000000	85.245	168.7513
7400.000000	85.072	168.7135
7500.000000	84.905	168.9581
7620.000000	84.718	169.5698
7750.000000	84.535	170.5317
7880.000000	84.357	171.6301
8000.000000	84.210	172.5852
8120.000000	84.101	173.2707
8250.000000	84.023	173.5776
8380.000000	83.978	173.4844
8500.000000	83.961	173.0490
8620.000000	83.946	172.3004
8750.000000	83.909	171.1929
8850.000000	83.874	170.1587
9000.000000	83.828	168.3599
9120.000000	83.768	166.7064
9250.000000	83.668	164.6671
9380.000000	83.522	162.3256
9500.000000	83.316	159.9423
9620.000000	83.022	157.4573
9750.000000	82.600	154.8268
9880.000000	82.068	152.5301
10000.000000	81.496	150.9570
10150.000000	80.732	149.9151
10300.000000	79.967	149.8524
10440.000000	79.283	150.5214
10600.000000	78.539	151.9218
10750.000000	77.885	153.6831
10900.000000	77.294	155.7710
11060.000000	76.741	158.2777
11200.000000	76.310	160.6251
11380.000000	75.814	163.7675
11500.000000	75.519	165.9352
11720.000000	75.051	170.1186
11800.000000	74.900	171.6697
12060.000000	74.479	176.7057
12200.000000	74.302	179.4747
12410.000000	74.136	-176.4157
12500.000000	74.103	-174.6879
12650.000000	74.085	-171.8715
12800.000000	74.112	-169.1202
13150.000000	74.361	-162.8877
13200.000000	74.407	-162.0555
13400.000000	74.592	-158.9189
13600.000000	74.795	-156.0424
13800.000000	75.067	-153.4835
14000.000000	75.448	-151.4948
14300.000000	76.242	-149.7635
14500.000000	76.872	-149.6376
14750.000000	77.667	-150.9556
15000.000000	78.358	-154.1519
15250.000000	78.814	-159.2643
15500.000000	78.909	-165.5696
15750.000000	78.650	-171.8777
16000.000000	78.183	-177.1910
16250.000000	77.646	179.0956
16500.000000	77.114	177.0616
16750.000000	76.662	176.3536
17000.000000	76.366	176.5799
17250.000000	76.289	177.2141
17500.000000	76.441	177.6529
17750.000000	76.798	177.3113
18000.000000	77.335	175.3257
18250.000000	77.923	170.5805
18500.000000	78.299	162.2846
18750.000000	78.148	151.0829
19000.000000	77.271	139.6140
19250.000000	75.722	131.0554
19500.000000	73.689	126.9237
19750.000000	71.412	126.4096
20000.000000	69.752	126.9749
