* Measurement data measured by REW V5.20.7
* Source: Mic in at rear panel (Pink)(Realtek(R) Audio), MICROPHONE (마스), L, volume: 1.000
* Format: 128k Log Swept Sine, 1 sweep at -12.0 dBFS with no timing reference
* Dated: 2022. 5. 9 오후 12:42:35
* REW Settings:
*  C-weighting compensation: Off
*  Target level: 75.0 dB
* Note: 
* Measurement: R_AAC
* Smoothing: 1/24 octave
* Frequency Step: 1/48 octave
* Start Frequency: 20.300 Hz
*
* Freq(Hz)	SPL(dB)	Phase(degrees)
20.299999	85.350	178.7095
20.600000	85.344	178.4910
20.900000	85.328	178.1035
21.200001	85.305	177.7413
21.400000	85.286	177.5115
21.799999	85.241	177.0550
22.000000	85.215	176.8215
22.400000	85.164	176.3487
22.700001	85.131	175.9926
23.000000	85.106	175.6351
23.299999	85.087	175.2755
23.600000	85.071	174.9118
24.000000	85.057	174.4156
24.299999	85.053	174.0305
24.700001	85.054	173.4955
25.000000	85.055	173.0790
25.400000	85.054	172.5146
25.799999	85.049	171.9706
26.200001	85.040	171.4907
26.500000	85.031	171.1923
26.900000	85.019	170.8740
27.200001	85.014	170.6683
27.600000	85.012	170.3824
28.000000	85.008	170.0256
28.500000	84.984	169.4702
29.000000	84.930	168.9003
29.500000	84.862	168.4349
30.000000	84.800	168.0698
30.400000	84.760	167.7682
30.700001	84.738	167.4988
31.100000	84.714	167.0804
31.500000	84.687	166.6336
32.000000	84.653	166.1021
32.500000	84.629	165.6045
33.000000	84.614	165.0919
33.500000	84.594	164.5742
34.000000	84.567	164.1342
34.500000	84.545	163.7995
35.000000	84.534	163.4902
35.500000	84.521	163.1390
36.000000	84.491	162.8067
36.500000	84.451	162.5739
37.000000	84.416	162.3749
37.500000	84.378	162.0664
38.200001	84.294	161.4851
38.700001	84.224	161.1309
39.500000	84.136	160.3244
40.000000	84.038	159.3770
40.599998	83.791	158.3488
41.200001	83.475	158.5672
41.799999	83.333	159.8840
42.500000	83.496	160.6980
43.099998	83.673	159.7866
43.700001	83.714	158.3719
44.400002	83.666	157.3636
45.000000	83.654	156.9812
45.500000	83.665	156.6575
46.200001	83.663	156.1707
46.799999	83.642	155.8780
47.500000	83.620	155.6237
48.200001	83.590	155.3245
48.700001	83.552	155.1002
49.400002	83.471	154.8454
50.000000	83.392	154.6880
50.799999	83.294	154.4378
51.500000	83.211	154.0596
52.200001	83.114	153.6097
53.000000	83.004	153.2284
53.799999	82.923	153.0336
54.500000	82.884	152.8940
55.200001	82.862	152.6687
56.000000	82.829	152.3170
57.000000	82.766	151.9060
58.000000	82.677	151.4784
59.000000	82.548	151.1849
60.000000	82.451	151.1021
60.799999	82.408	150.8730
61.500000	82.367	150.5672
62.200001	82.322	150.3016
63.000000	82.280	150.0302
64.000000	82.232	149.6038
65.000000	82.162	149.2220
66.000000	82.080	149.0772
67.000000	82.010	149.0760
68.000000	81.947	148.9842
69.000000	81.860	148.7601
70.000000	81.746	148.5289
71.000000	81.630	148.3487
72.000000	81.526	148.2208
73.000000	81.437	148.1078
74.000000	81.364	148.0147
75.000000	81.308	147.8557
76.199997	81.225	147.6005
77.500000	81.128	147.5078
78.800003	81.049	147.3427
80.000000	80.964	147.0761
81.199997	80.857	146.8201
82.500000	80.736	146.7531
83.800003	80.665	146.8406
85.000000	80.623	146.7969
86.199997	80.562	146.7137
87.500000	80.484	146.6453
88.500000	80.416	146.5456
90.000000	80.297	146.3555
91.199997	80.192	146.2488
92.500000	80.091	146.2111
93.800003	80.006	146.2123
95.000000	79.937	146.2921
96.199997	79.882	146.4323
97.500000	79.832	146.4898
98.800003	79.756	146.4019
100.000000	79.661	146.3627
101.500000	79.548	146.3621
103.000000	79.449	146.3646
104.400002	79.375	146.4552
106.000000	79.308	146.6011
107.500000	79.229	146.7344
109.000000	79.136	146.9328
110.599998	79.039	146.9803
112.000000	78.946	146.9114
113.800003	78.852	146.8285
115.000000	78.800	146.8211
117.199997	78.724	147.2215
118.000000	78.707	147.4262
120.599998	78.626	147.6652
122.000000	78.526	147.6989
124.099998	78.384	147.9028
125.000000	78.337	147.9766
126.500000	78.271	148.0674
128.000000	78.208	148.1028
131.500000	78.016	148.2470
132.000000	77.987	148.2866
134.000000	77.890	148.5251
136.000000	77.836	148.7205
138.000000	77.776	148.8329
140.000000	77.683	149.0618
143.000000	77.544	149.5839
145.000000	77.472	149.8223
147.500000	77.389	149.8241
150.000000	77.264	149.9148
152.500000	77.165	150.5377
155.000000	77.107	150.9736
157.500000	77.013	151.2027
160.000000	76.941	151.4352
162.500000	76.905	151.6209
165.000000	76.855	152.0201
167.500000	76.805	152.3687
170.000000	76.711	152.4970
172.500000	76.640	152.7487
175.000000	76.606	153.0633
177.500000	76.554	153.4977
180.000000	76.458	153.9221
182.500000	76.340	154.2596
185.000000	76.241	154.6054
187.500000	76.162	155.0191
190.000000	76.076	155.4945
192.500000	75.971	155.9265
195.000000	75.879	156.4299
197.500000	75.855	156.9380
200.000000	75.867	157.2563
203.000000	75.829	157.5345
206.000000	75.697	157.6121
209.000000	75.520	157.0357
212.000000	75.389	157.0815
214.000000	75.410	157.8905
218.000000	75.433	159.4421
220.000000	75.414	159.8461
224.000000	75.585	160.3665
227.000000	75.744	161.0448
230.000000	75.597	161.3189
233.000000	75.352	161.4193
236.000000	75.273	161.4176
240.000000	75.193	161.9149
243.000000	75.098	162.6275
247.000000	75.061	163.4939
250.000000	75.039	164.2666
254.000000	74.933	165.5520
258.000000	74.760	167.0339
262.000000	74.693	167.9494
265.000000	74.656	168.3965
269.000000	74.606	169.0577
272.000000	74.679	169.4972
276.000000	74.871	170.2292
280.000000	74.938	171.3242
285.000000	74.961	172.2562
290.000000	75.113	172.4047
295.000000	75.169	172.3472
300.000000	75.134	172.0170
304.000000	75.143	171.6464
307.000000	75.129	171.6209
311.000000	75.057	171.9663
315.000000	74.995	172.4335
320.000000	74.954	172.8433
325.000000	74.921	173.1612
330.000000	74.882	173.4833
335.000000	74.828	174.0059
340.000000	74.786	174.5494
345.000000	74.767	175.0456
350.000000	74.741	175.4947
355.000000	74.704	175.9816
360.000000	74.699	176.4482
365.000000	74.712	176.8340
370.000000	74.708	177.3515
375.000000	74.705	178.0208
382.000000	74.688	178.8010
387.000000	74.671	179.2016
395.000000	74.632	-179.8165
400.000000	74.611	-179.3412
406.000000	74.637	-178.9496
412.000000	74.677	-178.3978
418.000000	74.685	-177.7365
425.000000	74.676	-177.1056
431.000000	74.683	-176.6431
437.000000	74.695	-176.1093
444.000000	74.695	-175.5401
450.000000	74.691	-175.0472
455.000000	74.709	-174.6669
462.000000	74.753	-174.2765
468.000000	74.783	-173.9755
475.000000	74.804	-173.5478
482.000000	74.822	-173.0827
487.000000	74.837	-172.7337
494.000000	74.852	-172.2861
500.000000	74.877	-171.9689
508.000000	74.928	-171.5377
515.000000	74.953	-171.1027
522.000000	74.979	-170.6176
530.000000	75.026	-170.0916
538.000000	75.073	-169.7015
545.000000	75.101	-169.4592
552.000000	75.129	-169.1300
560.000000	75.154	-168.7049
570.000000	75.175	-168.3090
580.000000	75.219	-168.0315
590.000000	75.279	-167.7640
600.000000	75.302	-167.3689
608.000000	75.326	-167.0107
615.000000	75.359	-166.8508
622.000000	75.385	-166.8224
630.000000	75.395	-166.7987
640.000000	75.419	-166.5488
650.000000	75.439	-166.1486
660.000000	75.461	-165.7259
670.000000	75.496	-165.4185
680.000000	75.509	-165.2348
690.000000	75.497	-165.1816
700.000000	75.491	-165.0618
710.000000	75.503	-164.7694
720.000000	75.509	-164.3940
730.000000	75.500	-164.1389
740.000000	75.502	-163.9083
750.000000	75.507	-163.6732
762.000000	75.489	-163.4015
775.000000	75.474	-163.0481
788.000000	75.469	-162.6491
800.000000	75.458	-162.2406
812.000000	75.438	-161.7198
825.000000	75.417	-161.1640
838.000000	75.424	-160.6837
850.000000	75.428	-160.2074
862.000000	75.411	-159.6446
875.000000	75.401	-159.0524
885.000000	75.401	-158.6720
900.000000	75.405	-158.0883
912.000000	75.415	-157.5730
925.000000	75.431	-157.0037
938.000000	75.462	-156.4079
950.000000	75.487	-155.8096
962.000000	75.513	-155.2450
975.000000	75.553	-154.7292
988.000000	75.605	-154.1542
1000.000000	75.644	-153.5782
1015.000000	75.665	-153.0007
1030.000000	75.694	-152.5213
1044.000000	75.729	-152.0977
1060.000000	75.782	-151.6601
1075.000000	75.848	-151.1544
1090.000000	75.910	-150.5733
1106.000000	75.962	-150.0557
1120.000000	76.005	-149.6807
1138.000000	76.073	-149.3077
1150.000000	76.126	-149.0334
1172.000000	76.214	-148.4358
1180.000000	76.240	-148.2520
1206.000000	76.296	-147.7501
1220.000000	76.314	-147.4366
1241.000000	76.333	-146.9458
1250.000000	76.347	-146.7510
1265.000000	76.394	-146.4789
1280.000000	76.474	-146.2398
1315.000000	76.745	-145.6266
1320.000000	76.783	-145.5564
1340.000000	76.924	-145.2820
1360.000000	77.044	-144.8928
1380.000000	77.129	-144.4865
1400.000000	77.181	-144.1242
1430.000000	77.258	-143.6977
1450.000000	77.306	-143.2968
1475.000000	77.376	-142.6472
1500.000000	77.452	-142.1195
1525.000000	77.534	-141.5101
1550.000000	77.630	-140.8291
1575.000000	77.752	-140.2219
1600.000000	77.878	-139.5975
1625.000000	77.999	-138.9843
1650.000000	78.124	-138.5532
1675.000000	78.267	-138.1906
1700.000000	78.420	-137.8168
1725.000000	78.571	-137.5343
1750.000000	78.705	-137.3102
1775.000000	78.834	-137.0749
1800.000000	78.985	-136.9247
1825.000000	79.139	-136.9166
1850.000000	79.283	-136.9566
1875.000000	79.435	-137.0882
1900.000000	79.578	-137.3295
1925.000000	79.701	-137.5909
1950.000000	79.818	-137.7966
1975.000000	79.933	-137.9737
2000.000000	80.049	-138.1350
2030.000000	80.174	-138.4238
2060.000000	80.279	-138.8088
2090.000000	80.371	-139.2072
2120.000000	80.453	-139.6137
2140.000000	80.506	-139.8604
2180.000000	80.604	-140.2130
2200.000000	80.654	-140.3074
2240.000000	80.748	-140.4286
2270.000000	80.808	-140.5951
2300.000000	80.876	-140.7005
2330.000000	80.960	-140.7956
2360.000000	81.034	-140.9273
2400.000000	81.119	-140.9745
2430.000000	81.200	-140.9819
2470.000000	81.314	-141.1851
2500.000000	81.396	-141.3718
2540.000000	81.512	-141.5919
2580.000000	81.617	-141.7365
2620.000000	81.707	-141.9796
2650.000000	81.784	-142.1364
2690.000000	81.912	-142.2551
2720.000000	82.012	-142.3552
2760.000000	82.142	-142.5523
2800.000000	82.266	-142.7241
2850.000000	82.424	-143.0487
2900.000000	82.595	-143.4765
2950.000000	82.800	-143.9588
3000.000000	83.019	-144.4842
3040.000000	83.200	-145.0937
3070.000000	83.346	-145.6116
3110.000000	83.538	-146.3835
3150.000000	83.710	-147.3565
3200.000000	83.909	-148.8556
3250.000000	84.098	-150.6200
3300.000000	84.264	-152.6360
3350.000000	84.384	-154.7020
3400.000000	84.456	-156.7894
3450.000000	84.493	-158.9340
3500.000000	84.498	-160.9757
3550.000000	84.467	-162.8948
3600.000000	84.414	-164.7537
3650.000000	84.354	-166.5837
3700.000000	84.278	-168.2983
3750.000000	84.190	-169.8765
3820.000000	84.051	-171.9814
3870.000000	83.946	-173.3571
3950.000000	83.780	-175.4922
4000.000000	83.684	-176.8478
4060.000000	83.553	-178.5287
4120.000000	83.394	179.7428
4180.000000	83.198	178.0208
4250.000000	82.929	176.1185
4310.000000	82.663	174.5970
4370.000000	82.371	173.1527
4440.000000	82.012	171.6599
4500.000000	81.701	170.6519
4550.000000	81.456	170.0255
4620.000000	81.117	169.2660
4680.000000	80.835	168.6855
4750.000000	80.527	168.2031
4820.000000	80.221	167.9137
4870.000000	80.001	167.7198
4940.000000	79.691	167.5108
5000.000000	79.413	167.4020
5080.000000	79.018	167.3125
5150.000000	78.670	167.4543
5220.000000	78.336	167.8283
5300.000000	77.945	168.5046
5380.000000	77.566	169.4725
5450.000000	77.274	170.4406
5520.000000	77.009	171.4780
5600.000000	76.721	172.7240
5700.000000	76.409	174.4214
5800.000000	76.150	176.2494
5900.000000	75.921	178.0487
6000.000000	75.717	179.7122
6080.000000	75.585	-178.8780
6150.000000	75.505	-177.6225
6220.000000	75.452	-176.4525
6300.000000	75.418	-175.1708
6400.000000	75.403	-173.6609
6500.000000	75.413	-172.3502
6600.000000	75.452	-171.2339
6700.000000	75.499	-170.3210
6800.000000	75.568	-169.5027
6900.000000	75.652	-168.9423
7000.000000	75.738	-168.5043
7100.000000	75.825	-168.2484
7200.000000	75.900	-168.1049
7300.000000	75.984	-167.9852
7400.000000	76.102	-167.9395
7500.000000	76.243	-167.9156
7620.000000	76.416	-168.0741
7750.000000	76.612	-168.6397
7880.000000	76.765	-170.1223
8000.000000	76.799	-172.2985
8120.000000	76.706	-175.1232
8250.000000	76.439	-178.4027
8380.000000	76.036	178.8519
8500.000000	75.627	177.0084
8620.000000	75.219	175.6195
8750.000000	74.791	174.6037
8850.000000	74.494	174.1939
9000.000000	74.129	173.8107
9120.000000	73.879	173.5263
9250.000000	73.651	172.9991
9380.000000	73.455	172.1718
9500.000000	73.261	171.2467
9620.000000	73.035	170.1501
9750.000000	72.737	168.9044
9880.000000	72.389	167.7796
10000.000000	72.049	166.8642
10150.000000	71.622	165.8843
10300.000000	71.186	165.1362
10440.000000	70.785	164.5925
10600.000000	70.302	164.2950
10750.000000	69.837	164.1852
10900.000000	69.398	164.1404
11060.000000	68.957	164.1106
11200.000000	68.602	164.0407
11380.000000	68.165	163.9605
11500.000000	67.854	163.8992
11720.000000	67.281	164.0128
11800.000000	67.069	164.0717
12060.000000	66.316	164.2442
12200.000000	65.897	164.5358
12410.000000	65.281	165.0977
12500.000000	65.026	165.5060
12650.000000	64.609	166.4567
12800.000000	64.219	167.6128
13150.000000	63.481	171.4577
13200.000000	63.384	172.1128
13400.000000	63.013	174.5949
13600.000000	62.678	177.2110
13800.000000	62.396	-179.9547
14000.000000	62.295	-177.0435
14300.000000	62.548	-172.6941
14500.000000	62.901	-169.7354
14750.000000	63.561	-166.4137
15000.000000	64.571	-164.6683
15250.000000	66.010	-164.7193
15500.000000	67.992	-168.4057
15750.000000	70.267	174.7064
16000.000000	71.808	50.4747
16250.000000	71.075	59.0745
16500.000000	66.648	166.2881
16750.000000	58.441	-80.9160
17000.000000	48.405	-50.7812
17250.000000	42.271	110.5664
17500.000000	41.606	-73.6406
17750.000000	41.906	24.7578
18000.000000	42.139	89.3672
18250.000000	42.430	137.2031
18500.000000	42.926	112.2812
18750.000000	43.433	14.7188
19000.000000	43.797	-161.3125
19250.000000	44.000	-158.4688
19500.000000	44.165	-68.5156
19750.000000	44.411	34.5469
20000.000000	44.558	171.9688
