* Measurement data measured by REW V5.20.5
* Source: Mic in at rear panel (Pink)(Realtek(R) Audio), MICROPHONE (마스), L, volume: 1.000
* Format: 128k Log Swept Sine, 1 sweep at -12.0 dBFS with no timing reference
* Dated: 2022. 4. 9 오후 10:58:53
* REW Settings:
*  C-weighting compensation: Off
*  Target level: 75.0 dB
* Note: 
* Measurement: 4월 9
* Smoothing: 1/24 octave
* Frequency Step: 1/48 octave
* Start Frequency: 20.300 Hz
*
* Freq(Hz)	SPL(dB)	Phase(degrees)
20.299999	90.243	-2.2375
20.600000	90.235	-2.5456
20.900000	90.217	-3.0938
21.200001	90.197	-3.6110
21.400000	90.181	-3.9428
21.799999	90.143	-4.6060
22.000000	90.120	-4.9437
22.400000	90.069	-5.6151
22.700001	90.033	-6.1043
23.000000	90.002	-6.5790
23.299999	89.973	-7.0412
23.600000	89.944	-7.4951
24.000000	89.907	-8.0923
24.299999	89.880	-8.5323
24.700001	89.846	-9.0983
25.000000	89.819	-9.5010
25.400000	89.787	-10.0128
25.799999	89.762	-10.5224
26.200001	89.741	-11.0625
26.500000	89.721	-11.4919
26.900000	89.680	-12.0727
27.200001	89.639	-12.4833
27.600000	89.573	-12.9622
28.000000	89.504	-13.3606
28.500000	89.421	-13.8097
29.000000	89.342	-14.2840
29.500000	89.265	-14.7784
30.000000	89.187	-15.2392
30.400000	89.133	-15.5926
30.700001	89.103	-15.8800
31.100000	89.074	-16.3337
31.500000	89.044	-16.8689
32.000000	88.991	-17.5748
32.500000	88.923	-18.1928
33.000000	88.857	-18.6449
33.500000	88.802	-18.9590
34.000000	88.765	-19.2414
34.500000	88.737	-19.6111
35.000000	88.694	-20.0869
35.500000	88.616	-20.4996
36.000000	88.520	-20.6180
36.500000	88.453	-20.4603
37.000000	88.442	-20.4245
37.500000	88.438	-20.8909
38.200001	88.308	-22.0340
38.700001	88.125	-22.3974
39.500000	87.915	-21.8189
40.000000	87.895	-21.6100
40.599998	87.881	-22.0668
41.200001	87.790	-22.7201
41.799999	87.682	-23.0270
42.500000	87.639	-23.3123
43.099998	87.635	-23.9215
43.700001	87.608	-24.6587
44.400002	87.558	-25.3888
45.000000	87.505	-25.9438
45.500000	87.441	-26.3048
46.200001	87.341	-26.4491
46.799999	87.294	-26.3690
47.500000	87.278	-26.5411
48.200001	87.227	-26.9981
48.700001	87.157	-27.2305
49.400002	87.057	-27.2979
50.000000	86.999	-27.3740
50.799999	86.924	-27.7996
51.500000	86.824	-28.2511
52.200001	86.720	-28.5003
53.000000	86.649	-28.6560
53.799999	86.611	-28.9349
54.500000	86.569	-29.2238
55.200001	86.521	-29.4474
56.000000	86.464	-29.6726
57.000000	86.367	-29.9428
58.000000	86.244	-30.0582
59.000000	86.134	-30.1795
60.000000	86.028	-30.5569
60.799999	85.924	-30.8712
61.500000	85.836	-30.9649
62.200001	85.774	-30.9096
63.000000	85.743	-30.8561
64.000000	85.722	-30.9836
65.000000	85.672	-31.1105
66.000000	85.604	-30.9702
67.000000	85.539	-30.7209
68.000000	85.470	-30.5216
69.000000	85.388	-30.5948
70.000000	85.252	-30.8823
71.000000	85.103	-31.0468
72.000000	84.992	-31.2479
73.000000	84.898	-31.5947
74.000000	84.805	-31.9336
75.000000	84.726	-32.0567
76.199997	84.671	-32.0789
77.500000	84.604	-32.1363
78.800003	84.513	-32.0546
80.000000	84.437	-31.9237
81.199997	84.366	-32.1198
82.500000	84.238	-32.4689
83.800003	84.123	-32.5428
85.000000	84.050	-32.5051
86.199997	83.984	-32.3239
87.500000	83.930	-32.0164
88.500000	83.889	-31.8544
90.000000	83.796	-31.7007
91.199997	83.719	-31.5783
92.500000	83.657	-31.6772
93.800003	83.580	-31.9495
95.000000	83.515	-31.9437
96.199997	83.502	-31.8036
97.500000	83.478	-31.9540
98.800003	83.346	-31.8797
100.000000	83.201	-31.3528
101.500000	83.048	-30.7780
103.000000	82.907	-30.7253
104.400002	82.771	-30.9730
106.000000	82.664	-31.2128
107.500000	82.637	-31.3906
109.000000	82.615	-31.7277
110.599998	82.502	-31.7077
112.000000	82.409	-31.2134
113.800003	82.340	-30.6409
115.000000	82.310	-30.3894
117.199997	82.263	-29.7799
118.000000	82.260	-29.4792
120.599998	82.230	-29.1584
122.000000	82.120	-29.1767
124.099998	81.947	-29.0615
125.000000	81.884	-29.0235
126.500000	81.810	-28.8783
128.000000	81.772	-28.7556
131.500000	81.620	-28.4799
132.000000	81.589	-28.3886
134.000000	81.483	-27.9088
136.000000	81.425	-27.5150
138.000000	81.374	-27.3375
140.000000	81.305	-27.1363
143.000000	81.207	-26.8197
145.000000	81.132	-26.6502
147.500000	81.016	-26.2979
150.000000	80.926	-25.9297
152.500000	80.839	-25.6732
155.000000	80.761	-25.1998
157.500000	80.697	-24.9098
160.000000	80.614	-24.7046
162.500000	80.582	-24.3467
165.000000	80.536	-24.1416
167.500000	80.402	-23.8614
170.000000	80.246	-23.4612
172.500000	80.155	-23.0854
175.000000	80.101	-22.8855
177.500000	80.003	-22.5594
180.000000	79.878	-21.9806
182.500000	79.750	-21.3671
185.000000	79.596	-20.9420
187.500000	79.448	-20.5740
190.000000	79.400	-20.0957
192.500000	79.452	-19.0559
195.000000	79.522	-17.8505
197.500000	79.415	-17.3000
200.000000	79.141	-16.8089
203.000000	78.893	-15.6526
206.000000	78.893	-13.7390
209.000000	79.191	-12.4664
212.000000	79.500	-12.3231
214.000000	79.636	-11.8024
218.000000	79.822	-10.6664
220.000000	79.842	-10.7353
224.000000	79.820	-11.3914
227.000000	79.787	-11.4151
230.000000	79.729	-11.4899
233.000000	79.618	-12.0011
236.000000	79.529	-12.5707
240.000000	79.422	-12.8477
243.000000	79.337	-12.5455
247.000000	79.256	-12.0108
250.000000	79.189	-11.6549
254.000000	79.088	-11.4667
258.000000	78.993	-11.3994
262.000000	78.925	-10.7968
265.000000	78.890	-10.3243
269.000000	78.833	-9.9765
272.000000	78.779	-9.7351
276.000000	78.702	-9.3531
280.000000	78.637	-8.7809
285.000000	78.565	-7.9149
290.000000	78.547	-7.2225
295.000000	78.550	-6.5485
300.000000	78.505	-5.9650
304.000000	78.427	-5.4903
307.000000	78.356	-5.1538
311.000000	78.272	-4.7007
315.000000	78.230	-4.1143
320.000000	78.249	-3.2528
325.000000	78.221	-2.5214
330.000000	78.130	-2.1860
335.000000	78.078	-1.8700
340.000000	78.033	-1.3365
345.000000	78.019	-0.6590
350.000000	78.004	-0.1614
355.000000	77.967	0.2317
360.000000	77.927	0.9462
365.000000	77.863	1.5330
370.000000	77.793	2.1691
375.000000	77.738	2.7460
382.000000	77.699	3.3091
387.000000	77.693	3.8367
395.000000	77.640	5.0319
400.000000	77.631	5.7157
406.000000	77.632	6.3051
412.000000	77.601	7.2356
418.000000	77.571	8.1160
425.000000	77.553	8.5586
431.000000	77.530	9.0343
437.000000	77.446	9.7107
444.000000	77.417	10.4800
450.000000	77.451	11.0264
455.000000	77.454	11.5925
462.000000	77.483	12.5432
468.000000	77.495	13.1613
475.000000	77.429	13.8648
482.000000	77.379	14.5963
487.000000	77.366	14.9796
494.000000	77.344	15.4251
500.000000	77.301	15.9588
508.000000	77.248	16.8378
515.000000	77.239	17.5532
522.000000	77.273	18.3481
530.000000	77.304	19.0741
538.000000	77.293	19.9802
545.000000	77.224	20.8229
552.000000	77.151	21.4078
560.000000	77.140	22.0385
570.000000	77.131	22.8799
580.000000	77.113	24.1641
590.000000	77.126	25.7614
600.000000	77.103	27.0719
608.000000	77.056	27.7200
615.000000	77.040	28.1100
622.000000	77.047	28.6087
630.000000	77.056	29.4193
640.000000	77.094	30.5083
650.000000	77.139	31.6075
660.000000	77.141	32.8143
670.000000	77.135	34.0369
680.000000	77.155	35.2045
690.000000	77.182	36.2310
700.000000	77.195	37.2762
710.000000	77.233	38.2996
720.000000	77.295	39.3040
730.000000	77.342	40.4111
740.000000	77.375	41.4396
750.000000	77.418	42.3629
762.000000	77.506	43.5832
775.000000	77.611	44.9837
788.000000	77.670	46.1047
800.000000	77.747	46.8745
812.000000	77.854	47.4634
825.000000	77.955	48.3114
838.000000	78.044	49.4766
850.000000	78.098	50.6478
862.000000	78.125	51.6562
875.000000	78.185	52.7750
885.000000	78.259	53.6006
900.000000	78.357	54.4857
912.000000	78.430	55.1962
925.000000	78.531	56.0685
938.000000	78.622	56.9826
950.000000	78.728	57.6981
962.000000	78.840	58.3879
975.000000	78.934	59.2612
988.000000	78.973	60.1786
1000.000000	79.014	60.8854
1015.000000	79.200	61.5829
1030.000000	79.354	62.2418
1044.000000	79.463	62.8640
1060.000000	79.618	63.6955
1075.000000	79.743	64.4680
1090.000000	79.840	65.1062
1106.000000	79.956	65.5894
1120.000000	80.079	66.0419
1138.000000	80.239	66.7279
1150.000000	80.337	67.1748
1172.000000	80.494	67.8271
1180.000000	80.545	68.0348
1206.000000	80.709	68.6475
1220.000000	80.767	68.9271
1241.000000	80.863	69.4883
1250.000000	80.920	69.7249
1265.000000	81.024	70.1037
1280.000000	81.145	70.6196
1315.000000	81.488	71.5817
1320.000000	81.541	71.6546
1340.000000	81.753	71.9555
1360.000000	81.942	72.4241
1380.000000	82.112	72.8261
1400.000000	82.230	73.2245
1430.000000	82.395	73.9324
1450.000000	82.496	74.3711
1475.000000	82.655	74.9903
1500.000000	82.803	75.5062
1525.000000	82.959	76.0817
1550.000000	83.124	76.6270
1575.000000	83.287	77.0974
1600.000000	83.438	77.5972
1625.000000	83.592	77.9881
1650.000000	83.780	78.4278
1675.000000	83.958	78.9210
1700.000000	84.132	79.3425
1725.000000	84.309	79.6850
1750.000000	84.489	80.0157
1775.000000	84.667	80.3100
1800.000000	84.852	80.5751
1825.000000	85.056	80.8237
1850.000000	85.266	81.0725
1875.000000	85.471	81.2779
1900.000000	85.667	81.4137
1925.000000	85.863	81.4962
1950.000000	86.065	81.5415
1975.000000	86.277	81.4853
2000.000000	86.493	81.3812
2030.000000	86.758	81.2818
2060.000000	87.017	81.0648
2090.000000	87.274	80.6227
2120.000000	87.529	80.0692
2140.000000	87.694	79.6531
2180.000000	88.011	78.7385
2200.000000	88.168	78.2484
2240.000000	88.477	77.1478
2270.000000	88.694	76.1758
2300.000000	88.900	75.0745
2330.000000	89.094	73.8691
2360.000000	89.280	72.5665
2400.000000	89.504	70.7182
2430.000000	89.651	69.2538
2470.000000	89.820	67.1690
2500.000000	89.924	65.5862
2540.000000	90.035	63.4468
2580.000000	90.097	61.2685
2620.000000	90.125	59.0854
2650.000000	90.129	57.4596
2690.000000	90.104	55.3327
2720.000000	90.066	53.7985
2760.000000	89.990	51.8822
2800.000000	89.885	50.0974
2850.000000	89.720	48.0580
2900.000000	89.540	46.2685
2950.000000	89.354	44.6873
3000.000000	89.144	43.3503
3040.000000	88.963	42.3974
3070.000000	88.823	41.7650
3110.000000	88.632	41.0652
3150.000000	88.446	40.4987
3200.000000	88.219	39.9078
3250.000000	87.990	39.4945
3300.000000	87.776	39.2589
3350.000000	87.580	39.1058
3400.000000	87.394	39.0460
3450.000000	87.211	39.1327
3500.000000	87.031	39.3066
3550.000000	86.864	39.6067
3600.000000	86.707	40.0364
3650.000000	86.561	40.5616
3700.000000	86.419	41.1374
3750.000000	86.297	41.7729
3820.000000	86.182	42.7927
3870.000000	86.122	43.5072
3950.000000	86.054	44.5403
4000.000000	86.034	45.1139
4060.000000	86.032	45.6824
4120.000000	86.025	46.1918
4180.000000	85.996	46.6755
4250.000000	85.952	47.2877
4310.000000	85.921	47.8842
4370.000000	85.913	48.4758
4440.000000	85.955	49.0485
4500.000000	86.017	49.4166
4550.000000	86.083	49.6276
4620.000000	86.184	49.8242
4680.000000	86.278	49.9016
4750.000000	86.403	49.8738
4820.000000	86.514	49.6802
4870.000000	86.591	49.4597
4940.000000	86.697	49.0536
5000.000000	86.774	48.6103
5080.000000	86.856	47.8906
5150.000000	86.923	47.1531
5220.000000	86.979	46.3623
5300.000000	87.016	45.3202
5380.000000	87.032	44.2048
5450.000000	87.031	43.2156
5520.000000	87.014	42.2901
5600.000000	86.978	41.2751
5700.000000	86.902	40.0168
5800.000000	86.815	38.7269
5900.000000	86.716	37.3250
6000.000000	86.607	35.9979
6080.000000	86.514	35.0259
6150.000000	86.427	34.1997
6220.000000	86.334	33.4901
6300.000000	86.216	32.8767
6400.000000	86.065	32.2826
6500.000000	85.934	31.9203
6600.000000	85.835	31.8093
6700.000000	85.759	31.7754
6800.000000	85.738	31.7670
6900.000000	85.768	31.7941
7000.000000	85.829	31.7206
7100.000000	85.936	31.5639
7200.000000	86.102	31.2553
7300.000000	86.324	30.6669
7400.000000	86.593	29.7127
7500.000000	86.899	28.3495
7620.000000	87.288	26.0447
7750.000000	87.668	22.5983
7880.000000	87.922	18.0395
8000.000000	88.010	12.8356
8120.000000	87.958	6.9807
8250.000000	87.756	0.0379
8380.000000	87.374	-7.5107
8500.000000	86.822	-14.6243
8620.000000	86.061	-21.0786
8750.000000	85.021	-26.7364
8850.000000	84.138	-30.1022
9000.000000	82.798	-33.5347
9120.000000	81.744	-35.0566
9250.000000	80.649	-35.7376
9380.000000	79.645	-35.5837
9500.000000	78.786	-34.8687
9620.000000	77.970	-33.7019
9750.000000	77.156	-32.1167
9880.000000	76.395	-30.2533
10000.000000	75.747	-28.2539
10150.000000	75.032	-25.5567
10300.000000	74.404	-22.7896
10440.000000	73.896	-20.1923
10600.000000	73.412	-17.1234
10750.000000	73.007	-14.2544
10900.000000	72.624	-11.4089
11060.000000	72.274	-7.9748
11200.000000	72.045	-4.8351
11380.000000	71.852	-1.2835
11500.000000	71.762	1.1195
11720.000000	71.686	5.4306
11800.000000	71.690	6.9371
12060.000000	71.847	11.5541
12200.000000	71.991	13.8208
12410.000000	72.333	16.8392
12500.000000	72.533	17.9643
12650.000000	72.923	19.6292
12800.000000	73.382	20.9040
13150.000000	74.762	21.9095
13200.000000	74.982	21.8026
13400.000000	75.862	20.4438
13600.000000	76.745	17.1965
13800.000000	77.593	11.7379
14000.000000	78.278	3.9213
14300.000000	78.659	-10.6764
14500.000000	78.426	-20.3634
14750.000000	77.671	-30.0522
15000.000000	76.700	-36.5636
15250.000000	75.753	-40.2025
15500.000000	74.982	-42.0869
15750.000000	74.505	-43.0160
16000.000000	74.457	-44.1698
16250.000000	74.839	-46.7278
16500.000000	75.547	-51.4564
16750.000000	76.413	-59.7489
17000.000000	77.015	-72.8809
17250.000000	76.926	-89.8405
17500.000000	75.969	-106.7030
17750.000000	74.282	-119.7090
18000.000000	72.238	-127.6502
18250.000000	70.176	-131.1981
18500.000000	68.303	-132.3147
18750.000000	66.714	-132.1803
19000.000000	65.377	-131.4348
19250.000000	64.232	-137.1212
19500.000000	63.180	173.6041
19750.000000	62.282	2.1994
20000.000000	61.793	168.4529
