* Measurement data measured by REW V5.20.7
* Source: Mic in at rear panel (Pink)(Realtek(R) Audio), MICROPHONE (마스), L, volume: 1.000
* Format: 128k Log Swept Sine, 1 sweep at -12.0 dBFS with no timing reference
* Dated: 2022. 5. 9 오후 12:52:41
* REW Settings:
*  C-weighting compensation: Off
*  Target level: 75.0 dB
* Note: 
* Measurement: R
* Smoothing: 1/24 octave
* Frequency Step: 1/48 octave
* Start Frequency: 20.300 Hz
*
* Freq(Hz)	SPL(dB)	Phase(degrees)
20.299999	82.292	-169.3746
20.600000	82.288	-169.5961
20.900000	82.275	-169.9697
21.200001	82.249	-170.2624
21.400000	82.230	-170.4137
21.799999	82.192	-170.6755
22.000000	82.175	-170.8141
22.400000	82.143	-171.1322
22.700001	82.120	-171.3597
23.000000	82.102	-171.4833
23.299999	82.103	-171.4357
23.600000	82.144	-171.2594
24.000000	82.293	-171.0743
24.299999	82.469	-171.2810
24.700001	82.730	-172.3346
25.000000	82.881	-173.7007
25.400000	82.957	-175.9151
25.799999	82.878	-177.8257
26.200001	82.707	-178.7472
26.500000	82.590	-178.6974
26.900000	82.529	-177.9876
27.200001	82.569	-177.4114
27.600000	82.690	-177.0700
28.000000	82.799	-177.3273
28.500000	82.830	-177.9731
29.000000	82.777	-178.2766
29.500000	82.732	-178.1632
30.000000	82.726	-178.0706
30.400000	82.723	-178.2091
30.700001	82.711	-178.4084
31.100000	82.680	-178.6843
31.500000	82.642	-178.8995
32.000000	82.607	-179.1202
32.500000	82.594	-179.4288
33.000000	82.586	-179.8781
33.500000	82.568	179.6355
34.000000	82.550	179.2391
34.500000	82.552	178.9370
35.000000	82.582	178.6301
35.500000	82.624	178.2510
36.000000	82.661	177.8546
36.500000	82.694	177.5158
37.000000	82.729	177.1867
37.500000	82.748	176.7639
38.200001	82.709	176.2049
38.700001	82.653	176.1600
39.500000	82.638	176.3479
40.000000	82.639	175.9026
40.599998	82.504	174.9075
41.200001	82.198	174.7934
41.799999	81.957	176.1683
42.500000	82.032	177.7963
43.099998	82.232	177.4738
43.700001	82.318	176.0676
44.400002	82.279	174.6172
45.000000	82.246	173.8405
45.500000	82.240	173.2546
46.200001	82.231	172.5016
46.799999	82.230	172.0590
47.500000	82.260	171.6125
48.200001	82.281	171.1160
48.700001	82.276	170.8614
49.400002	82.257	170.7223
50.000000	82.242	170.6350
50.799999	82.202	170.4588
51.500000	82.152	170.3875
52.200001	82.122	170.2899
53.000000	82.090	169.9520
53.799999	82.037	169.6942
54.500000	82.020	169.6284
55.200001	82.036	169.3328
56.000000	82.013	168.6838
57.000000	81.903	168.2245
58.000000	81.795	168.3437
59.000000	81.762	168.7637
60.000000	81.840	168.5392
60.799999	81.860	167.6351
61.500000	81.819	166.8422
62.200001	81.768	166.1935
63.000000	81.702	165.4156
64.000000	81.555	164.6929
65.000000	81.426	164.9022
66.000000	81.444	165.3535
67.000000	81.497	165.0656
68.000000	81.448	164.6035
69.000000	81.360	164.5130
70.000000	81.284	164.4771
71.000000	81.216	164.3441
72.000000	81.149	164.1512
73.000000	81.089	163.9692
74.000000	81.042	163.7264
75.000000	80.989	163.4640
76.199997	80.927	163.2223
77.500000	80.838	162.7263
78.800003	80.649	162.4563
80.000000	80.522	162.9535
81.199997	80.528	162.9724
82.500000	80.488	162.2583
83.800003	80.415	161.9622
85.000000	80.392	162.0000
86.199997	80.375	162.1223
87.500000	80.353	162.3194
88.500000	80.326	162.2943
90.000000	80.213	162.0187
91.199997	80.098	161.8389
92.500000	79.998	161.6134
93.800003	79.952	161.3676
95.000000	79.954	161.0092
96.199997	79.947	160.5550
97.500000	79.884	160.2464
98.800003	79.782	160.4182
100.000000	79.703	160.7602
101.500000	79.611	160.9906
103.000000	79.516	161.1181
104.400002	79.450	161.2166
106.000000	79.393	161.2269
107.500000	79.315	161.1566
109.000000	79.221	161.2675
110.599998	79.160	161.3669
112.000000	79.113	161.3162
113.800003	79.014	161.4847
115.000000	78.923	161.8912
117.199997	78.683	162.6027
118.000000	78.546	162.8665
120.599998	78.330	164.7169
122.000000	78.468	164.3177
124.099998	78.550	162.9583
125.000000	78.536	162.7907
126.500000	78.480	163.0954
128.000000	78.415	163.5367
131.500000	78.228	162.8749
132.000000	78.206	162.7638
134.000000	78.154	162.7119
136.000000	78.079	163.6899
138.000000	77.997	164.8801
140.000000	77.834	165.2610
143.000000	77.614	165.6400
145.000000	77.522	166.1580
147.500000	77.378	167.2922
150.000000	77.243	168.0883
152.500000	77.242	168.5151
155.000000	77.243	168.8551
157.500000	77.160	169.5676
160.000000	77.056	169.7499
162.500000	76.991	170.3997
165.000000	77.185	172.6420
167.500000	77.623	174.6177
170.000000	77.918	174.5360
172.500000	77.896	173.8635
175.000000	77.747	173.7627
177.500000	77.681	174.0588
180.000000	77.711	173.8457
182.500000	77.674	173.3881
185.000000	77.583	173.2631
187.500000	77.486	173.2398
190.000000	77.384	173.1945
192.500000	77.290	173.0585
195.000000	77.199	172.9628
197.500000	77.145	173.3027
200.000000	77.123	173.7069
203.000000	77.093	174.1077
206.000000	77.110	174.8212
209.000000	77.141	176.3362
212.000000	77.152	177.5303
214.000000	77.086	177.6492
218.000000	76.888	177.7024
220.000000	76.848	177.6481
224.000000	76.996	177.6461
227.000000	77.201	178.2473
230.000000	77.161	178.9693
233.000000	76.958	179.5787
236.000000	76.855	179.9066
240.000000	76.857	-179.3997
243.000000	76.852	-178.8318
247.000000	76.847	-178.0795
250.000000	76.828	-177.4551
254.000000	76.782	-176.6306
258.000000	76.781	-175.9240
262.000000	76.792	-175.5395
265.000000	76.786	-175.3102
269.000000	76.777	-174.8710
272.000000	76.774	-174.4489
276.000000	76.770	-173.8447
280.000000	76.771	-173.3050
285.000000	76.791	-172.8082
290.000000	76.831	-172.3105
295.000000	76.852	-171.6213
300.000000	76.850	-170.8773
304.000000	76.864	-170.2885
307.000000	76.884	-169.8809
311.000000	76.920	-169.4316
315.000000	76.958	-169.0373
320.000000	77.003	-168.5620
325.000000	77.042	-168.1858
330.000000	77.073	-167.7167
335.000000	77.100	-167.1241
340.000000	77.128	-166.7290
345.000000	77.168	-166.3612
350.000000	77.212	-165.9447
355.000000	77.247	-165.5438
360.000000	77.276	-165.1302
365.000000	77.294	-164.8476
370.000000	77.307	-164.6301
375.000000	77.322	-164.3956
382.000000	77.355	-163.9705
387.000000	77.386	-163.6051
395.000000	77.456	-163.0162
400.000000	77.489	-162.6283
406.000000	77.528	-162.2036
412.000000	77.555	-161.8728
418.000000	77.591	-161.5479
425.000000	77.629	-161.1700
431.000000	77.651	-160.8443
437.000000	77.674	-160.5710
444.000000	77.707	-160.2299
450.000000	77.737	-159.8565
455.000000	77.764	-159.5188
462.000000	77.799	-159.1262
468.000000	77.819	-158.8505
475.000000	77.852	-158.4939
482.000000	77.900	-158.1766
487.000000	77.926	-157.9472
494.000000	77.948	-157.5938
500.000000	77.972	-157.3504
508.000000	78.011	-157.0633
515.000000	78.046	-156.7541
522.000000	78.083	-156.3819
530.000000	78.127	-155.8786
538.000000	78.168	-155.4458
545.000000	78.197	-155.1519
552.000000	78.217	-154.8574
560.000000	78.243	-154.4764
570.000000	78.287	-154.0041
580.000000	78.340	-153.6081
590.000000	78.390	-153.1868
600.000000	78.436	-152.6970
608.000000	78.464	-152.3586
615.000000	78.498	-152.1160
622.000000	78.540	-151.9197
630.000000	78.580	-151.6571
640.000000	78.621	-151.1885
650.000000	78.668	-150.7108
660.000000	78.713	-150.3529
670.000000	78.762	-150.0522
680.000000	78.811	-149.6959
690.000000	78.856	-149.3472
700.000000	78.903	-148.9387
710.000000	78.951	-148.5006
720.000000	79.000	-148.1168
730.000000	79.052	-147.7823
740.000000	79.098	-147.5110
750.000000	79.137	-147.2383
762.000000	79.197	-146.8956
775.000000	79.269	-146.5174
788.000000	79.340	-146.0954
800.000000	79.399	-145.7731
812.000000	79.452	-145.4552
825.000000	79.511	-145.0868
838.000000	79.564	-144.7063
850.000000	79.609	-144.3834
862.000000	79.653	-144.0817
875.000000	79.703	-143.8032
885.000000	79.747	-143.5799
900.000000	79.819	-143.2532
912.000000	79.869	-143.0050
925.000000	79.919	-142.6953
938.000000	79.960	-142.4384
950.000000	80.003	-142.2221
962.000000	80.055	-141.9671
975.000000	80.099	-141.6794
988.000000	80.127	-141.3853
1000.000000	80.159	-141.1309
1015.000000	80.230	-140.9727
1030.000000	80.294	-140.7799
1044.000000	80.340	-140.5711
1060.000000	80.390	-140.3259
1075.000000	80.436	-140.0497
1090.000000	80.489	-139.8233
1106.000000	80.541	-139.6386
1120.000000	80.587	-139.4599
1138.000000	80.647	-139.2380
1150.000000	80.681	-139.0520
1172.000000	80.721	-138.6538
1180.000000	80.734	-138.5097
1206.000000	80.779	-137.9648
1220.000000	80.799	-137.6479
1241.000000	80.815	-137.2249
1250.000000	80.823	-137.0599
1265.000000	80.853	-136.8003
1280.000000	80.918	-136.5171
1315.000000	81.150	-135.7708
1320.000000	81.186	-135.6767
1340.000000	81.326	-135.2572
1360.000000	81.451	-134.7267
1380.000000	81.540	-134.1764
1400.000000	81.607	-133.6379
1430.000000	81.712	-132.9155
1450.000000	81.784	-132.4801
1475.000000	81.888	-131.8918
1500.000000	82.003	-131.2694
1525.000000	82.117	-130.6617
1550.000000	82.227	-130.1097
1575.000000	82.346	-129.6112
1600.000000	82.484	-129.1172
1625.000000	82.625	-128.6491
1650.000000	82.768	-128.1744
1675.000000	82.911	-127.7030
1700.000000	83.052	-127.2912
1725.000000	83.200	-126.9290
1750.000000	83.349	-126.5688
1775.000000	83.497	-126.2333
1800.000000	83.649	-125.9085
1825.000000	83.810	-125.6333
1850.000000	83.975	-125.4302
1875.000000	84.137	-125.2351
1900.000000	84.296	-125.0475
1925.000000	84.455	-124.8970
1950.000000	84.622	-124.7575
1975.000000	84.790	-124.6415
2000.000000	84.956	-124.5963
2030.000000	85.155	-124.6180
2060.000000	85.356	-124.6631
2090.000000	85.556	-124.7752
2120.000000	85.753	-124.9307
2140.000000	85.880	-125.0638
2180.000000	86.131	-125.4148
2200.000000	86.256	-125.6392
2240.000000	86.503	-126.1741
2270.000000	86.686	-126.6348
2300.000000	86.860	-127.1349
2330.000000	87.032	-127.6884
2360.000000	87.203	-128.2880
2400.000000	87.419	-129.1460
2430.000000	87.571	-129.8573
2470.000000	87.760	-130.8505
2500.000000	87.892	-131.6054
2540.000000	88.056	-132.6580
2580.000000	88.206	-133.7660
2620.000000	88.339	-134.8958
2650.000000	88.431	-135.7227
2690.000000	88.545	-136.7819
2720.000000	88.621	-137.5721
2760.000000	88.713	-138.6065
2800.000000	88.800	-139.6084
2850.000000	88.902	-140.8302
2900.000000	89.002	-142.0380
2950.000000	89.104	-143.2668
3000.000000	89.202	-144.5506
3040.000000	89.268	-145.6155
3070.000000	89.307	-146.4328
3110.000000	89.351	-147.5172
3150.000000	89.387	-148.5773
3200.000000	89.424	-149.8862
3250.000000	89.452	-151.2070
3300.000000	89.471	-152.5385
3350.000000	89.480	-153.8728
3400.000000	89.477	-155.1854
3450.000000	89.460	-156.4440
3500.000000	89.427	-157.6397
3550.000000	89.378	-158.7729
3600.000000	89.320	-159.8444
3650.000000	89.248	-160.8507
3700.000000	89.168	-161.8044
3750.000000	89.079	-162.6824
3820.000000	88.927	-163.7552
3870.000000	88.799	-164.3620
3950.000000	88.569	-164.6328
4000.000000	88.476	-163.9862
4060.000000	88.576	-162.9240
4120.000000	88.830	-163.2838
4180.000000	88.949	-165.0107
4250.000000	88.884	-166.9765
4310.000000	88.767	-168.2407
4370.000000	88.634	-169.3046
4440.000000	88.467	-170.2808
4500.000000	88.323	-170.7297
4550.000000	88.234	-170.7624
4620.000000	88.209	-170.6666
4680.000000	88.255	-170.9568
4750.000000	88.301	-171.7795
4820.000000	88.304	-172.7644
4870.000000	88.284	-173.4449
4940.000000	88.233	-174.3301
5000.000000	88.180	-175.0494
5080.000000	88.102	-175.9989
5150.000000	88.030	-176.8025
5220.000000	87.957	-177.5762
5300.000000	87.865	-178.4618
5380.000000	87.769	-179.3586
5450.000000	87.680	179.8595
5520.000000	87.590	179.0645
5600.000000	87.482	178.1267
5700.000000	87.331	176.9395
5800.000000	87.160	175.7266
5900.000000	86.981	174.4415
6000.000000	86.789	173.1378
6080.000000	86.627	172.1310
6150.000000	86.479	171.3218
6220.000000	86.322	170.6293
6300.000000	86.126	170.0012
6400.000000	85.875	169.4218
6500.000000	85.640	168.9813
6600.000000	85.420	168.5987
6700.000000	85.210	168.2370
6800.000000	85.004	167.8586
6900.000000	84.799	167.5212
7000.000000	84.587	167.2940
7100.000000	84.374	167.2057
7200.000000	84.173	167.2276
7300.000000	83.994	167.3273
7400.000000	83.823	167.5362
7500.000000	83.655	167.9772
7620.000000	83.469	168.8116
7750.000000	83.295	169.9773
7880.000000	83.141	171.1808
8000.000000	83.010	172.1351
8120.000000	82.912	172.8105
8250.000000	82.846	173.0927
8380.000000	82.816	172.9022
8500.000000	82.813	172.4090
8620.000000	82.811	171.7018
8750.000000	82.798	170.6248
8850.000000	82.778	169.4787
9000.000000	82.704	167.3365
9120.000000	82.574	165.4493
9250.000000	82.358	163.3928
9380.000000	82.059	161.4322
9500.000000	81.710	159.8748
9620.000000	81.315	158.6970
9750.000000	80.862	157.8462
9880.000000	80.397	157.3628
10000.000000	79.961	157.2108
10150.000000	79.423	157.3683
10300.000000	78.913	157.8562
10440.000000	78.458	158.5534
10600.000000	77.940	159.6868
10750.000000	77.457	161.0797
10900.000000	77.000	162.6756
11060.000000	76.561	164.5747
11200.000000	76.213	166.3921
11380.000000	75.801	168.9517
11500.000000	75.544	170.7571
11720.000000	75.124	174.1270
11800.000000	74.991	175.3801
12060.000000	74.609	179.5812
12200.000000	74.438	-178.0803
12410.000000	74.264	-174.4229
12500.000000	74.218	-172.8479
12650.000000	74.170	-170.2288
12800.000000	74.168	-167.6399
13150.000000	74.354	-161.8329
13200.000000	74.389	-161.0160
13400.000000	74.531	-157.7990
13600.000000	74.702	-154.6847
13800.000000	74.981	-151.9302
14000.000000	75.412	-149.7723
14300.000000	76.273	-147.9637
14500.000000	76.931	-147.9217
14750.000000	77.753	-149.3510
15000.000000	78.466	-152.8249
15250.000000	78.926	-158.2959
15500.000000	79.008	-164.9687
15750.000000	78.717	-171.6098
16000.000000	78.203	-177.0764
16250.000000	77.620	179.1698
16500.000000	77.048	177.0901
16750.000000	76.565	176.3716
17000.000000	76.230	176.6125
17250.000000	76.095	177.2620
17500.000000	76.194	177.8208
17750.000000	76.501	177.6939
18000.000000	76.981	176.0383
18250.000000	77.519	171.8896
18500.000000	77.884	164.5382
18750.000000	77.795	154.3624
19000.000000	77.058	143.5225
19250.000000	75.674	134.8960
19500.000000	73.776	130.2934
19750.000000	71.586	129.5414
20000.000000	69.941	130.2640
