* Measurement data measured by REW V5.20.9
* Source: Input device not selected, no input selected, L, volume: no control
* Format: 128k Log Swept Sine, 1 sweep at -12.0 dBFS with no timing reference
* Dated: 2022. 7. 18 ¿ÀÈÄ 1:36:57
* REW Settings:
*  C-weighting compensation: Off
*  Target level: 75.0 dB
* Note: 
* Measurement: 7¿ù 18
* Smoothing: 1/24 octave
* Frequency Step: 1/48 octave
* Start Frequency: 20.300 Hz
*
* Freq(Hz)	SPL(dB)	Phase(degrees)
20.299999	85.147	-178.9310
20.600000	85.136	-179.2879
20.900000	85.109	-179.9016
21.200001	85.071	179.5838
21.400000	85.044	179.2987
21.799999	84.998	178.7806
22.000000	84.981	178.4987
22.400000	84.958	177.7977
22.700001	84.937	177.1171
23.000000	84.899	176.3308
23.299999	84.840	175.5327
23.600000	84.762	174.8140
24.000000	84.648	174.0797
24.299999	84.573	173.6974
24.700001	84.503	173.3162
25.000000	84.473	173.0396
25.400000	84.453	172.6216
25.799999	84.444	172.1663
26.200001	84.445	171.7083
26.500000	84.456	171.3394
26.900000	84.479	170.7389
27.200001	84.489	170.1714
27.600000	84.473	169.3033
28.000000	84.407	168.5060
28.500000	84.280	167.9719
29.000000	84.182	168.0352
29.500000	84.180	168.2465
30.000000	84.248	167.9580
30.400000	84.291	167.2016
30.700001	84.287	166.4110
31.100000	84.220	165.3046
31.500000	84.090	164.3941
32.000000	83.887	163.7932
32.500000	83.707	163.7757
33.000000	83.601	164.0326
33.500000	83.569	164.2106
34.000000	83.583	164.0862
34.500000	83.603	163.6221
35.000000	83.603	162.8985
35.500000	83.563	162.0896
36.000000	83.486	161.4179
36.500000	83.400	161.0115
37.000000	83.336	160.7595
37.500000	83.287	160.4302
38.200001	83.168	159.9047
38.700001	83.042	159.9663
39.500000	82.976	160.9747
40.000000	83.069	161.2272
40.599998	83.177	160.4133
41.200001	83.126	159.0728
41.799999	82.956	158.3325
42.500000	82.804	158.3309
43.099998	82.760	158.1869
43.700001	82.705	157.6685
44.400002	82.591	157.1752
45.000000	82.519	157.0688
45.500000	82.508	156.9277
46.200001	82.523	156.2484
46.799999	82.491	155.3099
47.500000	82.374	154.4030
48.200001	82.245	154.0150
48.700001	82.177	153.8574
49.400002	82.078	153.5175
50.000000	81.946	153.3975
50.799999	81.785	154.0573
51.500000	81.788	154.7452
52.200001	81.854	154.4665
53.000000	81.808	153.2477
53.799999	81.635	152.3299
54.500000	81.496	151.9240
55.200001	81.398	151.5014
56.000000	81.289	150.9398
57.000000	81.148	150.8994
58.000000	81.230	151.8447
59.000000	81.553	151.3107
60.000000	81.600	149.0345
60.799999	81.384	148.3099
61.500000	81.204	148.9581
62.200001	81.141	149.9874
63.000000	81.155	150.6374
64.000000	81.114	150.6925
65.000000	81.024	150.6295
66.000000	80.900	150.1252
67.000000	80.688	149.8296
68.000000	80.530	149.9847
69.000000	80.436	149.9588
70.000000	80.366	149.8096
71.000000	80.304	149.6158
72.000000	80.262	149.5709
73.000000	80.245	149.4210
74.000000	80.204	149.2913
75.000000	80.164	149.2921
76.199997	80.082	149.2082
77.500000	79.935	149.2770
78.800003	79.751	149.2899
80.000000	79.540	149.1674
81.199997	79.283	149.3633
82.500000	79.149	150.0509
83.800003	79.108	149.9429
85.000000	79.052	150.1385
86.199997	79.097	150.4424
87.500000	79.150	150.0774
88.500000	79.091	149.6245
90.000000	78.925	149.9105
91.199997	78.877	150.1865
92.500000	78.777	150.0490
93.800003	78.642	150.2271
95.000000	78.555	150.4270
96.199997	78.500	150.3720
97.500000	78.451	149.8903
98.800003	78.379	149.2446
100.000000	78.296	149.0061
101.500000	78.257	149.6414
103.000000	78.318	150.4285
104.400002	78.303	150.8821
106.000000	78.170	151.4979
107.500000	78.016	151.9690
109.000000	77.904	152.0362
110.599998	77.819	151.6251
112.000000	77.753	151.3122
113.800003	77.675	151.2047
115.000000	77.639	151.1221
117.199997	77.632	150.0790
118.000000	77.642	149.1962
120.599998	77.306	147.0563
122.000000	77.160	148.6164
124.099998	77.175	151.2101
125.000000	77.165	152.1927
126.500000	77.113	153.3297
128.000000	76.984	153.6342
131.500000	76.660	152.9846
132.000000	76.637	152.9790
134.000000	76.630	153.3685
136.000000	76.662	153.9822
138.000000	76.589	154.5854
140.000000	76.381	155.3463
143.000000	76.059	157.4577
145.000000	76.018	158.4490
147.500000	76.101	158.2366
150.000000	76.124	157.8578
152.500000	76.187	158.5833
155.000000	76.230	158.8275
157.500000	76.113	158.3488
160.000000	75.946	158.6234
162.500000	76.001	160.1642
165.000000	76.182	160.2944
167.500000	76.179	159.8697
170.000000	76.277	160.0057
172.500000	76.395	159.2169
175.000000	76.351	158.1219
177.500000	76.262	157.3560
180.000000	76.171	157.4324
182.500000	76.128	158.6961
185.000000	76.149	159.6327
187.500000	76.105	159.6822
190.000000	75.965	159.6619
192.500000	75.805	159.9420
195.000000	75.670	160.4352
197.500000	75.627	161.0147
200.000000	75.606	161.4536
203.000000	75.509	161.9021
206.000000	75.412	161.9835
209.000000	75.365	161.7376
212.000000	75.384	161.9455
214.000000	75.388	162.1921
218.000000	75.172	162.5768
220.000000	75.030	162.6862
224.000000	74.914	162.9265
227.000000	74.959	163.8455
230.000000	74.965	164.9993
233.000000	74.997	165.4017
236.000000	75.151	165.1404
240.000000	75.281	165.2688
243.000000	75.128	165.8378
247.000000	75.029	165.9858
250.000000	75.023	165.7563
254.000000	74.827	166.0727
258.000000	74.669	166.2034
262.000000	74.555	166.4027
265.000000	74.464	166.5516
269.000000	74.399	166.7404
272.000000	74.383	167.1173
276.000000	74.361	167.7141
280.000000	74.333	168.6708
285.000000	74.204	170.1646
290.000000	74.208	170.0842
295.000000	74.399	170.3966
300.000000	74.480	171.9698
304.000000	74.341	172.1457
307.000000	74.279	171.9979
311.000000	74.283	172.1145
315.000000	74.165	172.6667
320.000000	74.050	173.4401
325.000000	74.167	174.1143
330.000000	74.261	175.0839
335.000000	74.183	175.5851
340.000000	73.989	175.7628
345.000000	73.852	176.2155
350.000000	73.751	176.0872
355.000000	73.804	176.0480
360.000000	73.857	176.9175
365.000000	73.733	177.7807
370.000000	73.621	178.5693
375.000000	73.500	179.5564
382.000000	73.578	-179.6002
387.000000	73.684	-179.9760
395.000000	73.734	-179.5070
400.000000	73.668	-178.8747
406.000000	73.548	-178.2665
412.000000	73.497	-177.8676
418.000000	73.485	-177.5837
425.000000	73.469	-176.4245
431.000000	73.470	-175.0735
437.000000	73.500	-174.2301
444.000000	73.510	-173.9154
450.000000	73.432	-173.9528
455.000000	73.339	-173.5700
462.000000	73.313	-173.1865
468.000000	73.351	-173.0565
475.000000	73.408	-172.3596
482.000000	73.386	-171.8208
487.000000	73.316	-171.5111
494.000000	73.343	-170.9479
500.000000	73.396	-170.8678
508.000000	73.306	-170.0766
515.000000	73.247	-169.0558
522.000000	73.247	-168.4118
530.000000	73.228	-167.7967
538.000000	73.250	-167.0779
545.000000	73.223	-165.9911
552.000000	73.167	-165.0264
560.000000	73.169	-164.3859
570.000000	73.251	-163.7233
580.000000	73.182	-163.3134
590.000000	73.150	-162.4995
600.000000	73.260	-161.2110
608.000000	73.304	-160.6670
615.000000	73.288	-160.0051
622.000000	73.229	-159.5679
630.000000	73.160	-159.3625
640.000000	73.180	-158.7208
650.000000	73.284	-157.8512
660.000000	73.373	-157.0704
670.000000	73.482	-156.1432
680.000000	73.473	-154.9309
690.000000	73.494	-153.7286
700.000000	73.542	-153.0695
710.000000	73.526	-152.2612
720.000000	73.565	-151.4740
730.000000	73.630	-151.1125
740.000000	73.674	-150.3403
750.000000	73.688	-149.2579
762.000000	73.690	-148.4343
775.000000	73.742	-147.9182
788.000000	73.807	-146.8421
800.000000	73.912	-145.1958
812.000000	73.966	-144.2315
825.000000	73.903	-143.7682
838.000000	73.945	-143.3572
850.000000	74.092	-142.6519
862.000000	74.194	-141.8221
875.000000	74.240	-141.0637
885.000000	74.317	-140.4261
900.000000	74.492	-139.6562
912.000000	74.593	-138.7083
925.000000	74.625	-137.5264
938.000000	74.656	-136.5466
950.000000	74.753	-136.2705
962.000000	74.878	-135.9340
975.000000	75.087	-134.4735
988.000000	75.522	-131.0204
1000.000000	75.854	-128.3909
1015.000000	75.685	-130.6963
1030.000000	75.544	-132.3208
1044.000000	75.610	-132.1663
1060.000000	75.740	-131.4080
1075.000000	75.816	-130.7993
1090.000000	75.887	-130.5950
1106.000000	75.978	-130.2320
1120.000000	76.085	-129.7263
1138.000000	76.205	-129.2482
1150.000000	76.291	-128.8694
1172.000000	76.435	-128.2339
1180.000000	76.514	-127.9845
1206.000000	76.753	-127.1697
1220.000000	76.856	-127.0327
1241.000000	77.000	-126.6796
1250.000000	77.065	-126.4569
1265.000000	77.168	-126.0390
1280.000000	77.254	-125.8105
1315.000000	77.478	-125.1580
1320.000000	77.520	-124.9246
1340.000000	77.665	-124.2287
1360.000000	77.781	-124.0171
1380.000000	77.892	-123.9005
1400.000000	78.012	-123.4747
1430.000000	78.232	-122.6962
1450.000000	78.347	-122.3487
1475.000000	78.518	-121.9384
1500.000000	78.718	-121.3759
1525.000000	78.856	-120.9152
1550.000000	79.021	-120.6468
1575.000000	79.210	-120.2890
1600.000000	79.398	-119.9020
1625.000000	79.585	-119.6321
1650.000000	79.753	-119.1273
1675.000000	79.938	-118.6964
1700.000000	80.129	-118.4385
1725.000000	80.315	-118.2648
1750.000000	80.518	-118.1868
1775.000000	80.711	-118.2968
1800.000000	80.898	-118.1548
1825.000000	81.117	-117.8886
1850.000000	81.331	-117.8807
1875.000000	81.537	-117.9653
1900.000000	81.765	-118.0438
1925.000000	81.982	-118.1958
1950.000000	82.171	-118.3659
1975.000000	82.358	-118.4680
2000.000000	82.573	-118.7305
2030.000000	82.864	-119.4297
2060.000000	83.132	-120.1423
2090.000000	83.385	-120.8004
2120.000000	83.648	-121.5567
2140.000000	83.815	-122.1569
2180.000000	84.121	-123.4851
2200.000000	84.270	-124.1785
2240.000000	84.571	-125.6780
2270.000000	84.791	-126.9557
2300.000000	84.995	-128.3711
2330.000000	85.175	-129.8934
2360.000000	85.332	-131.5259
2400.000000	85.503	-133.7234
2430.000000	85.613	-135.4585
2470.000000	85.739	-137.8470
2500.000000	85.815	-139.6227
2540.000000	85.880	-141.9871
2580.000000	85.910	-144.2904
2620.000000	85.888	-146.5770
2650.000000	85.843	-148.2155
2690.000000	85.773	-150.2923
2720.000000	85.708	-151.7664
2760.000000	85.591	-153.5675
2800.000000	85.451	-155.2268
2850.000000	85.253	-157.1149
2900.000000	85.047	-158.6961
2950.000000	84.822	-159.9981
3000.000000	84.588	-161.2030
3040.000000	84.441	-161.7381
3070.000000	84.325	-162.0342
3110.000000	84.169	-162.4943
3150.000000	84.033	-162.9173
3200.000000	83.874	-163.3331
3250.000000	83.711	-163.6643
3300.000000	83.566	-163.9557
3350.000000	83.437	-164.1147
3400.000000	83.302	-164.1691
3450.000000	83.166	-164.2609
3500.000000	83.046	-164.2629
3550.000000	82.941	-164.1482
3600.000000	82.841	-163.9496
3650.000000	82.748	-163.7794
3700.000000	82.663	-163.5869
3750.000000	82.592	-163.2744
3820.000000	82.508	-162.7336
3870.000000	82.462	-162.2428
3950.000000	82.449	-161.3712
4000.000000	82.495	-160.9442
4060.000000	82.579	-160.8407
4120.000000	82.674	-160.9475
4180.000000	82.770	-161.3331
4250.000000	82.863	-162.0988
4310.000000	82.928	-162.8111
4370.000000	82.965	-163.6081
4440.000000	82.973	-164.8088
4500.000000	82.963	-166.0042
4550.000000	82.929	-167.0222
4620.000000	82.816	-168.4623
4680.000000	82.672	-169.5628
4750.000000	82.483	-170.5023
4820.000000	82.286	-170.9659
4870.000000	82.171	-171.0101
4940.000000	82.068	-171.0291
5000.000000	82.013	-171.1731
5080.000000	81.903	-171.4949
5150.000000	81.796	-171.9848
5220.000000	81.687	-172.5670
5300.000000	81.551	-173.1553
5380.000000	81.393	-173.7760
5450.000000	81.232	-174.2287
5520.000000	81.071	-174.5777
5600.000000	80.882	-174.9029
5700.000000	80.621	-175.1100
5800.000000	80.363	-175.0280
5900.000000	80.114	-174.7037
6000.000000	79.871	-174.1579
6080.000000	79.702	-173.5797
6150.000000	79.560	-172.8978
6220.000000	79.429	-172.0464
6300.000000	79.308	-170.9431
6400.000000	79.206	-169.4795
6500.000000	79.147	-167.9668
6600.000000	79.142	-166.4743
6700.000000	79.213	-165.1076
6800.000000	79.331	-163.6843
6900.000000	79.498	-162.4537
7000.000000	79.722	-161.5180
7100.000000	80.010	-160.6452
7200.000000	80.354	-160.1620
7300.000000	80.737	-160.1968
7400.000000	81.179	-160.7934
7500.000000	81.664	-162.1431
7620.000000	82.264	-165.0449
7750.000000	82.874	-170.0421
7880.000000	83.301	-177.0902
8000.000000	83.407	174.9771
8120.000000	83.155	166.5328
8250.000000	82.477	158.1343
8380.000000	81.479	151.4617
8500.000000	80.413	147.1402
8620.000000	79.309	144.4785
8750.000000	78.128	143.0709
8850.000000	77.254	142.9198
9000.000000	76.021	143.8112
9120.000000	75.127	145.0912
9250.000000	74.257	147.0464
9380.000000	73.479	149.5544
9500.000000	72.828	152.1318
9620.000000	72.233	154.9771
9750.000000	71.639	158.2942
9880.000000	71.123	161.5529
10000.000000	70.739	164.5526
10150.000000	70.326	168.7681
10300.000000	69.966	173.2037
10440.000000	69.726	177.1533
10600.000000	69.580	-178.5941
10750.000000	69.522	-174.5097
10900.000000	69.542	-170.6982
11060.000000	69.611	-166.9221
11200.000000	69.708	-163.6460
11380.000000	69.966	-159.7727
11500.000000	70.222	-157.4755
11720.000000	70.833	-153.8572
11800.000000	71.097	-152.8292
12060.000000	72.095	-151.3848
12200.000000	72.665	-152.1260
12410.000000	73.496	-155.4237
12500.000000	73.817	-157.6371
12650.000000	74.230	-162.3685
12800.000000	74.419	-168.0501
13150.000000	73.877	178.3997
13200.000000	73.701	176.6761
13400.000000	72.814	171.0752
13600.000000	71.784	167.8724
13800.000000	70.769	166.8522
14000.000000	69.844	167.6069
14300.000000	68.588	170.4769
14500.000000	67.963	173.4769
14750.000000	67.435	177.9068
15000.000000	67.232	-177.9996
15250.000000	67.293	-173.8659
15500.000000	67.691	-170.3265
15750.000000	68.464	-168.3399
16000.000000	69.568	-169.0977
16250.000000	70.831	-174.0940
16500.000000	71.874	175.1718
16750.000000	72.137	158.8269
17000.000000	71.317	141.7764
17250.000000	69.610	129.3007
17500.000000	67.508	122.0537
17750.000000	65.433	118.8603
18000.000000	63.602	118.9596
18250.000000	62.033	121.3149
18500.000000	60.757	123.9465
18750.000000	59.661	125.5059
19000.000000	58.722	126.6132
19250.000000	57.888	125.9016
19500.000000	57.134	105.5638
19750.000000	56.868	22.8611
20000.000000	57.096	-78.7448
