* Measurement data measured by REW V5.20.7
* Source: ???(Realtek High Definition Audi, no input selected, L, volume: no control
* Format: 128k Log Swept Sine, 1 sweep at -12.0 dBFS with no timing reference
* Dated: 13-Oct-2022 18:13:12
* REW Settings:
*  C-weighting compensation: Off
*  Target level: 75.0 dB
* Note: ; 
* Measurement: Sonicast direm pro 2 L
* Smoothing: 1/24 octave
* Frequency Step: 1/48 octave
* Start Frequency: 20.300 Hz
*
* Freq(Hz)	SPL(dB)	Phase(degrees)
20.299999	78.660	22.5784
20.600000	78.612	22.6023
20.900000	78.540	22.6994
21.200001	78.539	22.8451
21.400000	78.568	22.8245
21.799999	78.644	22.3618
22.000000	78.666	21.9293
22.400000	78.649	20.9085
22.700001	78.592	20.2547
23.000000	78.525	19.8252
23.299999	78.476	19.5581
23.600000	78.459	19.3185
24.000000	78.477	18.8212
24.299999	78.500	18.2292
24.700001	78.513	17.2123
25.000000	78.501	16.4042
25.400000	78.463	15.4166
25.799999	78.420	14.5913
26.200001	78.386	13.8845
26.500000	78.367	13.3946
26.900000	78.345	12.7812
27.200001	78.332	12.3590
27.600000	78.321	11.8460
28.000000	78.322	11.3431
28.500000	78.332	10.6251
29.000000	78.323	9.8044
29.500000	78.280	9.0587
30.000000	78.225	8.5771
30.400000	78.198	8.3587
30.700001	78.195	8.2140
31.100000	78.210	7.9302
31.500000	78.231	7.4830
32.000000	78.243	6.7215
32.500000	78.225	5.8482
33.000000	78.177	4.9757
33.500000	78.103	4.2095
34.000000	78.016	3.6920
34.500000	77.953	3.4716
35.000000	77.946	3.3598
35.500000	77.989	3.0095
36.000000	78.033	2.2599
36.500000	78.030	1.2930
37.000000	77.980	0.4500
37.500000	77.914	-0.1103
38.200001	77.850	-0.6095
38.700001	77.821	-0.9410
39.500000	77.781	-1.4547
40.000000	77.764	-1.7705
40.599998	77.747	-2.2213
41.200001	77.715	-2.7305
41.799999	77.668	-3.1887
42.500000	77.611	-3.6320
43.099998	77.563	-3.9889
43.700001	77.514	-4.3024
44.400002	77.469	-4.6093
45.000000	77.448	-4.9395
45.500000	77.431	-5.3203
46.200001	77.389	-5.9195
46.799999	77.342	-6.3756
47.500000	77.293	-6.8464
48.200001	77.248	-7.3079
48.700001	77.216	-7.6058
49.400002	77.181	-7.9573
50.000000	77.165	-8.2818
50.799999	77.144	-8.8567
51.500000	77.104	-9.3817
52.200001	77.054	-9.7879
53.000000	77.006	-10.1622
53.799999	76.962	-10.5490
54.500000	76.920	-10.8630
55.200001	76.882	-11.1394
56.000000	76.845	-11.4809
57.000000	76.794	-11.9551
58.000000	76.738	-12.3910
59.000000	76.687	-12.8189
60.000000	76.636	-13.2841
60.799999	76.589	-13.6720
61.500000	76.541	-13.9814
62.200001	76.491	-14.2375
63.000000	76.439	-14.4852
64.000000	76.380	-14.7695
65.000000	76.328	-15.0397
66.000000	76.281	-15.3312
67.000000	76.230	-15.6414
68.000000	76.176	-15.9203
69.000000	76.128	-16.1908
70.000000	76.080	-16.4972
71.000000	76.028	-16.8215
72.000000	75.973	-17.1390
73.000000	75.917	-17.4459
74.000000	75.858	-17.7297
75.000000	75.799	-17.9663
76.199997	75.733	-18.2196
77.500000	75.663	-18.4791
78.800003	75.597	-18.7005
80.000000	75.545	-18.9370
81.199997	75.489	-19.2156
82.500000	75.426	-19.5035
83.800003	75.361	-19.7862
85.000000	75.299	-20.0294
86.199997	75.239	-20.2404
87.500000	75.178	-20.4728
88.500000	75.131	-20.6744
90.000000	75.054	-20.9490
91.199997	74.994	-21.1143
92.500000	74.935	-21.2965
93.800003	74.874	-21.5044
95.000000	74.814	-21.6818
96.199997	74.756	-21.8381
97.500000	74.697	-22.0224
98.800003	74.634	-22.2131
100.000000	74.573	-22.3457
101.500000	74.503	-22.4686
103.000000	74.437	-22.6096
104.400002	74.372	-22.7412
106.000000	74.298	-22.8693
107.500000	74.230	-22.9863
109.000000	74.159	-23.0748
110.599998	74.088	-23.1269
112.000000	74.030	-23.1863
113.800003	73.952	-23.2640
115.000000	73.898	-23.2788
117.199997	73.807	-23.2536
118.000000	73.775	-23.2481
120.599998	73.666	-23.3207
122.000000	73.598	-23.3824
124.099998	73.496	-23.4523
125.000000	73.455	-23.4720
126.500000	73.391	-23.4883
128.000000	73.333	-23.4949
131.500000	73.197	-23.3789
132.000000	73.178	-23.3390
134.000000	73.113	-23.1665
136.000000	73.059	-23.0363
138.000000	73.011	-22.9133
140.000000	72.978	-22.7516
143.000000	72.953	-22.6144
145.000000	72.930	-22.6668
147.500000	72.887	-22.8671
150.000000	72.826	-23.1623
152.500000	72.746	-23.3804
155.000000	72.656	-23.4658
157.500000	72.560	-23.5006
160.000000	72.460	-23.5184
162.500000	72.362	-23.5035
165.000000	72.266	-23.4337
167.500000	72.174	-23.3198
170.000000	72.083	-23.1492
172.500000	71.998	-22.9210
175.000000	71.922	-22.6599
177.500000	71.855	-22.3699
180.000000	71.801	-22.0417
182.500000	71.765	-21.7389
185.000000	71.742	-21.5582
187.500000	71.719	-21.5081
190.000000	71.686	-21.5053
192.500000	71.641	-21.4753
195.000000	71.590	-21.4104
197.500000	71.540	-21.3350
200.000000	71.490	-21.2517
203.000000	71.428	-21.1408
206.000000	71.363	-21.0190
209.000000	71.301	-20.8947
212.000000	71.242	-20.8005
214.000000	71.203	-20.7586
218.000000	71.113	-20.6316
220.000000	71.065	-20.5351
224.000000	70.971	-20.3171
227.000000	70.904	-20.1350
230.000000	70.841	-19.9412
233.000000	70.781	-19.7544
236.000000	70.721	-19.5698
240.000000	70.647	-19.2990
243.000000	70.598	-19.0912
247.000000	70.533	-18.8308
250.000000	70.480	-18.6621
254.000000	70.407	-18.4595
258.000000	70.335	-18.2091
262.000000	70.261	-17.9130
265.000000	70.204	-17.6900
269.000000	70.131	-17.3951
272.000000	70.080	-17.1653
276.000000	70.017	-16.8313
280.000000	69.966	-16.4574
285.000000	69.907	-16.0029
290.000000	69.843	-15.5988
295.000000	69.774	-15.2190
300.000000	69.711	-14.8388
304.000000	69.662	-14.5410
307.000000	69.627	-14.3206
311.000000	69.580	-14.0266
315.000000	69.531	-13.7200
320.000000	69.466	-13.3285
325.000000	69.401	-12.9106
330.000000	69.344	-12.4574
335.000000	69.288	-12.0472
340.000000	69.231	-11.6377
345.000000	69.178	-11.2128
350.000000	69.129	-10.7912
355.000000	69.080	-10.3825
360.000000	69.027	-9.9701
365.000000	68.976	-9.5369
370.000000	68.931	-9.0758
375.000000	68.891	-8.6281
382.000000	68.836	-8.0613
387.000000	68.794	-7.6331
395.000000	68.727	-6.9535
400.000000	68.685	-6.5261
406.000000	68.637	-5.9611
412.000000	68.594	-5.3987
418.000000	68.551	-4.8386
425.000000	68.502	-4.2205
431.000000	68.463	-3.7259
437.000000	68.429	-3.2143
444.000000	68.391	-2.5930
450.000000	68.357	-2.0799
455.000000	68.329	-1.6562
462.000000	68.294	-1.0513
468.000000	68.264	-0.5245
475.000000	68.231	0.0942
482.000000	68.202	0.6946
487.000000	68.179	1.1005
494.000000	68.149	1.6973
500.000000	68.127	2.2560
508.000000	68.102	2.9984
515.000000	68.082	3.6129
522.000000	68.060	4.2276
530.000000	68.035	4.9145
538.000000	68.012	5.5757
545.000000	67.994	6.1826
552.000000	67.975	6.8057
560.000000	67.951	7.5045
570.000000	67.926	8.3725
580.000000	67.913	9.2586
590.000000	67.895	10.1487
600.000000	67.874	11.0020
608.000000	67.867	11.6787
615.000000	67.864	12.2688
622.000000	67.860	12.8658
630.000000	67.851	13.5507
640.000000	67.844	14.4038
650.000000	67.841	15.2528
660.000000	67.833	16.1170
670.000000	67.827	17.0158
680.000000	67.828	17.8924
690.000000	67.834	18.7589
700.000000	67.841	19.6375
710.000000	67.850	20.5397
720.000000	67.863	21.4350
730.000000	67.878	22.2971
740.000000	67.895	23.1652
750.000000	67.914	24.0091
762.000000	67.939	25.0386
775.000000	67.974	26.1990
788.000000	68.008	27.3439
800.000000	68.045	28.3628
812.000000	68.089	29.3560
825.000000	68.139	30.4470
838.000000	68.204	31.5285
850.000000	68.267	32.5418
862.000000	68.327	33.5697
875.000000	68.391	34.6362
885.000000	68.444	35.4411
900.000000	68.533	36.6113
912.000000	68.610	37.4964
925.000000	68.696	38.4500
938.000000	68.786	39.4108
950.000000	68.871	40.2801
962.000000	68.961	41.1016
975.000000	69.063	41.9572
988.000000	69.164	42.8002
1000.000000	69.260	43.5486
1015.000000	69.386	44.4301
1030.000000	69.514	45.2757
1044.000000	69.636	46.0231
1060.000000	69.776	46.8166
1075.000000	69.898	47.5244
1090.000000	70.013	48.2179
1106.000000	70.137	48.9114
1120.000000	70.246	49.4847
1138.000000	70.391	50.2032
1150.000000	70.490	50.6640
1172.000000	70.683	51.4787
1180.000000	70.757	51.7629
1206.000000	71.010	52.4890
1220.000000	71.157	52.7407
1241.000000	71.371	52.9905
1250.000000	71.458	53.0637
1265.000000	71.597	53.1507
1280.000000	71.726	53.1998
1315.000000	71.996	53.2260
1320.000000	72.031	53.2273
1340.000000	72.161	53.2467
1360.000000	72.278	53.3260
1380.000000	72.388	53.5031
1400.000000	72.495	53.7691
1430.000000	72.662	54.3320
1450.000000	72.778	54.7714
1475.000000	72.932	55.3521
1500.000000	73.096	55.9582
1525.000000	73.265	56.5441
1550.000000	73.431	57.1087
1575.000000	73.598	57.6419
1600.000000	73.770	58.1313
1625.000000	73.944	58.6153
1650.000000	74.123	59.1256
1675.000000	74.309	59.6289
1700.000000	74.506	60.0828
1725.000000	74.710	60.4881
1750.000000	74.921	60.8506
1775.000000	75.140	61.1643
1800.000000	75.360	61.4339
1825.000000	75.584	61.6595
1850.000000	75.810	61.8395
1875.000000	76.038	61.9687
1900.000000	76.270	62.0454
1925.000000	76.505	62.0627
1950.000000	76.742	62.0196
1975.000000	76.982	61.9243
2000.000000	77.223	61.7677
2030.000000	77.513	61.4953
2060.000000	77.804	61.1243
2090.000000	78.097	60.6421
2120.000000	78.388	60.0552
2140.000000	78.581	59.6025
2180.000000	78.962	58.5331
2200.000000	79.149	57.9149
2240.000000	79.513	56.5121
2270.000000	79.775	55.3136
2300.000000	80.027	53.9910
2330.000000	80.264	52.5530
2360.000000	80.485	51.0051
2400.000000	80.750	48.7844
2430.000000	80.927	47.0169
2470.000000	81.127	44.5488
2500.000000	81.249	42.6355
2540.000000	81.374	40.0312
2580.000000	81.454	37.4157
2620.000000	81.490	34.8441
2650.000000	81.490	32.9701
2690.000000	81.455	30.5727
2720.000000	81.406	28.8677
2760.000000	81.314	26.7379
2800.000000	81.195	24.7884
2850.000000	81.018	22.6361
2900.000000	80.819	20.8119
2950.000000	80.606	19.3179
3000.000000	80.391	18.1428
3040.000000	80.224	17.4233
3070.000000	80.104	16.9987
3110.000000	79.955	16.5613
3150.000000	79.819	16.2432
3200.000000	79.672	15.9352
3250.000000	79.539	15.6723
3300.000000	79.412	15.4525
3350.000000	79.288	15.3007
3400.000000	79.166	15.2329
3450.000000	79.052	15.2565
3500.000000	78.945	15.3679
3550.000000	78.850	15.5716
3600.000000	78.766	15.8603
3650.000000	78.694	16.2308
3700.000000	78.639	16.6814
3750.000000	78.603	17.2195
3820.000000	78.597	18.1014
3870.000000	78.637	18.7582
3950.000000	78.789	19.6594
4000.000000	78.927	19.9942
4060.000000	79.117	20.0625
4120.000000	79.309	19.7874
4180.000000	79.493	19.2326
4250.000000	79.691	18.3041
4310.000000	79.848	17.2911
4370.000000	79.988	16.0621
4440.000000	80.121	14.3492
4500.000000	80.198	12.6748
4550.000000	80.229	11.1753
4620.000000	80.214	9.0269
4680.000000	80.147	7.2762
4750.000000	80.028	5.4833
4820.000000	79.891	3.9863
4870.000000	79.793	3.0417
4940.000000	79.663	1.7628
5000.000000	79.555	0.6015
5080.000000	79.401	-1.1281
5150.000000	79.234	-2.7696
5220.000000	79.024	-4.4349
5300.000000	78.732	-6.2404
5380.000000	78.385	-7.8230
5450.000000	78.044	-8.9537
5520.000000	77.675	-9.8102
5600.000000	77.234	-10.4260
5700.000000	76.674	-10.6391
5800.000000	76.129	-10.3035
5900.000000	75.613	-9.5248
6000.000000	75.132	-8.3597
6080.000000	74.776	-7.1964
6150.000000	74.487	-6.0240
6220.000000	74.221	-4.7144
6300.000000	73.945	-3.0751
6400.000000	73.646	-0.8578
6500.000000	73.402	1.4737
6600.000000	73.213	3.8844
6700.000000	73.079	6.3517
6800.000000	72.997	8.8315
6900.000000	72.973	11.2968
7000.000000	73.011	13.7285
7100.000000	73.110	16.1000
7200.000000	73.274	18.3654
7300.000000	73.503	20.4227
7400.000000	73.793	22.2060
7500.000000	74.145	23.6746
7620.000000	74.653	24.8902
7750.000000	75.291	25.2725
7880.000000	75.997	24.2896
8000.000000	76.674	21.8499
8120.000000	77.307	17.6241
8250.000000	77.819	10.8366
8380.000000	77.990	2.1558
8500.000000	77.746	-6.4964
8620.000000	77.111	-14.4588
8750.000000	76.083	-21.1840
8850.000000	75.153	-24.7476
9000.000000	73.697	-27.7010
9120.000000	72.569	-28.4232
9250.000000	71.434	-28.0137
9380.000000	70.404	-26.7415
9500.000000	69.548	-25.0175
9620.000000	68.777	-22.8855
9750.000000	68.032	-20.2459
9880.000000	67.374	-17.3595
10000.000000	66.840	-14.5217
10150.000000	66.261	-10.7889
10300.000000	65.774	-6.9287
10440.000000	65.401	-3.2163
10600.000000	65.077	1.0749
10750.000000	64.872	5.0706
10900.000000	64.762	8.9558
11060.000000	64.744	12.8766
11200.000000	64.817	16.0836
11380.000000	65.036	19.7258
11500.000000	65.265	21.7914
11720.000000	65.859	24.5200
11800.000000	66.126	25.0554
12060.000000	67.142	24.3818
12200.000000	67.731	22.1124
12410.000000	68.504	15.7288
12500.000000	68.727	11.9436
12650.000000	68.867	4.6161
12800.000000	68.667	-3.1937
13150.000000	67.052	-17.8454
13200.000000	66.735	-19.2271
13400.000000	65.401	-22.9706
13600.000000	64.091	-24.3315
13800.000000	62.942	-23.9857
14000.000000	62.000	-22.4963
14300.000000	60.895	-18.9007
14500.000000	60.341	-16.0499
14750.000000	59.844	-12.2590
15000.000000	59.564	-8.4417
15250.000000	59.499	-4.8198
15500.000000	59.636	-1.6288
15750.000000	60.004	0.8129
16000.000000	60.615	2.1352
16250.000000	61.485	1.8013
16500.000000	62.597	-1.1767
16750.000000	63.768	-7.9574
17000.000000	64.672	-19.3629
17250.000000	64.913	-34.3656
17500.000000	64.286	-49.7692
17750.000000	62.952	-62.2890
18000.000000	61.283	-70.6859
18250.000000	59.688	-75.6971
18500.000000	58.477	-78.7678
18750.000000	57.716	-81.0569
19000.000000	57.446	-83.7764
19250.000000	57.697	-88.1254
19500.000000	58.347	-94.8865
19750.000000	59.027	-102.9481
20000.000000	59.358	-107.9658
