* Measurement data measured by REW V5.20.9
* Source: Input device not selected, no input selected, L, volume: no control
* Format: 128k Log Swept Sine, 1 sweep at -12.0 dBFS with no timing reference
* Dated: 2022. 7. 18 ¿ÀÈÄ 1:13:25
* REW Settings:
*  C-weighting compensation: Off
*  Target level: 75.0 dB
* Note: 
* Measurement: L
* Smoothing: 1/24 octave
* Frequency Step: 1/48 octave
* Start Frequency: 20.300 Hz
*
* Freq(Hz)	SPL(dB)	Phase(degrees)
20.299999	84.933	-179.1463
20.600000	84.901	-179.5150
20.900000	84.834	179.8902
21.200001	84.772	179.4840
21.400000	84.740	179.2803
21.799999	84.696	178.8695
22.000000	84.682	178.5947
22.400000	84.657	177.8463
22.700001	84.627	177.1404
23.000000	84.579	176.3868
23.299999	84.515	175.6794
23.600000	84.447	175.0734
24.000000	84.370	174.4337
24.299999	84.337	174.0070
24.700001	84.326	173.3580
25.000000	84.327	172.7334
25.400000	84.316	171.7294
25.799999	84.266	170.7129
26.200001	84.180	169.9423
26.500000	84.110	169.6236
26.900000	84.042	169.5219
27.200001	84.023	169.5743
27.600000	84.042	169.6176
28.000000	84.089	169.4607
28.500000	84.138	168.9498
29.000000	84.147	168.2708
29.500000	84.114	167.6088
30.000000	84.053	167.0491
30.400000	83.990	166.6959
30.700001	83.940	166.4943
31.100000	83.878	166.2999
31.500000	83.828	166.1385
32.000000	83.787	165.8501
32.500000	83.749	165.3668
33.000000	83.692	164.7559
33.500000	83.616	164.1714
34.000000	83.541	163.6598
34.500000	83.474	163.1180
35.000000	83.398	162.5020
35.500000	83.296	161.9786
36.000000	83.195	161.7424
36.500000	83.144	161.6851
37.000000	83.151	161.3702
37.500000	83.154	160.5002
38.200001	83.008	158.9112
38.700001	82.801	158.3705
39.500000	82.560	158.9919
40.000000	82.557	159.4401
40.599998	82.615	159.2565
41.200001	82.622	158.5702
41.799999	82.579	158.0431
42.500000	82.563	157.7354
43.099998	82.589	157.2716
43.700001	82.584	156.5149
44.400002	82.494	155.7625
45.000000	82.386	155.6292
45.500000	82.321	155.8086
46.200001	82.286	156.0535
46.799999	82.263	156.0179
47.500000	82.200	155.8948
48.200001	82.128	155.8956
48.700001	82.094	155.8514
49.400002	82.051	155.4634
50.000000	81.976	154.8766
50.799999	81.803	154.2781
51.500000	81.658	154.2882
52.200001	81.602	154.4459
53.000000	81.599	154.0933
53.799999	81.535	153.4562
54.500000	81.454	153.2809
55.200001	81.424	153.2411
56.000000	81.397	152.7798
57.000000	81.240	152.2285
58.000000	81.104	152.5581
59.000000	81.105	152.1691
60.000000	80.945	150.7795
60.799999	80.694	150.6728
61.500000	80.577	151.4654
62.200001	80.624	152.1551
63.000000	80.758	152.0634
64.000000	80.834	151.1121
65.000000	80.799	150.5030
66.000000	80.754	150.1724
67.000000	80.626	149.8294
68.000000	80.426	150.1292
69.000000	80.278	150.8113
70.000000	80.199	151.2205
71.000000	80.147	151.0609
72.000000	80.059	150.5496
73.000000	79.965	150.2845
74.000000	79.936	150.0395
75.000000	79.896	149.5226
76.199997	79.801	149.3272
77.500000	79.740	149.2274
78.800003	79.644	148.8436
80.000000	79.500	148.3885
81.199997	79.311	148.3619
82.500000	79.189	148.8424
83.800003	79.152	149.0780
85.000000	79.064	149.1360
86.199997	78.950	149.9073
87.500000	78.964	150.8032
88.500000	79.006	150.6997
90.000000	78.930	149.8171
91.199997	78.799	149.5713
92.500000	78.737	149.6188
93.800003	78.709	149.3687
95.000000	78.660	149.1843
96.199997	78.617	149.0720
97.500000	78.572	148.9341
98.800003	78.526	148.6685
100.000000	78.443	148.5703
101.500000	78.362	148.9636
103.000000	78.310	149.6077
104.400002	78.300	150.1666
106.000000	78.264	150.2184
107.500000	78.142	149.8458
109.000000	77.936	149.9601
110.599998	77.827	150.5110
112.000000	77.783	150.5140
113.800003	77.662	150.2977
115.000000	77.569	150.4800
117.199997	77.514	150.5370
118.000000	77.461	150.3023
120.599998	77.094	151.8893
122.000000	77.088	153.4604
124.099998	77.059	153.9122
125.000000	77.000	154.1027
126.500000	76.968	154.5183
128.000000	76.996	154.4202
131.500000	76.916	154.1724
132.000000	76.905	154.2821
134.000000	76.859	154.5084
136.000000	76.701	154.8266
138.000000	76.530	155.9954
140.000000	76.508	156.6381
143.000000	76.313	155.8933
145.000000	76.225	156.4242
147.500000	76.311	157.1517
150.000000	76.265	157.0857
152.500000	76.096	157.7811
155.000000	76.064	159.0746
157.500000	76.087	160.0709
160.000000	76.104	161.1468
162.500000	76.232	162.0690
165.000000	76.435	162.3370
167.500000	76.548	161.5787
170.000000	76.453	160.2794
172.500000	76.376	159.3385
175.000000	76.403	159.1353
177.500000	76.396	159.7406
180.000000	76.237	160.2282
182.500000	75.993	160.0842
185.000000	76.016	159.5807
187.500000	76.190	158.7048
190.000000	76.098	158.8526
192.500000	75.858	160.1843
195.000000	75.716	161.1270
197.500000	75.692	161.6697
200.000000	75.641	162.2325
203.000000	75.468	162.6945
206.000000	75.368	163.0567
209.000000	75.427	163.4631
212.000000	75.504	163.7578
214.000000	75.527	163.5850
218.000000	75.387	163.4633
220.000000	75.286	164.0018
224.000000	75.209	164.8731
227.000000	75.202	164.9871
230.000000	75.196	164.8817
233.000000	75.194	164.8476
236.000000	75.151	164.9848
240.000000	74.976	165.5086
243.000000	74.887	165.8254
247.000000	74.920	165.7634
250.000000	74.939	165.4143
254.000000	74.946	166.2764
258.000000	74.968	167.4662
262.000000	74.931	168.1446
265.000000	74.865	168.5929
269.000000	74.737	168.9985
272.000000	74.653	168.9721
276.000000	74.550	168.8154
280.000000	74.480	168.9291
285.000000	74.398	169.6112
290.000000	74.290	170.7859
295.000000	74.158	172.1380
300.000000	74.094	172.7802
304.000000	74.181	172.2192
307.000000	74.256	171.9822
311.000000	74.316	171.9950
315.000000	74.269	172.4761
320.000000	74.148	173.9615
325.000000	74.103	174.3182
330.000000	74.113	173.6630
335.000000	74.078	173.6708
340.000000	74.054	174.7393
345.000000	74.077	175.9121
350.000000	74.049	176.7492
355.000000	73.966	177.4622
360.000000	73.914	178.1005
365.000000	73.905	178.5621
370.000000	73.839	179.2942
375.000000	73.695	-179.7331
382.000000	73.703	-179.8817
387.000000	73.760	-179.4187
395.000000	73.868	-178.6594
400.000000	73.843	-178.3654
406.000000	73.792	-177.6309
412.000000	73.808	-177.5751
418.000000	73.770	-177.6197
425.000000	73.722	-176.8695
431.000000	73.749	-176.5517
437.000000	73.766	-176.1358
444.000000	73.679	-174.9264
450.000000	73.615	-174.3535
455.000000	73.598	-173.9406
462.000000	73.612	-173.0893
468.000000	73.598	-172.2107
475.000000	73.660	-171.4921
482.000000	73.745	-171.5467
487.000000	73.713	-171.6456
494.000000	73.657	-170.7119
500.000000	73.631	-169.4793
508.000000	73.503	-168.4082
515.000000	73.415	-167.9000
522.000000	73.376	-167.3561
530.000000	73.399	-166.6751
538.000000	73.496	-166.3319
545.000000	73.506	-166.1038
552.000000	73.394	-165.6363
560.000000	73.293	-164.9898
570.000000	73.292	-164.5377
580.000000	73.435	-163.5108
590.000000	73.423	-162.3826
600.000000	73.474	-161.3965
608.000000	73.470	-160.5334
615.000000	73.433	-160.0742
622.000000	73.432	-159.5258
630.000000	73.489	-158.8435
640.000000	73.545	-158.5240
650.000000	73.494	-158.1395
660.000000	73.475	-156.6754
670.000000	73.479	-155.3270
680.000000	73.552	-154.7368
690.000000	73.603	-154.0501
700.000000	73.700	-153.4378
710.000000	73.746	-152.6017
720.000000	73.735	-152.0457
730.000000	73.806	-151.5417
740.000000	73.815	-150.6105
750.000000	73.771	-149.4528
762.000000	73.810	-148.4787
775.000000	73.951	-147.4669
788.000000	74.070	-146.1570
800.000000	74.120	-144.9199
812.000000	74.161	-144.1545
825.000000	74.215	-143.3567
838.000000	74.262	-142.7364
850.000000	74.325	-142.4339
862.000000	74.454	-141.6065
875.000000	74.616	-140.5524
885.000000	74.708	-140.0044
900.000000	74.840	-139.4810
912.000000	74.941	-138.4858
925.000000	75.011	-137.2838
938.000000	75.096	-136.5914
950.000000	75.170	-136.2293
962.000000	75.297	-135.8021
975.000000	75.671	-135.5343
988.000000	76.582	-135.9637
1000.000000	77.182	-136.5409
1015.000000	76.566	-134.9440
1030.000000	75.975	-132.9949
1044.000000	75.919	-132.2847
1060.000000	76.016	-131.6657
1075.000000	76.097	-131.4996
1090.000000	76.119	-130.8874
1106.000000	76.242	-130.2372
1120.000000	76.387	-129.9122
1138.000000	76.504	-129.4644
1150.000000	76.562	-129.0593
1172.000000	76.732	-128.1897
1180.000000	76.793	-127.9050
1206.000000	76.956	-127.3955
1220.000000	77.054	-127.2612
1241.000000	77.187	-126.7556
1250.000000	77.237	-126.4010
1265.000000	77.336	-125.7731
1280.000000	77.461	-125.4703
1315.000000	77.721	-125.2574
1320.000000	77.742	-125.1257
1340.000000	77.824	-124.7636
1360.000000	77.956	-124.3692
1380.000000	78.113	-123.7198
1400.000000	78.244	-123.2995
1430.000000	78.452	-122.8164
1450.000000	78.602	-122.2484
1475.000000	78.789	-121.8519
1500.000000	78.948	-121.5601
1525.000000	79.084	-121.1035
1550.000000	79.269	-120.6353
1575.000000	79.476	-120.1800
1600.000000	79.646	-120.1097
1625.000000	79.822	-119.9218
1650.000000	80.023	-119.5456
1675.000000	80.237	-119.2616
1700.000000	80.438	-119.0547
1725.000000	80.622	-118.7492
1750.000000	80.793	-118.4828
1775.000000	80.979	-118.3707
1800.000000	81.175	-118.2746
1825.000000	81.364	-118.1086
1850.000000	81.568	-118.0944
1875.000000	81.784	-118.1596
1900.000000	82.013	-118.2344
1925.000000	82.240	-118.3240
1950.000000	82.445	-118.4747
1975.000000	82.643	-118.8279
2000.000000	82.852	-119.3729
2030.000000	83.134	-119.8433
2060.000000	83.415	-120.3477
2090.000000	83.678	-120.9084
2120.000000	83.934	-121.5763
2140.000000	84.100	-122.1978
2180.000000	84.416	-123.6092
2200.000000	84.563	-124.3571
2240.000000	84.853	-125.9894
2270.000000	85.060	-127.2982
2300.000000	85.252	-128.7119
2330.000000	85.432	-130.1838
2360.000000	85.592	-131.7114
2400.000000	85.778	-133.8699
2430.000000	85.894	-135.6009
2470.000000	86.007	-138.0059
2500.000000	86.073	-139.8459
2540.000000	86.141	-142.2895
2580.000000	86.168	-144.6703
2620.000000	86.150	-146.9213
2650.000000	86.113	-148.5697
2690.000000	86.037	-150.6526
2720.000000	85.962	-152.1180
2760.000000	85.837	-153.9582
2800.000000	85.697	-155.6039
2850.000000	85.514	-157.4151
2900.000000	85.321	-159.0044
2950.000000	85.124	-160.2229
3000.000000	84.926	-161.1205
3040.000000	84.733	-161.7650
3070.000000	84.600	-162.2050
3110.000000	84.453	-162.6844
3150.000000	84.313	-163.0601
3200.000000	84.149	-163.4850
3250.000000	84.000	-163.8387
3300.000000	83.848	-164.1224
3350.000000	83.701	-164.3419
3400.000000	83.563	-164.4330
3450.000000	83.443	-164.4837
3500.000000	83.333	-164.5037
3550.000000	83.212	-164.4522
3600.000000	83.100	-164.2713
3650.000000	83.012	-163.9896
3700.000000	82.923	-163.7473
3750.000000	82.840	-163.5088
3820.000000	82.754	-162.9152
3870.000000	82.731	-162.4108
3950.000000	82.772	-161.7569
4000.000000	82.829	-161.5269
4060.000000	82.886	-161.3563
4120.000000	82.956	-161.3786
4180.000000	83.028	-161.6455
4250.000000	83.094	-162.3136
4310.000000	83.147	-163.1385
4370.000000	83.188	-164.0286
4440.000000	83.208	-165.1901
4500.000000	83.198	-166.3305
4550.000000	83.157	-167.3461
4620.000000	83.037	-168.7611
4680.000000	82.885	-169.7593
4750.000000	82.676	-170.5206
4820.000000	82.476	-170.8910
4870.000000	82.361	-170.9932
4940.000000	82.247	-171.1164
5000.000000	82.176	-171.3181
5080.000000	82.113	-171.5858
5150.000000	82.044	-171.9935
5220.000000	81.948	-172.5902
5300.000000	81.822	-173.2486
5380.000000	81.671	-173.8550
5450.000000	81.520	-174.2919
5520.000000	81.344	-174.6764
5600.000000	81.137	-174.9838
5700.000000	80.886	-175.1982
5800.000000	80.628	-175.1703
5900.000000	80.377	-174.8094
6000.000000	80.126	-174.0841
6080.000000	79.947	-173.5650
6150.000000	79.798	-173.0169
6220.000000	79.653	-172.2168
6300.000000	79.521	-171.0536
6400.000000	79.425	-169.5141
6500.000000	79.378	-168.0172
6600.000000	79.376	-166.5237
6700.000000	79.420	-165.0221
6800.000000	79.532	-163.6093
6900.000000	79.707	-162.3131
7000.000000	79.918	-161.2292
7100.000000	80.151	-160.3901
7200.000000	80.461	-159.8251
7300.000000	80.843	-159.6424
7400.000000	81.275	-160.0136
7500.000000	81.756	-161.1163
7620.000000	82.363	-163.5661
7750.000000	82.996	-168.0723
7880.000000	83.495	-174.6719
8000.000000	83.689	177.5996
8120.000000	83.532	169.1951
8250.000000	82.969	160.4681
8380.000000	82.058	153.2611
8500.000000	81.008	148.4073
8620.000000	79.879	145.3755
8750.000000	78.662	143.7935
8850.000000	77.773	143.5172
9000.000000	76.545	144.2000
9120.000000	75.632	145.3453
9250.000000	74.727	147.0975
9380.000000	73.925	149.3037
9500.000000	73.298	151.8123
9620.000000	72.721	154.6700
9750.000000	72.120	158.0064
9880.000000	71.592	161.3700
10000.000000	71.167	164.5941
10150.000000	70.712	168.6145
10300.000000	70.398	172.5697
10440.000000	70.172	176.3201
10600.000000	69.980	-179.3322
10750.000000	69.864	-175.1139
10900.000000	69.825	-171.0299
11060.000000	69.916	-167.1495
11200.000000	70.067	-163.9775
11380.000000	70.307	-160.2961
11500.000000	70.534	-158.1037
11720.000000	71.155	-154.5133
11800.000000	71.432	-153.4830
12060.000000	72.411	-152.2109
12200.000000	72.984	-152.8714
12410.000000	73.811	-155.9198
12500.000000	74.115	-158.0573
12650.000000	74.498	-162.7044
12800.000000	74.682	-168.4344
13150.000000	74.157	177.6425
13200.000000	73.985	175.9753
13400.000000	73.135	170.6727
13600.000000	72.102	167.4894
13800.000000	71.042	166.4118
14000.000000	70.093	167.0887
14300.000000	68.854	170.0757
14500.000000	68.198	173.2705
14750.000000	67.642	177.6588
15000.000000	67.402	-178.2512
15250.000000	67.405	-174.0336
15500.000000	67.746	-170.3809
15750.000000	68.421	-168.0796
16000.000000	69.448	-168.0167
16250.000000	70.699	-171.8346
16500.000000	71.826	178.7670
16750.000000	72.332	163.4984
17000.000000	71.799	146.3559
17250.000000	70.283	132.3657
17500.000000	68.259	123.8319
17750.000000	66.162	120.1055
18000.000000	64.247	119.4084
18250.000000	62.577	120.0874
18500.000000	61.182	114.9586
18750.000000	60.163	70.8990
19000.000000	59.286	-54.7174
19250.000000	58.337	175.9086
19500.000000	57.683	95.5962
19750.000000	58.047	-22.4596
20000.000000	58.972	-135.0475
