* Measurement data measured by REW V5.20.7
* Source: ???(Realtek High Definition Audi, no input selected, L, volume: no control
* Format: 128k Log Swept Sine, 1 sweep at -12.0 dBFS with no timing reference
* Dated: 13-Oct-2022 18:14:10
* REW Settings:
*  C-weighting compensation: Off
*  Target level: 75.0 dB
* Note: ; 
* Measurement: Sonicast direm pro 2 R
* Smoothing: 1/24 octave
* Frequency Step: 1/48 octave
* Start Frequency: 20.300 Hz
*
* Freq(Hz)	SPL(dB)	Phase(degrees)
20.299999	78.219	29.0450
20.600000	78.254	28.7084
20.900000	78.321	28.0819
21.200001	78.372	27.4126
21.400000	78.393	26.9346
21.799999	78.402	25.9221
22.000000	78.386	25.4293
22.400000	78.315	24.6271
22.700001	78.243	24.2992
23.000000	78.185	24.2325
23.299999	78.164	24.3142
23.600000	78.185	24.3753
24.000000	78.266	24.1624
24.299999	78.334	23.6851
24.700001	78.390	22.7275
25.000000	78.394	21.9612
25.400000	78.365	21.1202
25.799999	78.340	20.5599
26.200001	78.352	20.0918
26.500000	78.381	19.6315
26.900000	78.417	18.7681
27.200001	78.419	17.9914
27.600000	78.379	16.9854
28.000000	78.310	16.2458
28.500000	78.241	15.7547
29.000000	78.237	15.3887
29.500000	78.272	14.7657
30.000000	78.289	13.8792
30.400000	78.275	13.1781
30.700001	78.254	12.7427
31.100000	78.228	12.2949
31.500000	78.216	11.9333
32.000000	78.218	11.4825
32.500000	78.225	10.9925
33.000000	78.231	10.5007
33.500000	78.243	10.0064
34.000000	78.259	9.4528
34.500000	78.264	8.8330
35.000000	78.250	8.2332
35.500000	78.228	7.7496
36.000000	78.215	7.3664
36.500000	78.219	6.9679
37.000000	78.230	6.4516
37.500000	78.230	5.8282
38.200001	78.200	4.9632
38.700001	78.168	4.4491
39.500000	78.131	3.7432
40.000000	78.116	3.2901
40.599998	78.094	2.7269
41.200001	78.068	2.2072
41.799999	78.047	1.7479
42.500000	78.033	1.2018
43.099998	78.019	0.6660
43.700001	77.992	0.1180
44.400002	77.947	-0.4336
45.000000	77.912	-0.8168
45.500000	77.890	-1.1177
46.200001	77.867	-1.5776
46.799999	77.848	-2.0245
47.500000	77.821	-2.5760
48.200001	77.790	-3.1218
48.700001	77.765	-3.4967
49.400002	77.728	-3.9860
50.000000	77.697	-4.3575
50.799999	77.662	-4.8010
51.500000	77.637	-5.1904
52.200001	77.612	-5.5939
53.000000	77.580	-6.0384
53.799999	77.548	-6.4605
54.500000	77.521	-6.8318
55.200001	77.492	-7.2176
56.000000	77.456	-7.6795
57.000000	77.402	-8.2296
58.000000	77.350	-8.7001
59.000000	77.307	-9.1863
60.000000	77.258	-9.6811
60.799999	77.219	-10.0292
61.500000	77.189	-10.3211
62.200001	77.160	-10.6262
63.000000	77.124	-10.9831
64.000000	77.074	-11.4184
65.000000	77.021	-11.8476
66.000000	76.961	-12.2504
67.000000	76.902	-12.5984
68.000000	76.852	-12.9402
69.000000	76.803	-13.3136
70.000000	76.754	-13.6784
71.000000	76.710	-14.0516
72.000000	76.660	-14.4350
73.000000	76.608	-14.7573
74.000000	76.560	-15.0479
75.000000	76.513	-15.3360
76.199997	76.455	-15.6547
77.500000	76.395	-16.0202
78.800003	76.333	-16.4039
80.000000	76.275	-16.7594
81.199997	76.216	-17.0996
82.500000	76.154	-17.4410
83.800003	76.091	-17.7540
85.000000	76.032	-18.0045
86.199997	75.973	-18.2290
87.500000	75.910	-18.4728
88.500000	75.862	-18.6684
90.000000	75.788	-18.9888
91.199997	75.727	-19.2565
92.500000	75.662	-19.5146
93.800003	75.601	-19.7483
95.000000	75.548	-19.9613
96.199997	75.495	-20.1655
97.500000	75.435	-20.3584
98.800003	75.375	-20.5320
100.000000	75.320	-20.6907
101.500000	75.252	-20.9026
103.000000	75.182	-21.1196
104.400002	75.118	-21.2996
106.000000	75.048	-21.4843
107.500000	74.982	-21.6499
109.000000	74.912	-21.7848
110.599998	74.840	-21.9063
112.000000	74.779	-22.0380
113.800003	74.698	-22.2168
115.000000	74.644	-22.3072
117.199997	74.550	-22.4174
118.000000	74.515	-22.4335
120.599998	74.410	-22.4828
122.000000	74.350	-22.5430
124.099998	74.257	-22.6456
125.000000	74.218	-22.6973
126.500000	74.151	-22.7758
128.000000	74.085	-22.8143
131.500000	73.933	-22.7533
132.000000	73.912	-22.7261
134.000000	73.827	-22.5838
136.000000	73.749	-22.3831
138.000000	73.688	-22.1401
140.000000	73.652	-21.9129
143.000000	73.621	-21.7803
145.000000	73.599	-21.8009
147.500000	73.561	-21.8888
150.000000	73.512	-22.0095
152.500000	73.454	-22.1620
155.000000	73.387	-22.3165
157.500000	73.315	-22.4583
160.000000	73.238	-22.5657
162.500000	73.160	-22.6334
165.000000	73.081	-22.6649
167.500000	73.005	-22.6775
170.000000	72.930	-22.6985
172.500000	72.856	-22.7112
175.000000	72.783	-22.6848
177.500000	72.713	-22.6228
180.000000	72.645	-22.5272
182.500000	72.581	-22.4357
185.000000	72.515	-22.3706
187.500000	72.450	-22.2966
190.000000	72.386	-22.1952
192.500000	72.323	-22.0812
195.000000	72.256	-21.9595
197.500000	72.189	-21.8222
200.000000	72.126	-21.6821
203.000000	72.053	-21.5139
206.000000	71.982	-21.3399
209.000000	71.912	-21.1616
212.000000	71.841	-20.9819
214.000000	71.794	-20.8595
218.000000	71.705	-20.6132
220.000000	71.660	-20.4905
224.000000	71.569	-20.2083
227.000000	71.505	-19.9514
230.000000	71.447	-19.6559
233.000000	71.393	-19.3518
236.000000	71.344	-19.0937
240.000000	71.290	-18.8300
243.000000	71.257	-18.6773
247.000000	71.206	-18.5125
250.000000	71.161	-18.3967
254.000000	71.097	-18.2475
258.000000	71.029	-18.0937
262.000000	70.964	-17.8908
265.000000	70.915	-17.7186
269.000000	70.848	-17.4742
272.000000	70.799	-17.2767
276.000000	70.733	-17.0114
280.000000	70.666	-16.7437
285.000000	70.587	-16.4021
290.000000	70.508	-16.0530
295.000000	70.436	-15.6653
300.000000	70.368	-15.2744
304.000000	70.316	-14.9479
307.000000	70.277	-14.7033
311.000000	70.225	-14.3872
315.000000	70.172	-14.0700
320.000000	70.110	-13.6740
325.000000	70.051	-13.2699
330.000000	69.994	-12.8774
335.000000	69.933	-12.4759
340.000000	69.870	-12.0577
345.000000	69.811	-11.6390
350.000000	69.757	-11.2185
355.000000	69.707	-10.7717
360.000000	69.656	-10.3190
365.000000	69.603	-9.8765
370.000000	69.555	-9.4409
375.000000	69.511	-9.0181
382.000000	69.449	-8.4533
387.000000	69.404	-8.0373
395.000000	69.338	-7.3249
400.000000	69.299	-6.8749
406.000000	69.252	-6.3691
412.000000	69.208	-5.8602
418.000000	69.165	-5.3417
425.000000	69.115	-4.7427
431.000000	69.075	-4.2219
437.000000	69.039	-3.7138
444.000000	69.002	-3.1065
450.000000	68.969	-2.5776
455.000000	68.941	-2.1495
462.000000	68.901	-1.5441
468.000000	68.867	-1.0087
475.000000	68.835	-0.4014
482.000000	68.805	0.1951
487.000000	68.780	0.6198
494.000000	68.747	1.2171
500.000000	68.725	1.7392
508.000000	68.696	2.4377
515.000000	68.669	3.0310
522.000000	68.644	3.5942
530.000000	68.618	4.2708
538.000000	68.592	4.9898
545.000000	68.569	5.5969
552.000000	68.553	6.1881
560.000000	68.538	6.8699
570.000000	68.511	7.7422
580.000000	68.486	8.6206
590.000000	68.466	9.4775
600.000000	68.446	10.3234
608.000000	68.427	11.0168
615.000000	68.414	11.6421
622.000000	68.404	12.2680
630.000000	68.396	12.9625
640.000000	68.386	13.8037
650.000000	68.381	14.6599
660.000000	68.377	15.5578
670.000000	68.372	16.4150
680.000000	68.376	17.2714
690.000000	68.379	18.1349
700.000000	68.382	18.9847
710.000000	68.390	19.8335
720.000000	68.403	20.7081
730.000000	68.419	21.6014
740.000000	68.436	22.4913
750.000000	68.457	23.3794
762.000000	68.483	24.4131
775.000000	68.505	25.5283
788.000000	68.537	26.6339
800.000000	68.574	27.6796
812.000000	68.611	28.7002
825.000000	68.659	29.7944
838.000000	68.718	30.8959
850.000000	68.771	31.8962
862.000000	68.826	32.8936
875.000000	68.886	33.9680
885.000000	68.935	34.7735
900.000000	69.016	35.9428
912.000000	69.089	36.8635
925.000000	69.175	37.8325
938.000000	69.261	38.7919
950.000000	69.341	39.6512
962.000000	69.428	40.4729
975.000000	69.528	41.3416
988.000000	69.629	42.1865
1000.000000	69.726	42.9251
1015.000000	69.846	43.8104
1030.000000	69.965	44.6644
1044.000000	70.081	45.4039
1060.000000	70.217	46.1880
1075.000000	70.338	46.8837
1090.000000	70.453	47.5362
1106.000000	70.577	48.1872
1120.000000	70.684	48.7153
1138.000000	70.823	49.3481
1150.000000	70.915	49.7514
1172.000000	71.077	50.4633
1180.000000	71.135	50.7189
1206.000000	71.327	51.6061
1220.000000	71.456	52.1097
1241.000000	71.685	52.6219
1250.000000	71.781	52.7135
1265.000000	71.924	52.7980
1280.000000	72.050	52.8916
1315.000000	72.313	53.0767
1320.000000	72.346	53.0903
1340.000000	72.466	53.1151
1360.000000	72.562	53.1437
1380.000000	72.633	53.3201
1400.000000	72.697	53.7592
1430.000000	72.829	54.8356
1450.000000	72.957	55.6422
1475.000000	73.148	56.5641
1500.000000	73.352	57.3755
1525.000000	73.556	58.0879
1550.000000	73.750	58.7213
1575.000000	73.939	59.3203
1600.000000	74.132	59.9190
1625.000000	74.331	60.5025
1650.000000	74.539	61.0391
1675.000000	74.756	61.4898
1700.000000	74.975	61.8676
1725.000000	75.195	62.1744
1750.000000	75.414	62.4438
1775.000000	75.634	62.6962
1800.000000	75.858	62.9170
1825.000000	76.082	63.0967
1850.000000	76.309	63.2447
1875.000000	76.538	63.3653
1900.000000	76.770	63.4437
1925.000000	77.005	63.4778
1950.000000	77.241	63.4695
1975.000000	77.480	63.4080
2000.000000	77.722	63.2854
2030.000000	78.015	63.0477
2060.000000	78.310	62.7128
2090.000000	78.609	62.2752
2120.000000	78.907	61.7337
2140.000000	79.104	61.3118
2180.000000	79.492	60.3015
2200.000000	79.684	59.7111
2240.000000	80.062	58.3684
2270.000000	80.337	57.2167
2300.000000	80.601	55.9403
2330.000000	80.853	54.5355
2360.000000	81.091	53.0072
2400.000000	81.381	50.7958
2430.000000	81.577	49.0152
2470.000000	81.803	46.5087
2500.000000	81.944	44.5530
2540.000000	82.092	41.8787
2580.000000	82.194	39.1724
2620.000000	82.251	36.4831
2650.000000	82.264	34.5055
2690.000000	82.244	31.9568
2720.000000	82.203	30.1384
2760.000000	82.118	27.8671
2800.000000	82.003	25.7893
2850.000000	81.826	23.4987
2900.000000	81.624	21.5712
2950.000000	81.410	19.9936
3000.000000	81.198	18.7290
3040.000000	81.034	17.9155
3070.000000	80.917	17.4012
3110.000000	80.768	16.8192
3150.000000	80.628	16.3418
3200.000000	80.466	15.8638
3250.000000	80.316	15.4780
3300.000000	80.171	15.1690
3350.000000	80.032	14.9607
3400.000000	79.899	14.8716
3450.000000	79.778	14.9000
3500.000000	79.672	15.0252
3550.000000	79.582	15.2198
3600.000000	79.506	15.4599
3650.000000	79.444	15.7372
3700.000000	79.396	16.0496
3750.000000	79.362	16.3916
3820.000000	79.343	16.8967
3870.000000	79.355	17.2532
3950.000000	79.416	17.7985
4000.000000	79.479	18.0938
4060.000000	79.579	18.3755
4120.000000	79.706	18.5312
4180.000000	79.860	18.4974
4250.000000	80.062	18.1185
4310.000000	80.241	17.4597
4370.000000	80.410	16.4939
4440.000000	80.580	15.0021
4500.000000	80.692	13.4413
4550.000000	80.753	11.9875
4620.000000	80.780	9.8388
4680.000000	80.750	8.0241
4750.000000	80.665	6.0845
4820.000000	80.551	4.3854
4870.000000	80.462	3.2879
4940.000000	80.332	1.8335
5000.000000	80.221	0.5866
5080.000000	80.065	-1.1597
5150.000000	79.906	-2.7860
5220.000000	79.714	-4.4736
5300.000000	79.442	-6.3839
5380.000000	79.114	-8.1505
5450.000000	78.781	-9.4892
5520.000000	78.412	-10.5772
5600.000000	77.961	-11.4734
5700.000000	77.374	-12.0540
5800.000000	76.788	-12.0572
5900.000000	76.218	-11.5267
6000.000000	75.679	-10.5372
6080.000000	75.273	-9.4646
6150.000000	74.939	-8.3343
6220.000000	74.627	-7.0474
6300.000000	74.299	-5.3994
6400.000000	73.937	-3.0958
6500.000000	73.634	-0.5910
6600.000000	73.394	2.0209
6700.000000	73.216	4.6531
6800.000000	73.093	7.2632
6900.000000	73.023	9.8302
7000.000000	73.007	12.3800
7100.000000	73.041	14.9031
7200.000000	73.126	17.3682
7300.000000	73.269	19.7255
7400.000000	73.472	21.9149
7500.000000	73.730	23.8894
7620.000000	74.108	25.9186
7750.000000	74.599	27.5639
7880.000000	75.178	28.4318
8000.000000	75.791	28.2723
8120.000000	76.463	26.8909
8250.000000	77.201	23.6319
8380.000000	77.842	18.1807
8500.000000	78.218	11.2180
8620.000000	78.267	2.9634
8750.000000	77.879	-6.1949
8850.000000	77.290	-12.4563
9000.000000	76.072	-19.5075
9120.000000	74.953	-22.9520
9250.000000	73.721	-24.7510
9380.000000	72.552	-24.9892
9500.000000	71.563	-24.1992
9620.000000	70.673	-22.7239
9750.000000	69.824	-20.5941
9880.000000	69.084	-18.1034
10000.000000	68.483	-15.5769
10150.000000	67.832	-12.1954
10300.000000	67.287	-8.6402
10440.000000	66.862	-5.2314
10600.000000	66.476	-1.2835
10750.000000	66.213	2.4306
10900.000000	66.044	6.1150
11060.000000	65.966	9.9478
11200.000000	65.989	13.1105
11380.000000	66.149	16.7456
11500.000000	66.340	18.8423
11720.000000	66.887	21.7644
11800.000000	67.150	22.4152
12060.000000	68.207	22.2605
12200.000000	68.865	20.2600
12410.000000	69.804	13.9111
12500.000000	70.110	9.8573
12650.000000	70.378	1.6102
12800.000000	70.259	-7.5986
13150.000000	68.525	-25.7118
13200.000000	68.162	-27.4703
13400.000000	66.610	-32.2838
13600.000000	65.074	-34.1724
13800.000000	63.725	-34.0511
14000.000000	62.605	-32.5863
14300.000000	61.261	-28.9431
14500.000000	60.548	-26.0080
14750.000000	59.866	-22.1192
15000.000000	59.406	-18.2171
15250.000000	59.137	-14.5052
15500.000000	59.038	-11.0788
15750.000000	59.136	-8.0614
16000.000000	59.483	-5.6100
16250.000000	60.054	-4.3712
16500.000000	60.830	-4.9228
16750.000000	61.797	-7.6984
17000.000000	62.845	-13.4826
17250.000000	63.711	-23.0653
17500.000000	64.088	-36.4174
17750.000000	63.805	-51.6540
18000.000000	62.904	-65.9641
18250.000000	61.613	-77.3118
18500.000000	60.244	-85.5930
18750.000000	59.079	-92.1985
19000.000000	58.273	-98.5845
19250.000000	57.861	-106.1904
19500.000000	57.745	-115.9699
19750.000000	57.739	-127.0579
20000.000000	57.751	-134.6073
