* Measurement data measured by REW V5.20.9
* Source: Input device not selected, no input selected, L, volume: no control
* Format: 128k Log Swept Sine, 1 sweep at -12.0 dBFS with no timing reference
* Dated: 2022. 7. 18 ¿ÀÀü 11:40:42
* REW Settings:
*  C-weighting compensation: Off
*  Target level: 75.0 dB
* Note: 
* Measurement: Foam_L
* Smoothing: 1/24 octave
* Frequency Step: 1/48 octave
* Start Frequency: 20.300 Hz
*
* Freq(Hz)	SPL(dB)	Phase(degrees)
20.299999	82.583	38.7411
20.600000	82.656	39.0854
20.900000	82.820	39.4907
21.200001	82.998	39.3042
21.400000	83.100	38.8676
21.799999	83.238	37.5704
22.000000	83.270	36.8810
22.400000	83.281	35.6993
22.700001	83.277	35.0263
23.000000	83.286	34.4466
23.299999	83.305	33.8353
23.600000	83.323	33.1542
24.000000	83.326	32.2065
24.299999	83.310	31.5959
24.700001	83.289	31.0307
25.000000	83.294	30.7534
25.400000	83.337	30.4007
25.799999	83.403	29.8806
26.200001	83.456	29.2016
26.500000	83.479	28.6958
26.900000	83.496	28.1419
27.200001	83.513	27.8152
27.600000	83.547	27.3957
28.000000	83.579	26.8865
28.500000	83.581	26.2291
29.000000	83.550	25.9265
29.500000	83.557	26.0738
30.000000	83.654	26.1788
30.400000	83.763	25.8577
30.700001	83.830	25.3545
31.100000	83.873	24.5363
31.500000	83.869	23.8040
32.000000	83.844	23.1899
32.500000	83.836	22.7261
33.000000	83.826	22.1878
33.500000	83.784	21.7269
34.000000	83.733	21.6690
34.500000	83.747	21.9583
35.000000	83.858	22.1028
35.500000	84.011	21.6286
36.000000	84.123	20.5503
36.500000	84.151	19.2712
37.000000	84.110	18.2666
37.500000	84.054	17.7775
38.200001	84.078	17.7111
38.700001	84.200	17.5134
39.500000	84.422	15.9078
40.000000	84.453	14.3668
40.599998	84.349	12.8658
41.200001	84.183	12.3594
41.799999	84.067	12.6785
42.500000	84.049	13.3767
43.099998	84.108	13.7882
43.700001	84.190	13.8289
44.400002	84.259	13.4574
45.000000	84.281	13.0203
45.500000	84.289	12.6661
46.200001	84.295	12.0850
46.799999	84.274	11.5279
47.500000	84.226	11.2105
48.200001	84.243	11.3249
48.700001	84.320	11.2814
49.400002	84.430	10.6221
50.000000	84.444	9.9020
50.799999	84.411	9.6196
51.500000	84.447	9.6170
52.200001	84.475	9.1394
53.000000	84.382	8.6663
53.799999	84.290	9.0390
54.500000	84.323	9.3347
55.200001	84.400	8.9153
56.000000	84.430	7.7154
57.000000	84.324	6.3142
58.000000	84.258	6.0495
59.000000	84.352	5.4389
60.000000	84.317	4.5257
60.799999	84.274	4.7084
61.500000	84.308	4.9601
62.200001	84.341	4.9571
63.000000	84.360	4.9732
64.000000	84.420	4.7061
65.000000	84.422	3.8253
66.000000	84.365	3.1080
67.000000	84.327	2.6229
68.000000	84.324	2.3261
69.000000	84.351	2.0109
70.000000	84.346	1.8073
71.000000	84.362	1.9877
72.000000	84.428	1.8321
73.000000	84.436	1.1153
74.000000	84.366	0.3655
75.000000	84.268	-0.1375
76.199997	84.203	-0.3971
77.500000	84.226	-0.9495
78.800003	84.194	-1.7352
80.000000	84.161	-1.8776
81.199997	84.186	-2.3007
82.500000	84.119	-3.2465
83.800003	83.951	-3.6528
85.000000	83.872	-3.3034
86.199997	83.905	-3.3270
87.500000	83.893	-3.6855
88.500000	83.871	-3.6401
90.000000	83.892	-3.4666
91.199997	83.922	-3.5766
92.500000	83.939	-3.9603
93.800003	83.938	-4.5119
95.000000	83.923	-5.1001
96.199997	83.906	-5.6121
97.500000	83.882	-6.2101
98.800003	83.802	-6.4760
100.000000	83.772	-6.1324
101.500000	83.835	-5.9926
103.000000	83.865	-6.4472
104.400002	83.830	-6.9392
106.000000	83.755	-7.3026
107.500000	83.697	-7.6648
109.000000	83.618	-8.1702
110.599998	83.512	-8.5056
112.000000	83.469	-8.3589
113.800003	83.548	-8.5107
115.000000	83.566	-8.9910
117.199997	83.486	-9.1828
118.000000	83.461	-8.9733
120.599998	83.510	-8.6737
122.000000	83.514	-9.3163
124.099998	83.406	-10.2037
125.000000	83.367	-10.3059
126.500000	83.362	-10.5608
128.000000	83.330	-11.1386
131.500000	83.214	-11.4641
132.000000	83.213	-11.5279
134.000000	83.188	-12.0612
136.000000	83.067	-12.3631
138.000000	82.983	-12.2316
140.000000	82.944	-12.5689
143.000000	82.910	-13.1751
145.000000	82.933	-13.5929
147.500000	82.896	-13.8587
150.000000	82.868	-13.6224
152.500000	82.838	-13.6151
155.000000	82.738	-13.4573
157.500000	82.594	-13.3749
160.000000	82.470	-13.4863
162.500000	82.507	-14.0785
165.000000	82.584	-15.0365
167.500000	82.541	-15.4977
170.000000	82.433	-15.2877
172.500000	82.348	-15.0614
175.000000	82.334	-15.2973
177.500000	82.308	-16.0543
180.000000	82.228	-16.5106
182.500000	82.144	-16.1562
185.000000	82.080	-15.3322
187.500000	82.017	-14.9659
190.000000	81.917	-15.2043
192.500000	81.824	-15.3231
195.000000	81.772	-15.3871
197.500000	81.728	-15.7631
200.000000	81.687	-16.2002
203.000000	81.692	-16.4568
206.000000	81.655	-16.5923
209.000000	81.611	-16.7804
212.000000	81.554	-16.9714
214.000000	81.513	-16.8194
218.000000	81.391	-16.5571
220.000000	81.325	-16.5275
224.000000	81.252	-16.7403
227.000000	81.222	-16.5128
230.000000	81.218	-15.8002
233.000000	81.194	-15.4750
236.000000	81.112	-15.6572
240.000000	81.066	-15.8203
243.000000	81.061	-15.6127
247.000000	80.945	-15.8586
250.000000	80.780	-16.5709
254.000000	80.625	-16.7159
258.000000	80.535	-15.9558
262.000000	80.565	-16.0179
265.000000	80.622	-16.5408
269.000000	80.619	-16.5578
272.000000	80.572	-16.2324
276.000000	80.462	-15.5896
280.000000	80.383	-14.9664
285.000000	80.349	-15.0134
290.000000	80.293	-15.3263
295.000000	80.189	-15.7266
300.000000	80.121	-15.4423
304.000000	80.020	-15.3120
307.000000	79.921	-15.2464
311.000000	79.836	-14.9906
315.000000	79.804	-14.0926
320.000000	79.671	-12.8910
325.000000	79.504	-12.7658
330.000000	79.559	-12.8942
335.000000	79.654	-12.9588
340.000000	79.601	-13.0144
345.000000	79.471	-13.2257
350.000000	79.314	-13.1440
355.000000	79.186	-12.6703
360.000000	79.065	-12.2141
365.000000	79.006	-11.7137
370.000000	78.955	-11.1675
375.000000	78.914	-10.9457
382.000000	78.866	-10.7898
387.000000	78.781	-10.5919
395.000000	78.737	-9.6620
400.000000	78.705	-8.6880
406.000000	78.670	-8.1503
412.000000	78.644	-8.1131
418.000000	78.550	-7.6217
425.000000	78.417	-6.8870
431.000000	78.409	-6.9080
437.000000	78.384	-6.5047
444.000000	78.343	-5.5441
450.000000	78.306	-5.1672
455.000000	78.268	-4.8119
462.000000	78.228	-4.3728
468.000000	78.132	-4.4235
475.000000	78.009	-4.4581
482.000000	77.898	-3.5928
487.000000	77.854	-2.6969
494.000000	77.817	-2.3524
500.000000	77.745	-2.5628
508.000000	77.707	-2.3150
515.000000	77.676	-1.7849
522.000000	77.615	-0.8013
530.000000	77.587	-0.1814
538.000000	77.541	0.1195
545.000000	77.458	1.0246
552.000000	77.420	1.7335
560.000000	77.397	2.4070
570.000000	77.417	3.4410
580.000000	77.361	4.2475
590.000000	77.314	5.3803
600.000000	77.260	5.8476
608.000000	77.186	6.3875
615.000000	77.124	7.1947
622.000000	77.091	7.9524
630.000000	77.081	8.2363
640.000000	77.011	8.0950
650.000000	76.915	8.6880
660.000000	76.931	9.9426
670.000000	76.979	10.6071
680.000000	76.974	11.4981
690.000000	76.991	12.8817
700.000000	76.979	14.2135
710.000000	76.983	15.1194
720.000000	76.992	16.1452
730.000000	77.025	17.1680
740.000000	77.060	18.1312
750.000000	77.030	18.7912
762.000000	76.935	19.5546
775.000000	76.958	20.8194
788.000000	76.937	21.7610
800.000000	76.974	22.7858
812.000000	77.055	23.4005
825.000000	76.960	24.3282
838.000000	76.909	25.8032
850.000000	77.008	26.7958
862.000000	77.125	27.3268
875.000000	77.280	28.3139
885.000000	77.321	29.1060
900.000000	77.330	30.1751
912.000000	77.352	31.3935
925.000000	77.366	32.4189
938.000000	77.385	33.2507
950.000000	77.435	33.8901
962.000000	77.518	33.4656
975.000000	77.596	23.6067
988.000000	77.624	-29.7661
1000.000000	77.669	-145.6714
1015.000000	77.895	82.4859
1030.000000	78.023	43.1917
1044.000000	78.024	38.8438
1060.000000	78.085	38.6860
1075.000000	78.175	39.2091
1090.000000	78.247	39.9316
1106.000000	78.303	40.7868
1120.000000	78.342	41.3601
1138.000000	78.412	41.9553
1150.000000	78.499	42.4713
1172.000000	78.613	43.6192
1180.000000	78.651	44.0933
1206.000000	78.768	46.0643
1220.000000	78.860	46.9420
1241.000000	78.980	47.0460
1250.000000	79.009	46.8867
1265.000000	79.083	46.9603
1280.000000	79.192	47.4982
1315.000000	79.346	49.4899
1320.000000	79.365	49.6686
1340.000000	79.414	50.2001
1360.000000	79.444	50.8469
1380.000000	79.533	51.6678
1400.000000	79.662	52.6896
1430.000000	79.861	53.9416
1450.000000	80.005	54.3412
1475.000000	80.111	54.8846
1500.000000	80.235	55.3984
1525.000000	80.351	56.3708
1550.000000	80.428	57.4457
1575.000000	80.544	58.2494
1600.000000	80.689	59.2010
1625.000000	80.854	60.0198
1650.000000	81.041	60.8099
1675.000000	81.176	61.7468
1700.000000	81.290	62.4441
1725.000000	81.429	63.0826
1750.000000	81.567	63.8836
1775.000000	81.651	64.7618
1800.000000	81.748	65.9115
1825.000000	81.933	67.2573
1850.000000	82.241	68.6085
1875.000000	82.592	69.2158
1900.000000	82.868	69.2205
1925.000000	83.081	69.2249
1950.000000	83.289	69.5029
1975.000000	83.505	69.9993
2000.000000	83.710	70.5175
2030.000000	83.911	70.7701
2060.000000	84.137	70.8784
2090.000000	84.407	71.1161
2120.000000	84.690	71.4140
2140.000000	84.882	71.5667
2180.000000	85.254	71.6835
2200.000000	85.437	71.7181
2240.000000	85.834	71.7449
2270.000000	86.125	71.5630
2300.000000	86.411	71.1913
2330.000000	86.708	70.6802
2360.000000	87.011	69.9959
2400.000000	87.394	68.9819
2430.000000	87.667	68.1976
2470.000000	88.020	66.8415
2500.000000	88.272	65.6387
2540.000000	88.588	63.8417
2580.000000	88.880	61.7869
2620.000000	89.138	59.7032
2650.000000	89.302	58.0686
2690.000000	89.487	55.7130
2720.000000	89.602	53.8789
2760.000000	89.718	51.4778
2800.000000	89.779	49.1045
2850.000000	89.797	46.2044
2900.000000	89.771	43.5067
2950.000000	89.698	40.9965
3000.000000	89.583	38.7955
3040.000000	89.443	37.2477
3070.000000	89.330	36.1901
3110.000000	89.182	34.8425
3150.000000	89.031	33.6831
3200.000000	88.843	32.5327
3250.000000	88.658	31.5432
3300.000000	88.480	30.7614
3350.000000	88.306	30.2349
3400.000000	88.133	29.8767
3450.000000	87.958	29.6112
3500.000000	87.792	29.5126
3550.000000	87.648	29.6068
3600.000000	87.522	29.8081
3650.000000	87.422	30.0585
3700.000000	87.330	30.3656
3750.000000	87.247	30.7297
3820.000000	87.158	31.3365
3870.000000	87.118	31.9082
3950.000000	87.082	32.8330
4000.000000	87.073	33.3912
4060.000000	87.089	34.0930
4120.000000	87.136	34.7663
4180.000000	87.202	35.3858
4250.000000	87.306	36.0882
4310.000000	87.409	36.7401
4370.000000	87.539	37.3311
4440.000000	87.733	37.8253
4500.000000	87.916	38.1383
4550.000000	88.079	38.3124
4620.000000	88.329	38.4157
4680.000000	88.558	38.3290
4750.000000	88.843	37.9780
4820.000000	89.164	37.2980
4870.000000	89.408	36.5782
4940.000000	89.743	35.2504
5000.000000	90.018	33.7700
5080.000000	90.371	31.3336
5150.000000	90.643	28.8158
5220.000000	90.873	25.8582
5300.000000	91.065	21.8766
5380.000000	91.144	17.5454
5450.000000	91.107	13.7179
5520.000000	90.972	9.9671
5600.000000	90.711	5.9091
5700.000000	90.257	1.4304
5800.000000	89.709	-2.1462
5900.000000	89.114	-4.7053
6000.000000	88.514	-6.4816
6080.000000	88.043	-7.3578
6150.000000	87.645	-7.7228
6220.000000	87.272	-7.7883
6300.000000	86.882	-7.6067
6400.000000	86.452	-7.0669
6500.000000	86.080	-6.2408
6600.000000	85.772	-5.2687
6700.000000	85.534	-4.2054
6800.000000	85.365	-2.9808
6900.000000	85.250	-1.6702
7000.000000	85.224	-0.3468
7100.000000	85.258	0.8156
7200.000000	85.353	1.6295
7300.000000	85.529	2.1265
7400.000000	85.776	2.2440
7500.000000	86.071	1.7390
7620.000000	86.466	0.1393
7750.000000	86.899	-2.9942
7880.000000	87.274	-8.0002
8000.000000	87.458	-14.3024
8120.000000	87.378	-21.8441
8250.000000	86.918	-30.3602
8380.000000	86.067	-37.8876
8500.000000	85.018	-43.2000
8620.000000	83.829	-46.6886
8750.000000	82.507	-48.4612
8850.000000	81.520	-48.7294
9000.000000	80.158	-47.9042
9120.000000	79.165	-46.4298
9250.000000	78.171	-44.2216
9380.000000	77.258	-41.4785
9500.000000	76.492	-38.6415
9620.000000	75.795	-35.5404
9750.000000	75.153	-31.8423
9880.000000	74.623	-28.1533
10000.000000	74.184	-24.7789
10150.000000	73.691	-20.0731
10300.000000	73.292	-15.2397
10440.000000	73.025	-11.0164
10600.000000	72.796	-6.0746
10750.000000	72.640	-1.3213
10900.000000	72.570	3.2880
11060.000000	72.570	8.1497
11200.000000	72.719	12.4334
11380.000000	73.040	17.4017
11500.000000	73.335	20.6134
11720.000000	74.101	26.2801
11800.000000	74.464	28.0450
12060.000000	76.065	32.1057
12200.000000	77.221	32.6313
12410.000000	79.291	29.0116
12500.000000	80.193	24.9299
12650.000000	81.415	13.8351
12800.000000	81.919	-1.9381
13150.000000	79.574	-33.8817
13200.000000	79.010	-36.3240
13400.000000	76.773	-42.7190
13600.000000	74.630	-45.1959
13800.000000	72.643	-44.0471
14000.000000	70.964	-40.3961
14300.000000	68.944	-33.9327
14500.000000	67.857	-29.0499
14750.000000	66.842	-22.1321
15000.000000	66.131	-15.1989
15250.000000	65.596	-8.3661
15500.000000	65.386	-2.0956
15750.000000	65.362	3.7495
16000.000000	65.450	9.6881
16250.000000	65.802	14.8016
16500.000000	66.405	18.9766
16750.000000	67.408	20.8220
17000.000000	68.624	19.4336
17250.000000	69.831	13.7476
17500.000000	70.647	2.8293
17750.000000	70.677	-11.5548
18000.000000	69.830	-25.2180
18250.000000	68.338	-34.4880
18500.000000	66.529	-39.1740
18750.000000	64.848	-40.3802
19000.000000	63.512	-39.3860
19250.000000	62.485	-37.5878
19500.000000	61.829	-35.2842
19750.000000	61.734	-31.1270
20000.000000	62.035	-26.8128
