* Measurement data measured by REW V5.20.5
* Source: Mic in at rear panel (Pink)(Realtek(R) Audio), MICROPHONE (마스), L, volume: 1.000
* Format: 128k Log Swept Sine, 1 sweep at -12.0 dBFS with no timing reference
* Dated: 2022. 4. 2 오후 7:30:41
* REW Settings:
*  C-weighting compensation: Off
*  Target level: 75.0 dB
* Note: 
* Measurement: 4월 2
* Smoothing: 1/24 octave
* Frequency Step: 1/48 octave
* Start Frequency: 20.300 Hz
*
* Freq(Hz)	SPL(dB)	Phase(degrees)
20.299999	91.896	-158.0412
20.600000	91.912	-158.3636
20.900000	91.944	-158.9691
21.200001	91.966	-159.6234
21.400000	91.972	-160.0793
21.799999	91.965	-161.0206
22.000000	91.954	-161.4884
22.400000	91.922	-162.3702
22.700001	91.903	-162.9759
23.000000	91.898	-163.5521
23.299999	91.902	-164.1294
23.600000	91.914	-164.7330
24.000000	91.937	-165.6033
24.299999	91.955	-166.3016
24.700001	91.975	-167.2605
25.000000	91.983	-167.9668
25.400000	91.989	-168.8511
25.799999	91.995	-169.6474
26.200001	92.007	-170.3623
26.500000	92.018	-170.8609
26.900000	92.035	-171.4967
27.200001	92.045	-171.9624
27.600000	92.055	-172.5751
28.000000	92.059	-173.1836
28.500000	92.053	-173.9502
29.000000	92.035	-174.7338
29.500000	92.005	-175.5131
30.000000	91.960	-176.2297
30.400000	91.921	-176.7325
30.700001	91.899	-177.0777
31.100000	91.883	-177.5364
31.500000	91.879	-178.0385
32.000000	91.876	-178.7560
32.500000	91.869	-179.5246
33.000000	91.857	179.7407
33.500000	91.846	179.0628
34.000000	91.841	178.4005
34.500000	91.838	177.7245
35.000000	91.835	177.0570
35.500000	91.835	176.4208
36.000000	91.837	175.7847
36.500000	91.837	175.1037
37.000000	91.820	174.3969
37.500000	91.783	173.7445
38.200001	91.726	173.0141
38.700001	91.699	172.5751
39.500000	91.661	171.8719
40.000000	91.633	171.4290
40.599998	91.599	170.8905
41.200001	91.561	170.2971
41.799999	91.515	169.6483
42.500000	91.455	168.9134
43.099998	91.412	168.3611
43.700001	91.384	167.8686
44.400002	91.372	167.3136
45.000000	91.369	166.7945
45.500000	91.363	166.3161
46.200001	91.337	165.6458
46.799999	91.307	165.1476
47.500000	91.282	164.6219
48.200001	91.264	164.0503
48.700001	91.245	163.6112
49.400002	91.203	162.9988
50.000000	91.155	162.4726
50.799999	91.076	161.7679
51.500000	90.997	161.2367
52.200001	90.932	160.8114
53.000000	90.892	160.3181
53.799999	90.864	159.7641
54.500000	90.840	159.3190
55.200001	90.824	158.8955
56.000000	90.803	158.3469
57.000000	90.748	157.7111
58.000000	90.685	157.1867
59.000000	90.604	156.5176
60.000000	90.494	155.9088
60.799999	90.422	155.5285
61.500000	90.381	155.1320
62.200001	90.343	154.6125
63.000000	90.282	153.9665
64.000000	90.197	153.3551
65.000000	90.156	152.8937
66.000000	90.134	152.2747
67.000000	90.083	151.6924
68.000000	90.025	151.3098
69.000000	89.966	150.9652
70.000000	89.897	150.6143
71.000000	89.831	150.2666
72.000000	89.776	149.8599
73.000000	89.719	149.3330
74.000000	89.650	148.7704
75.000000	89.579	148.3215
76.199997	89.519	147.8869
77.500000	89.466	147.3055
78.800003	89.386	146.7203
80.000000	89.305	146.3094
81.199997	89.228	145.8557
82.500000	89.132	145.2817
83.800003	89.038	144.8338
85.000000	88.981	144.5215
86.199997	88.941	144.1616
87.500000	88.888	143.6928
88.500000	88.831	143.3781
90.000000	88.743	143.0374
91.199997	88.668	142.6941
92.500000	88.566	142.3630
93.800003	88.478	142.1432
95.000000	88.423	141.9153
96.199997	88.385	141.5540
97.500000	88.328	141.0184
98.800003	88.240	140.5734
100.000000	88.156	140.2756
101.500000	88.054	139.9612
103.000000	87.973	139.6827
104.400002	87.909	139.3357
106.000000	87.828	138.9941
107.500000	87.752	138.7064
109.000000	87.663	138.3732
110.599998	87.552	138.0074
112.000000	87.462	137.7332
113.800003	87.380	137.3955
115.000000	87.342	137.1680
117.199997	87.267	136.7285
118.000000	87.224	136.5584
120.599998	87.036	136.2491
122.000000	86.956	136.1505
124.099998	86.869	135.8879
125.000000	86.840	135.7877
126.500000	86.799	135.5963
128.000000	86.740	135.3159
131.500000	86.514	134.6634
132.000000	86.481	134.5667
134.000000	86.369	134.2213
136.000000	86.290	133.9981
138.000000	86.220	133.8083
140.000000	86.131	133.5871
143.000000	85.987	133.1544
145.000000	85.904	132.9648
147.500000	85.817	132.9209
150.000000	85.716	132.8614
152.500000	85.597	132.5533
155.000000	85.500	132.2651
157.500000	85.423	132.0110
160.000000	85.324	131.8635
162.500000	85.224	131.6356
165.000000	85.131	131.4482
167.500000	85.050	131.4206
170.000000	84.951	131.4684
172.500000	84.844	131.3829
175.000000	84.744	131.1018
177.500000	84.646	130.8573
180.000000	84.555	130.7837
182.500000	84.477	130.6908
185.000000	84.387	130.5071
187.500000	84.274	130.4048
190.000000	84.157	130.4410
192.500000	84.058	130.5110
195.000000	83.979	130.4896
197.500000	83.900	130.3295
200.000000	83.801	130.1461
203.000000	83.686	130.0767
206.000000	83.593	130.1095
209.000000	83.503	130.1817
212.000000	83.413	130.2461
214.000000	83.355	130.2899
218.000000	83.247	130.2817
220.000000	83.184	130.1696
224.000000	83.054	130.1056
227.000000	82.970	130.1358
230.000000	82.880	130.0443
233.000000	82.796	129.8932
236.000000	82.723	129.8152
240.000000	82.611	129.8578
243.000000	82.526	129.9425
247.000000	82.427	130.0326
250.000000	82.350	130.0765
254.000000	82.255	130.2416
258.000000	82.141	130.4619
262.000000	82.016	130.6127
265.000000	81.956	130.5818
269.000000	81.871	130.6731
272.000000	81.783	130.9190
276.000000	81.671	131.0307
280.000000	81.589	130.9594
285.000000	81.474	130.7508
290.000000	81.344	130.5125
295.000000	81.228	130.6936
300.000000	81.136	131.1554
304.000000	81.041	131.7036
307.000000	80.959	131.9656
311.000000	80.868	131.9880
315.000000	80.798	131.9786
320.000000	80.703	132.1750
325.000000	80.607	132.2972
330.000000	80.546	132.5703
335.000000	80.482	132.9386
340.000000	80.350	133.1808
345.000000	80.230	133.4203
350.000000	80.145	133.6894
355.000000	80.058	133.8050
360.000000	79.961	133.9116
365.000000	79.866	134.1595
370.000000	79.770	134.4911
375.000000	79.679	134.7562
382.000000	79.554	134.9741
387.000000	79.475	135.2359
395.000000	79.396	135.8811
400.000000	79.313	136.2823
406.000000	79.235	136.6356
412.000000	79.166	136.7822
418.000000	79.067	136.9297
425.000000	78.941	137.4001
431.000000	78.857	137.7887
437.000000	78.783	137.9014
444.000000	78.713	138.0995
450.000000	78.639	138.3839
455.000000	78.574	138.8221
462.000000	78.503	139.4379
468.000000	78.461	139.8867
475.000000	78.386	140.4252
482.000000	78.267	140.7417
487.000000	78.193	140.9685
494.000000	78.137	141.4728
500.000000	78.104	141.8835
508.000000	78.045	142.2755
515.000000	77.985	142.5744
522.000000	77.911	143.1473
530.000000	77.803	143.8299
538.000000	77.735	144.3083
545.000000	77.690	144.7872
552.000000	77.618	145.2460
560.000000	77.546	145.5893
570.000000	77.475	146.3558
580.000000	77.418	147.0730
590.000000	77.316	147.7600
600.000000	77.219	148.4878
608.000000	77.151	149.0658
615.000000	77.095	149.4941
622.000000	77.052	149.8546
630.000000	77.028	150.4092
640.000000	76.978	151.1680
650.000000	76.917	151.9331
660.000000	76.855	152.7698
670.000000	76.777	153.5381
680.000000	76.731	154.1249
690.000000	76.715	154.7466
700.000000	76.662	155.5357
710.000000	76.610	156.5275
720.000000	76.593	157.4615
730.000000	76.601	158.2864
740.000000	76.604	158.9976
750.000000	76.585	159.5977
762.000000	76.563	160.5456
775.000000	76.539	161.7000
788.000000	76.493	162.7221
800.000000	76.447	163.7170
812.000000	76.453	164.7222
825.000000	76.439	165.6121
838.000000	76.406	166.3664
850.000000	76.402	167.0194
862.000000	76.417	167.7332
875.000000	76.441	168.6779
885.000000	76.453	169.5249
900.000000	76.485	170.8347
912.000000	76.484	171.6108
925.000000	76.504	172.2776
938.000000	76.568	173.0582
950.000000	76.599	173.7836
962.000000	76.617	174.3304
975.000000	76.640	174.8062
988.000000	76.645	174.8900
1000.000000	76.638	175.0331
1015.000000	76.622	176.6253
1030.000000	76.610	178.3605
1044.000000	76.589	179.5231
1060.000000	76.622	-179.2879
1075.000000	76.684	-178.1697
1090.000000	76.720	-177.0610
1106.000000	76.741	-175.9410
1120.000000	76.751	-175.0508
1138.000000	76.789	-173.7254
1150.000000	76.809	-172.6635
1172.000000	76.836	-170.2728
1180.000000	76.846	-169.3550
1206.000000	76.880	-166.5970
1220.000000	76.925	-164.9435
1241.000000	77.034	-162.0325
1250.000000	77.098	-160.5837
1265.000000	77.254	-158.0476
1280.000000	77.492	-155.5374
1315.000000	78.369	-150.2999
1320.000000	78.526	-149.6752
1340.000000	79.213	-147.4257
1360.000000	79.949	-145.7096
1380.000000	80.652	-145.0051
1400.000000	81.302	-145.1996
1430.000000	82.191	-146.4675
1450.000000	82.682	-147.9771
1475.000000	83.167	-150.2483
1500.000000	83.550	-152.4053
1525.000000	83.852	-154.3070
1550.000000	84.095	-155.9104
1575.000000	84.304	-157.2679
1600.000000	84.473	-158.5042
1625.000000	84.653	-159.5265
1650.000000	84.851	-160.3501
1675.000000	85.045	-161.1682
1700.000000	85.246	-161.8234
1725.000000	85.462	-162.3695
1750.000000	85.689	-162.9581
1775.000000	85.913	-163.5622
1800.000000	86.137	-164.1960
1825.000000	86.379	-164.8221
1850.000000	86.631	-165.4174
1875.000000	86.880	-166.0618
1900.000000	87.141	-166.8380
1925.000000	87.410	-167.6945
1950.000000	87.679	-168.6113
1975.000000	87.955	-169.6426
2000.000000	88.233	-170.7769
2030.000000	88.569	-172.3052
2060.000000	88.909	-174.0494
2090.000000	89.230	-176.0238
2120.000000	89.536	-178.2413
2140.000000	89.730	-179.8506
2180.000000	90.076	176.6456
2200.000000	90.229	174.7709
2240.000000	90.483	170.8232
2270.000000	90.621	167.6996
2300.000000	90.708	164.4744
2330.000000	90.751	161.2210
2360.000000	90.749	158.0050
2400.000000	90.672	153.8795
2430.000000	90.557	150.9241
2470.000000	90.333	147.2323
2500.000000	90.129	144.7136
2540.000000	89.819	141.7049
2580.000000	89.488	139.0853
2620.000000	89.123	136.9012
2650.000000	88.839	135.5466
2690.000000	88.471	134.0168
2720.000000	88.199	133.1136
2760.000000	87.837	132.1677
2800.000000	87.487	131.4383
2850.000000	87.066	130.8480
2900.000000	86.669	130.5612
2950.000000	86.310	130.5536
3000.000000	85.979	130.6653
3040.000000	85.727	131.0359
3070.000000	85.545	131.3883
3110.000000	85.315	131.8594
3150.000000	85.107	132.3587
3200.000000	84.870	133.0894
3250.000000	84.670	133.9648
3300.000000	84.506	134.8998
3350.000000	84.342	135.8972
3400.000000	84.201	136.8946
3450.000000	84.084	137.8813
3500.000000	83.984	138.8575
3550.000000	83.910	139.8059
3600.000000	83.860	140.7993
3650.000000	83.825	141.7187
3700.000000	83.798	142.5852
3750.000000	83.798	143.4865
3820.000000	83.838	144.6487
3870.000000	83.877	145.3526
3950.000000	83.975	146.3031
4000.000000	84.070	146.7308
4060.000000	84.197	146.9612
4120.000000	84.319	147.0161
4180.000000	84.433	146.8593
4250.000000	84.553	146.1819
4310.000000	84.638	145.2131
4370.000000	84.709	143.9011
4440.000000	84.758	141.8128
4500.000000	84.746	139.6686
4550.000000	84.685	137.7043
4620.000000	84.497	134.7444
4680.000000	84.219	132.3318
4750.000000	83.769	129.9125
4820.000000	83.193	128.0906
4870.000000	82.720	127.3504
4940.000000	82.006	127.1892
5000.000000	81.376	127.8541
5080.000000	80.537	130.0769
5150.000000	79.850	133.1470
5220.000000	79.258	136.9604
5300.000000	78.722	142.1331
5380.000000	78.375	147.9714
5450.000000	78.263	153.2506
5520.000000	78.292	158.4692
5600.000000	78.457	164.1989
5700.000000	78.834	170.8083
5800.000000	79.410	176.3298
5900.000000	80.131	-179.0538
6000.000000	80.983	-175.4115
6080.000000	81.739	-173.3685
6150.000000	82.442	-172.2815
6220.000000	83.161	-171.8806
6300.000000	83.971	-172.3401
6400.000000	84.927	-174.4190
6500.000000	85.754	-178.0764
6600.000000	86.375	177.1470
6700.000000	86.728	171.8740
6800.000000	86.824	166.8669
6900.000000	86.760	162.8298
7000.000000	86.659	159.8880
7100.000000	86.588	157.3446
7200.000000	86.498	154.8186
7300.000000	86.375	152.6101
7400.000000	86.292	150.9553
7500.000000	86.307	149.6218
7620.000000	86.491	147.4606
7750.000000	86.839	142.5983
7880.000000	87.008	132.9886
8000.000000	86.518	119.4557
8120.000000	84.987	104.8658
8250.000000	82.059	94.4765
8380.000000	78.135	94.8858
8500.000000	74.127	107.1468
8620.000000	70.556	130.0602
8750.000000	68.696	159.6701
8850.000000	68.987	179.6115
9000.000000	70.644	-158.7333
9120.000000	72.088	-147.3977
9250.000000	73.599	-138.5063
9380.000000	75.090	-131.2641
9500.000000	76.500	-125.9351
9620.000000	78.018	-122.0293
9750.000000	79.824	-119.6707
9880.000000	81.760	-120.0032
10000.000000	83.546	-123.8699
10150.000000	85.386	-135.1808
10300.000000	86.197	-152.9047
10440.000000	85.759	-169.8279
10600.000000	84.152	177.1534
10750.000000	82.213	172.0595
10900.000000	80.370	171.6700
11060.000000	78.738	174.2347
11200.000000	77.583	177.9090
11380.000000	76.427	-176.2067
11500.000000	75.825	-171.8955
11720.000000	74.977	-163.4237
11800.000000	74.747	-160.2272
12060.000000	74.284	-149.4148
12200.000000	74.232	-143.4583
12410.000000	74.397	-134.6718
12500.000000	74.552	-130.9993
12650.000000	74.955	-124.9858
12800.000000	75.589	-119.2013
13150.000000	78.125	-109.1085
13200.000000	78.618	-108.4637
13400.000000	80.780	-110.0390
13600.000000	82.605	-121.8656
13800.000000	83.006	-143.6153
14000.000000	81.522	-164.0570
14300.000000	77.126	-174.8187
14500.000000	74.122	-172.0979
14750.000000	71.046	-163.8655
15000.000000	68.595	-152.7327
15250.000000	66.556	-140.6709
15500.000000	64.873	-128.5674
15750.000000	63.411	-115.9646
16000.000000	62.179	-103.8194
16250.000000	61.219	-91.2984
16500.000000	60.260	-89.0717
16750.000000	59.469	-172.1158
17000.000000	59.321	-78.6333
17250.000000	61.314	65.7920
17500.000000	64.525	18.3336
17750.000000	66.547	11.9543
18000.000000	67.277	9.7443
18250.000000	67.662	13.7745
18500.000000	68.373	21.9497
18750.000000	69.624	30.6743
19000.000000	71.508	37.6978
19250.000000	73.756	40.3923
19500.000000	75.630	35.8782
19750.000000	76.490	25.1021
20000.000000	76.543	16.4765
