* Measurement data measured by REW V5.20.5
* Source: Mic in at rear panel (Pink)(Realtek(R) Audio), MICROPHONE (마스), L, volume: 1.000
* Format: 128k Log Swept Sine, 1 sweep at -12.0 dBFS with no timing reference
* Dated: 2022. 4. 2 오후 7:21:29
* REW Settings:
*  C-weighting compensation: Off
*  Target level: 75.0 dB
* Note: 
* Measurement: 4월 2
* Smoothing: 1/24 octave
* Frequency Step: 1/48 octave
* Start Frequency: 20.300 Hz
*
* Freq(Hz)	SPL(dB)	Phase(degrees)
20.299999	91.368	-159.6263
20.600000	91.360	-160.0582
20.900000	91.338	-160.8133
21.200001	91.304	-161.4827
21.400000	91.273	-161.8647
21.799999	91.200	-162.4632
22.000000	91.164	-162.6683
22.400000	91.120	-162.8702
22.700001	91.137	-162.9321
23.000000	91.210	-163.1037
23.299999	91.319	-163.5717
23.600000	91.433	-164.4215
24.000000	91.540	-166.0918
24.299999	91.559	-167.5163
24.700001	91.502	-169.2311
25.000000	91.425	-170.1569
25.400000	91.335	-170.8740
25.799999	91.309	-171.3058
26.200001	91.339	-171.8629
26.500000	91.366	-172.4692
26.900000	91.367	-173.4219
27.200001	91.335	-174.0726
27.600000	91.268	-174.6705
28.000000	91.210	-174.9478
28.500000	91.187	-175.1075
29.000000	91.212	-175.3858
29.500000	91.263	-175.8931
30.000000	91.319	-176.6595
30.400000	91.353	-177.4938
30.700001	91.364	-178.2355
31.100000	91.346	-179.2590
31.500000	91.293	179.8597
32.000000	91.207	179.1661
32.500000	91.160	178.8456
33.000000	91.171	178.5504
33.500000	91.206	178.0566
34.000000	91.230	177.4133
34.500000	91.243	176.7508
35.000000	91.254	176.0676
35.500000	91.256	175.2931
36.000000	91.231	174.4658
36.500000	91.172	173.7411
37.000000	91.101	173.2362
37.500000	91.043	172.8975
38.200001	91.010	172.3713
38.700001	91.003	171.8002
39.500000	90.954	170.6888
40.000000	90.896	170.0630
40.599998	90.828	169.4532
41.200001	90.778	168.8735
41.799999	90.739	168.1968
42.500000	90.690	167.3192
43.099998	90.648	166.6175
43.700001	90.612	166.0090
44.400002	90.580	165.4109
45.000000	90.561	165.0002
45.500000	90.556	164.7017
46.200001	90.569	164.2117
46.799999	90.579	163.6120
47.500000	90.560	162.7660
48.200001	90.500	161.9990
48.700001	90.442	161.5918
49.400002	90.357	161.1906
50.000000	90.285	160.9203
50.799999	90.201	160.5934
51.500000	90.145	160.2684
52.200001	90.106	159.7861
53.000000	90.056	159.0727
53.799999	89.998	158.4136
54.500000	89.957	157.9077
55.200001	89.926	157.4173
56.000000	89.908	156.8745
57.000000	89.899	155.9636
58.000000	89.811	155.0240
59.000000	89.713	154.6700
60.000000	89.674	154.2299
60.799999	89.624	153.7483
61.500000	89.569	153.3896
62.200001	89.505	153.0703
63.000000	89.422	152.8660
64.000000	89.364	152.7083
65.000000	89.316	152.1623
66.000000	89.220	151.7790
67.000000	89.170	151.6315
68.000000	89.146	151.2261
69.000000	89.108	150.6985
70.000000	89.059	150.0286
71.000000	88.982	149.3589
72.000000	88.906	148.8765
73.000000	88.843	148.4283
74.000000	88.776	148.0105
75.000000	88.705	147.6967
76.199997	88.628	147.5612
77.500000	88.605	147.3012
78.800003	88.553	146.3567
80.000000	88.417	145.4972
81.199997	88.281	145.0087
82.500000	88.187	144.5432
83.800003	88.130	144.0816
85.000000	88.102	143.6722
86.199997	88.062	143.2126
87.500000	87.989	142.7462
88.500000	87.917	142.3994
90.000000	87.791	141.9487
91.199997	87.686	141.6687
92.500000	87.581	141.4998
93.800003	87.494	141.3034
95.000000	87.399	141.1277
96.199997	87.319	141.1546
97.500000	87.306	141.0370
98.800003	87.314	140.3969
100.000000	87.293	139.6502
101.500000	87.221	138.9346
103.000000	87.126	138.6513
104.400002	87.026	138.5072
106.000000	86.896	138.3110
107.500000	86.791	138.0731
109.000000	86.714	137.9861
110.599998	86.663	138.2335
112.000000	86.579	138.4286
113.800003	86.313	138.5412
115.000000	86.151	138.1799
117.199997	86.134	133.0678
118.000000	86.106	129.6185
120.599998	85.302	126.1328
122.000000	85.398	130.5277
124.099998	85.938	133.5041
125.000000	86.025	134.0160
126.500000	85.979	134.7022
128.000000	85.816	135.2046
131.500000	85.537	135.0825
132.000000	85.524	135.0546
134.000000	85.508	134.9048
136.000000	85.449	134.6522
138.000000	85.341	134.4018
140.000000	85.231	134.0947
143.000000	85.067	133.5020
145.000000	84.959	133.1447
147.500000	84.826	132.7617
150.000000	84.705	132.5825
152.500000	84.580	132.3348
155.000000	84.449	132.1354
157.500000	84.362	132.0919
160.000000	84.276	132.1721
162.500000	84.180	132.2783
165.000000	84.101	132.1852
167.500000	84.028	131.9608
170.000000	83.941	131.8035
172.500000	83.831	131.6926
175.000000	83.721	131.6087
177.500000	83.604	131.5387
180.000000	83.478	131.4540
182.500000	83.348	131.4446
185.000000	83.209	131.6534
187.500000	83.034	131.9117
190.000000	82.831	131.6167
192.500000	82.635	131.0861
195.000000	82.548	131.2314
197.500000	82.520	131.8588
200.000000	82.487	132.5576
203.000000	82.453	133.1455
206.000000	82.417	134.8870
209.000000	82.444	136.9738
212.000000	82.473	136.4130
214.000000	82.438	135.2160
218.000000	82.378	133.9264
220.000000	82.328	133.6163
224.000000	82.245	132.9410
227.000000	82.217	132.4604
230.000000	82.118	132.3113
233.000000	81.976	132.4221
236.000000	81.848	132.5081
240.000000	81.723	132.4333
243.000000	81.668	132.3311
247.000000	81.591	132.3134
250.000000	81.509	132.2978
254.000000	81.399	132.2318
258.000000	81.298	132.4160
262.000000	81.164	132.6248
265.000000	81.077	132.6560
269.000000	80.998	132.6829
272.000000	80.927	132.8146
276.000000	80.817	133.0370
280.000000	80.726	133.2270
285.000000	80.620	133.4486
290.000000	80.519	133.5415
295.000000	80.382	133.8060
300.000000	80.254	133.9612
304.000000	80.156	134.0193
307.000000	80.078	134.0905
311.000000	79.999	134.2068
315.000000	79.912	134.4282
320.000000	79.815	134.7749
325.000000	79.730	134.9459
330.000000	79.620	135.2045
335.000000	79.539	135.4845
340.000000	79.441	135.8097
345.000000	79.347	136.0698
350.000000	79.257	136.1156
355.000000	79.162	136.4894
360.000000	79.051	136.9603
365.000000	78.929	137.1918
370.000000	78.833	137.4495
375.000000	78.761	137.9454
382.000000	78.655	138.2240
387.000000	78.586	138.3691
395.000000	78.496	138.9317
400.000000	78.433	139.0510
406.000000	78.357	139.3752
412.000000	78.297	139.8434
418.000000	78.230	140.3005
425.000000	78.134	140.9811
431.000000	78.017	141.2639
437.000000	77.895	141.3686
444.000000	77.808	141.8920
450.000000	77.738	142.4475
455.000000	77.674	142.9108
462.000000	77.609	143.3506
468.000000	77.552	143.6176
475.000000	77.468	143.9444
482.000000	77.376	144.4249
487.000000	77.294	144.8110
494.000000	77.191	145.2318
500.000000	77.132	145.4822
508.000000	77.047	146.1086
515.000000	76.970	146.8401
522.000000	76.943	147.5715
530.000000	76.890	148.3492
538.000000	76.819	148.8630
545.000000	76.773	149.3062
552.000000	76.718	149.7667
560.000000	76.649	150.2831
570.000000	76.525	151.2609
580.000000	76.405	151.9648
590.000000	76.337	152.6686
600.000000	76.286	153.5388
608.000000	76.219	154.1505
615.000000	76.149	154.6268
622.000000	76.097	155.2395
630.000000	76.061	155.9724
640.000000	76.018	156.7680
650.000000	75.938	157.7453
660.000000	75.831	158.3112
670.000000	75.808	158.7177
680.000000	75.803	159.6459
690.000000	75.753	160.8322
700.000000	75.731	161.7502
710.000000	75.710	162.4161
720.000000	75.657	163.3154
730.000000	75.628	164.1836
740.000000	75.592	164.9292
750.000000	75.550	165.5955
762.000000	75.536	166.4946
775.000000	75.501	167.6121
788.000000	75.483	168.7598
800.000000	75.467	170.0364
812.000000	75.450	171.1386
825.000000	75.417	172.3547
838.000000	75.422	173.2681
850.000000	75.428	174.0319
862.000000	75.398	174.8750
875.000000	75.403	175.8238
885.000000	75.449	176.6976
900.000000	75.471	178.2052
912.000000	75.467	179.4937
925.000000	75.485	-179.7011
938.000000	75.525	-179.0290
950.000000	75.567	-178.1403
962.000000	75.587	-177.2850
975.000000	75.598	-176.6534
988.000000	75.558	-176.5329
1000.000000	75.486	-176.3922
1015.000000	75.495	-174.8464
1030.000000	75.552	-172.8878
1044.000000	75.586	-171.4076
1060.000000	75.634	-170.0404
1075.000000	75.645	-168.8296
1090.000000	75.662	-167.6600
1106.000000	75.682	-166.4415
1120.000000	75.678	-165.2341
1138.000000	75.668	-163.5393
1150.000000	75.664	-162.3459
1172.000000	75.683	-160.0253
1180.000000	75.690	-159.1435
1206.000000	75.757	-155.9684
1220.000000	75.802	-154.0150
1241.000000	75.868	-150.6460
1250.000000	75.924	-149.1771
1265.000000	76.098	-146.7640
1280.000000	76.358	-144.2538
1315.000000	77.206	-138.4873
1320.000000	77.361	-137.8060
1340.000000	78.064	-135.3385
1360.000000	78.821	-133.2990
1380.000000	79.557	-132.0708
1400.000000	80.220	-131.9880
1430.000000	81.128	-133.4656
1450.000000	81.613	-135.0243
1475.000000	82.068	-137.2973
1500.000000	82.403	-139.4565
1525.000000	82.667	-141.1551
1550.000000	82.887	-142.4807
1575.000000	83.098	-143.5325
1600.000000	83.297	-144.4480
1625.000000	83.462	-145.1497
1650.000000	83.631	-145.7106
1675.000000	83.807	-146.1302
1700.000000	83.974	-146.4645
1725.000000	84.155	-146.7657
1750.000000	84.357	-147.0450
1775.000000	84.555	-147.2756
1800.000000	84.760	-147.5360
1825.000000	84.996	-147.8202
1850.000000	85.228	-148.0239
1875.000000	85.453	-148.2410
1900.000000	85.702	-148.5347
1925.000000	85.969	-148.9323
1950.000000	86.233	-149.3902
1975.000000	86.492	-149.9220
2000.000000	86.767	-150.6157
2030.000000	87.112	-151.6143
2060.000000	87.444	-152.7332
2090.000000	87.775	-154.0753
2120.000000	88.101	-155.6319
2140.000000	88.306	-156.8066
2180.000000	88.695	-159.4485
2200.000000	88.880	-160.9105
2240.000000	89.216	-164.0788
2270.000000	89.412	-166.6929
2300.000000	89.560	-169.4920
2330.000000	89.659	-172.3943
2360.000000	89.719	-175.3622
2400.000000	89.715	-179.3063
2430.000000	89.646	177.8685
2470.000000	89.479	174.3708
2500.000000	89.304	171.9821
2540.000000	89.028	169.2419
2580.000000	88.715	166.9556
2620.000000	88.389	164.9896
2650.000000	88.152	163.6852
2690.000000	87.819	162.2281
2720.000000	87.548	161.3453
2760.000000	87.167	160.4494
2800.000000	86.790	159.9852
2850.000000	86.336	160.0399
2900.000000	85.956	160.6169
2950.000000	85.662	161.4159
3000.000000	85.434	162.1211
3040.000000	85.272	162.4514
3070.000000	85.142	162.6460
3110.000000	84.949	162.9379
3150.000000	84.752	163.3537
3200.000000	84.508	164.0481
3250.000000	84.256	164.9145
3300.000000	84.025	165.9598
3350.000000	83.813	167.1606
3400.000000	83.619	168.5999
3450.000000	83.481	170.1747
3500.000000	83.389	171.6472
3550.000000	83.324	173.0775
3600.000000	83.277	174.5137
3650.000000	83.242	175.8793
3700.000000	83.207	177.2198
3750.000000	83.181	178.5085
3820.000000	83.182	-179.8096
3870.000000	83.214	-178.6102
3950.000000	83.301	-176.8725
4000.000000	83.391	-176.0220
4060.000000	83.499	-175.1184
4120.000000	83.602	-174.4850
4180.000000	83.709	-174.1473
4250.000000	83.836	-174.1360
4310.000000	83.924	-174.3765
4370.000000	83.993	-174.9644
4440.000000	84.040	-176.2412
4500.000000	84.034	-177.7293
4550.000000	83.977	-179.1294
4620.000000	83.800	178.7980
4680.000000	83.555	177.0535
4750.000000	83.141	175.2812
4820.000000	82.591	174.0301
4870.000000	82.141	173.6723
4940.000000	81.446	174.1135
5000.000000	80.810	175.3501
5080.000000	79.955	178.1448
5150.000000	79.276	-178.2922
5220.000000	78.704	-173.9911
5300.000000	78.187	-168.2322
5380.000000	77.823	-161.5926
5450.000000	77.662	-155.5745
5520.000000	77.640	-149.8127
5600.000000	77.757	-143.2928
5700.000000	78.083	-135.5332
5800.000000	78.601	-128.5948
5900.000000	79.300	-122.2931
6000.000000	80.109	-116.9449
6080.000000	80.834	-113.4630
6150.000000	81.540	-111.0536
6220.000000	82.282	-109.2390
6300.000000	83.135	-107.9187
6400.000000	84.187	-107.5137
6500.000000	85.187	-108.5546
6600.000000	86.060	-110.9712
6700.000000	86.733	-114.3066
6800.000000	87.183	-117.9485
6900.000000	87.464	-121.1942
7000.000000	87.678	-123.9435
7100.000000	87.856	-126.5731
7200.000000	87.956	-129.0838
7300.000000	87.991	-131.1175
7400.000000	88.040	-132.3733
7500.000000	88.179	-133.0138
7620.000000	88.532	-133.9476
7750.000000	89.145	-136.5820
7880.000000	89.811	-143.1162
8000.000000	90.053	-154.5302
8120.000000	89.393	-169.7766
8250.000000	87.319	176.2051
8380.000000	84.052	172.1163
8500.000000	80.563	179.7913
8620.000000	77.549	-162.1775
8750.000000	76.650	-137.2805
8850.000000	77.982	-121.6424
9000.000000	80.921	-112.4502
9120.000000	82.636	-117.7738
9250.000000	83.233	-130.8881
9380.000000	82.538	-143.5049
9500.000000	81.138	-150.2597
9620.000000	79.449	-152.1965
9750.000000	77.647	-150.5981
9880.000000	76.036	-146.8142
10000.000000	74.750	-142.4030
10150.000000	73.384	-136.1380
10300.000000	72.189	-129.0354
10440.000000	71.189	-121.8708
10600.000000	70.195	-113.6287
10750.000000	69.402	-105.9777
10900.000000	68.666	-98.1226
11060.000000	68.037	-89.0040
11200.000000	67.600	-80.6631
11380.000000	67.132	-70.5011
11500.000000	66.843	-63.9894
11720.000000	66.390	-51.3889
11800.000000	66.250	-46.6719
12060.000000	65.914	-31.8603
12200.000000	65.903	-23.6139
12410.000000	65.899	-11.1214
12500.000000	65.874	-5.7712
12650.000000	65.893	2.9855
12800.000000	66.089	11.6991
13150.000000	66.920	33.3860
13200.000000	67.049	36.4500
13400.000000	67.623	48.2329
13600.000000	68.320	60.0009
13800.000000	69.297	71.7525
14000.000000	70.619	82.7851
14300.000000	73.511	96.8123
14500.000000	76.162	102.5809
14750.000000	79.670	99.3744
15000.000000	81.616	78.3638
15250.000000	80.663	53.1401
15500.000000	77.584	43.6177
15750.000000	74.217	47.4651
16000.000000	71.628	57.3563
16250.000000	69.890	69.9232
16500.000000	68.642	84.1741
16750.000000	67.825	100.7014
17000.000000	67.784	120.9050
17250.000000	69.730	144.3499
17500.000000	73.160	161.1268
17750.000000	76.006	163.3376
18000.000000	78.013	157.3313
18250.000000	79.387	146.5496
18500.000000	79.637	131.1238
18750.000000	78.384	118.2687
19000.000000	76.018	115.2144
19250.000000	73.389	121.5227
19500.000000	71.095	133.3012
19750.000000	69.306	146.1516
20000.000000	68.300	153.9173
