* Measurement data measured by REW V5.20.13
* Source: EXCL: Mic in at rear panel (Pink)(Realtek(R) Audio), MICROPHONE (마스), L, volume: 1.000
* Format: 256k Log Swept Sine, 1 sweep at -12.0 dBFS with no timing reference
* Dated: 2022. 12. 24 오후 7:13:58
* REW Settings:
*  C-weighting compensation: Off
*  Target level: 75.0 dB
* Note: 
* Measurement: L_50ohm
* Smoothing: 1/24 octave
* Frequency Step: 1/48 octave
* Start Frequency: 20.300 Hz
*
* Freq(Hz)	SPL(dB)	Phase(degrees)
20.299999	77.037	179.5374
20.600000	77.070	178.9811
20.900000	77.127	177.9812
21.200001	77.152	177.0291
21.400000	77.153	176.4538
21.799999	77.137	175.4337
22.000000	77.127	174.9770
22.400000	77.119	174.1299
22.700001	77.126	173.4858
23.000000	77.142	172.7683
23.299999	77.163	171.9485
23.600000	77.182	171.0246
24.000000	77.197	169.6652
24.299999	77.195	168.6083
24.700001	77.172	167.2482
25.000000	77.146	166.3293
25.400000	77.115	165.2756
25.799999	77.107	164.3591
26.200001	77.128	163.4387
26.500000	77.153	162.6703
26.900000	77.180	161.5261
27.200001	77.183	160.6343
27.600000	77.162	159.5198
28.000000	77.130	158.5940
28.500000	77.107	157.6605
29.000000	77.119	156.6989
29.500000	77.134	155.4886
30.000000	77.115	154.1029
30.400000	77.069	153.0463
30.700001	77.025	152.3507
31.100000	76.970	151.5480
31.500000	76.930	150.8134
32.000000	76.900	149.8547
32.500000	76.877	148.7895
33.000000	76.847	147.6624
33.500000	76.815	146.5319
34.000000	76.781	145.4204
34.500000	76.745	144.3355
35.000000	76.705	143.2952
35.500000	76.667	142.3066
36.000000	76.635	141.3376
36.500000	76.604	140.3500
37.000000	76.566	139.3604
37.500000	76.519	138.4313
38.200001	76.457	137.2702
38.700001	76.426	136.4601
39.500000	76.384	135.0485
40.000000	76.351	134.1393
40.599998	76.311	133.0757
41.200001	76.271	131.9968
41.799999	76.216	130.9084
42.500000	76.131	129.8506
43.099998	76.082	129.2087
43.700001	76.080	128.4916
44.400002	76.075	127.1920
45.000000	76.002	125.9180
45.500000	75.903	125.0878
46.200001	75.781	124.3060
46.799999	75.717	123.6449
47.500000	75.651	122.7081
48.200001	75.592	121.7513
48.700001	75.569	120.9958
49.400002	75.535	119.6812
50.000000	75.473	118.4948
50.799999	75.372	117.2309
51.500000	75.317	116.2971
52.200001	75.273	115.3029
53.000000	75.209	114.2139
53.799999	75.139	113.2531
54.500000	75.070	112.4779
55.200001	74.999	111.8094
56.000000	74.935	111.0806
57.000000	74.858	109.9499
58.000000	74.758	108.7258
59.000000	74.660	107.5132
60.000000	74.567	106.2454
60.799999	74.493	105.2328
61.500000	74.432	104.3665
62.200001	74.374	103.5091
63.000000	74.303	102.5298
64.000000	74.201	101.4106
65.000000	74.119	100.4339
66.000000	74.060	99.2469
67.000000	73.966	97.9208
68.000000	73.844	96.7647
69.000000	73.704	95.8817
70.000000	73.592	95.4315
71.000000	73.547	94.8863
72.000000	73.482	94.0364
73.000000	73.407	93.2796
74.000000	73.354	92.2667
75.000000	73.253	91.0953
76.199997	73.141	90.1779
77.500000	73.093	89.1212
78.800003	73.033	88.1807
80.000000	72.966	87.3510
81.199997	72.826	86.6060
82.500000	72.669	85.9364
83.800003	72.528	84.6386
85.000000	72.370	83.2615
86.199997	72.313	82.0285
87.500000	72.327	80.1343
88.500000	72.258	78.8145
90.000000	72.083	78.5166
91.199997	72.052	79.2209
92.500000	72.132	79.1016
93.800003	72.078	77.4516
95.000000	71.885	75.8279
96.199997	71.669	74.3320
97.500000	71.435	73.4898
98.800003	71.374	73.3229
100.000000	71.402	72.7680
101.500000	71.375	71.9858
103.000000	71.317	71.4935
104.400002	71.267	70.8680
106.000000	71.140	69.8747
107.500000	70.985	69.2283
109.000000	70.881	68.6774
110.599998	70.845	67.9428
112.000000	70.840	67.1209
113.800003	70.768	66.3575
115.000000	70.653	66.2762
117.199997	70.262	66.6318
118.000000	70.062	66.9818
120.599998	69.879	68.1863
122.000000	70.049	65.7678
124.099998	70.033	61.7061
125.000000	69.994	60.9974
126.500000	69.967	60.8123
128.000000	69.958	60.8529
131.500000	69.820	58.8082
132.000000	69.786	58.4487
134.000000	69.699	57.5133
136.000000	69.655	57.1169
138.000000	69.560	56.8442
140.000000	69.446	56.3588
143.000000	69.392	54.8746
145.000000	69.328	53.9212
147.500000	69.200	53.7733
150.000000	69.121	53.5828
152.500000	69.036	52.7687
155.000000	68.944	52.0440
157.500000	68.871	51.4859
160.000000	68.817	50.9513
162.500000	68.774	50.4459
165.000000	68.717	49.9653
167.500000	68.629	49.3337
170.000000	68.509	48.6106
172.500000	68.394	48.1396
175.000000	68.348	47.9530
177.500000	68.350	47.5789
180.000000	68.298	47.0391
182.500000	68.185	46.6378
185.000000	68.085	46.0759
187.500000	68.014	45.2111
190.000000	67.982	44.7112
192.500000	67.983	44.5118
195.000000	67.926	44.2536
197.500000	67.849	43.9407
200.000000	67.812	43.4687
203.000000	67.771	42.9442
206.000000	67.692	42.4940
209.000000	67.581	41.9641
212.000000	67.519	41.6809
214.000000	67.513	41.6816
218.000000	67.488	41.8269
220.000000	67.435	41.7351
224.000000	67.312	41.1848
227.000000	67.289	40.9345
230.000000	67.303	40.9406
233.000000	67.302	40.8405
236.000000	67.292	40.5083
240.000000	67.284	40.0722
243.000000	67.265	39.4795
247.000000	67.222	38.5643
250.000000	67.187	38.2319
254.000000	67.109	38.2108
258.000000	67.035	38.0249
262.000000	66.972	37.7295
265.000000	66.948	37.4793
269.000000	66.931	36.9398
272.000000	66.908	36.5634
276.000000	66.880	36.3819
280.000000	66.900	36.2323
285.000000	66.877	35.7549
290.000000	66.837	35.4627
295.000000	66.798	35.2820
300.000000	66.719	35.0928
304.000000	66.669	35.0243
307.000000	66.651	35.0480
311.000000	66.661	35.0869
315.000000	66.664	34.8887
320.000000	66.625	34.4758
325.000000	66.613	34.3930
330.000000	66.603	34.2822
335.000000	66.569	34.0520
340.000000	66.535	33.7016
345.000000	66.509	33.4280
350.000000	66.456	33.6028
355.000000	66.403	33.7501
360.000000	66.373	33.4948
365.000000	66.347	33.2945
370.000000	66.341	33.3900
375.000000	66.338	33.4234
382.000000	66.302	33.2696
387.000000	66.300	33.4715
395.000000	66.281	33.8503
400.000000	66.239	33.9244
406.000000	66.231	33.8834
412.000000	66.260	33.9042
418.000000	66.262	33.9383
425.000000	66.240	33.7109
431.000000	66.236	33.5021
437.000000	66.249	33.5721
444.000000	66.287	33.7900
450.000000	66.302	33.7283
455.000000	66.288	33.6837
462.000000	66.254	33.7466
468.000000	66.225	33.8601
475.000000	66.201	34.0033
482.000000	66.185	34.3195
487.000000	66.184	34.6587
494.000000	66.210	34.8966
500.000000	66.247	34.9197
508.000000	66.285	34.8534
515.000000	66.313	34.7657
522.000000	66.319	34.7558
530.000000	66.289	34.9242
538.000000	66.255	35.1385
545.000000	66.253	35.2330
552.000000	66.265	35.3165
560.000000	66.315	35.5144
570.000000	66.357	35.8579
580.000000	66.312	35.9916
590.000000	66.286	36.2263
600.000000	66.317	36.6589
608.000000	66.379	36.9676
615.000000	66.396	37.2034
622.000000	66.378	37.4705
630.000000	66.356	37.7644
640.000000	66.328	38.2220
650.000000	66.313	38.6642
660.000000	66.357	39.0499
670.000000	66.417	39.3464
680.000000	66.471	39.5897
690.000000	66.475	39.9697
700.000000	66.486	40.3591
710.000000	66.526	40.7752
720.000000	66.558	41.2908
730.000000	66.593	41.6486
740.000000	66.618	41.9185
750.000000	66.622	42.2559
762.000000	66.649	42.7364
775.000000	66.710	43.4207
788.000000	66.792	44.3186
800.000000	66.846	45.1737
812.000000	66.917	45.7455
825.000000	66.980	46.0541
838.000000	67.067	46.4947
850.000000	67.172	47.1525
862.000000	67.251	47.8011
875.000000	67.329	48.4551
885.000000	67.387	48.9482
900.000000	67.472	49.5015
912.000000	67.559	49.8745
925.000000	67.690	50.2670
938.000000	67.833	50.6933
950.000000	67.959	51.2336
962.000000	68.058	51.8647
975.000000	68.172	52.3813
988.000000	68.331	52.5664
1000.000000	68.461	52.7718
1015.000000	68.555	53.2066
1030.000000	68.678	53.5131
1044.000000	68.829	53.6525
1060.000000	68.991	53.7917
1075.000000	69.141	53.9597
1090.000000	69.311	54.0039
1106.000000	69.485	53.9230
1120.000000	69.622	53.9019
1138.000000	69.798	53.8566
1150.000000	69.919	53.7950
1172.000000	70.140	53.6775
1180.000000	70.217	53.6351
1206.000000	70.439	53.3851
1220.000000	70.551	53.2514
1241.000000	70.721	53.0969
1250.000000	70.790	52.9874
1265.000000	70.903	52.7311
1280.000000	71.025	52.5436
1315.000000	71.300	52.2126
1320.000000	71.334	52.1711
1340.000000	71.472	52.0605
1360.000000	71.617	51.8784
1380.000000	71.761	51.5633
1400.000000	71.917	51.2954
1430.000000	72.140	51.0313
1450.000000	72.276	50.8517
1475.000000	72.437	50.4506
1500.000000	72.612	50.0886
1525.000000	72.790	49.8415
1550.000000	72.964	49.6156
1575.000000	73.138	49.2891
1600.000000	73.302	48.9027
1625.000000	73.477	48.5337
1650.000000	73.662	48.2284
1675.000000	73.850	47.8473
1700.000000	74.033	47.3788
1725.000000	74.217	46.8580
1750.000000	74.409	46.2910
1775.000000	74.585	45.7043
1800.000000	74.763	45.0531
1825.000000	74.952	44.3160
1850.000000	75.147	43.5833
1875.000000	75.336	42.8589
1900.000000	75.512	42.0446
1925.000000	75.680	41.1556
1950.000000	75.846	40.2021
1975.000000	76.008	39.1913
2000.000000	76.165	38.1126
2030.000000	76.348	36.7844
2060.000000	76.520	35.3719
2090.000000	76.680	33.8673
2120.000000	76.826	32.2761
2140.000000	76.915	31.1956
2180.000000	77.088	28.9920
2200.000000	77.163	27.8661
2240.000000	77.286	25.5719
2270.000000	77.358	23.7391
2300.000000	77.406	21.7948
2330.000000	77.435	19.8634
2360.000000	77.445	17.9953
2400.000000	77.425	15.5233
2430.000000	77.376	13.7034
2470.000000	77.267	11.3707
2500.000000	77.171	9.7518
2540.000000	77.013	7.7960
2580.000000	76.829	6.1642
2620.000000	76.631	4.8248
2650.000000	76.488	3.9937
2690.000000	76.300	3.1485
2720.000000	76.172	2.7111
2760.000000	76.029	2.3122
2800.000000	75.922	1.9993
2850.000000	75.838	1.5794
2900.000000	75.795	1.0946
2950.000000	75.781	0.4456
3000.000000	75.789	-0.3918
3040.000000	75.799	-1.1135
3070.000000	75.804	-1.7120
3110.000000	75.812	-2.5706
3150.000000	75.825	-3.4780
3200.000000	75.844	-4.7278
3250.000000	75.874	-6.1392
3300.000000	75.916	-7.6404
3350.000000	75.953	-9.2360
3400.000000	75.988	-10.9905
3450.000000	76.035	-13.0274
3500.000000	76.084	-15.3641
3550.000000	76.109	-18.0247
3600.000000	76.103	-21.1280
3650.000000	76.036	-24.6806
3700.000000	75.869	-28.5946
3750.000000	75.574	-32.6833
3820.000000	74.910	-38.0491
3870.000000	74.256	-40.9351
3950.000000	73.013	-42.6804
4000.000000	72.265	-41.8618
4060.000000	71.570	-39.5033
4120.000000	71.158	-36.5784
4180.000000	70.997	-33.9323
4250.000000	71.020	-31.8751
4310.000000	71.133	-31.1410
4370.000000	71.277	-31.1851
4440.000000	71.429	-32.2133
4500.000000	71.520	-33.7623
4550.000000	71.576	-35.4118
4620.000000	71.640	-38.2769
4680.000000	71.677	-41.2009
4750.000000	71.686	-44.9995
4820.000000	71.655	-49.2523
4870.000000	71.623	-52.5910
4940.000000	71.576	-57.6962
5000.000000	71.532	-62.5398
5080.000000	71.508	-69.8297
5150.000000	71.544	-77.0856
5220.000000	71.653	-85.2104
5300.000000	71.892	-95.8283
5380.000000	72.255	-108.0702
5450.000000	72.655	-120.1126
5520.000000	73.101	-133.3900
5600.000000	73.622	-149.7656
5700.000000	74.157	-171.1147
5800.000000	74.438	167.8123
5900.000000	74.421	148.7413
6000.000000	74.168	132.7941
6080.000000	73.878	122.2977
6150.000000	73.602	114.6050
6220.000000	73.329	108.1796
6300.000000	73.049	102.1564
6400.000000	72.769	96.2787
6500.000000	72.584	91.9567
6600.000000	72.503	88.8295
6700.000000	72.522	86.5069
6800.000000	72.623	84.8113
6900.000000	72.804	83.7135
7000.000000	73.120	83.0421
7100.000000	73.582	82.4124
7200.000000	74.148	81.6121
7300.000000	74.812	80.5030
7400.000000	75.578	78.8584
7500.000000	76.445	76.3778
7620.000000	77.611	71.8260
7750.000000	78.887	64.1104
7880.000000	79.866	52.6012
8000.000000	80.235	39.0142
8120.000000	79.930	24.7789
8250.000000	78.901	11.6830
8380.000000	77.433	2.6190
8500.000000	75.963	-2.3196
8620.000000	74.543	-4.7782
8750.000000	73.137	-5.5280
8850.000000	72.166	-5.1713
9000.000000	70.881	-3.6005
9120.000000	69.991	-1.7179
9250.000000	69.170	0.7601
9380.000000	68.500	3.4836
9500.000000	67.974	6.1395
9620.000000	67.502	8.7205
9750.000000	67.061	11.3804
9880.000000	66.660	13.9157
10000.000000	66.308	16.4418
10150.000000	65.912	20.2313
10300.000000	65.616	24.4305
10440.000000	65.474	28.3647
10600.000000	65.453	32.5193
10750.000000	65.543	36.2366
10900.000000	65.743	39.5905
11060.000000	66.030	42.4472
11200.000000	66.334	44.3068
11380.000000	66.734	45.8837
11500.000000	66.984	46.6649
11720.000000	67.537	47.5573
11800.000000	67.770	47.3406
12060.000000	68.369	44.1306
12200.000000	68.479	41.4511
12410.000000	68.312	37.4986
12500.000000	68.147	36.1561
12650.000000	67.781	34.5746
12800.000000	67.338	33.8817
13150.000000	66.321	35.6700
13200.000000	66.196	36.2470
13400.000000	65.788	39.3044
13600.000000	65.563	43.1440
13800.000000	65.543	47.3938
14000.000000	65.783	52.0616
14300.000000	66.770	59.1406
14500.000000	67.884	62.9668
14750.000000	69.871	65.2475
15000.000000	72.368	62.0178
15250.000000	74.700	49.2865
15500.000000	75.844	26.6205
15750.000000	75.267	2.8958
16000.000000	73.383	-11.9854
16250.000000	71.185	-15.9386
16500.000000	69.919	-13.3878
16750.000000	70.090	-12.0956
17000.000000	70.886	-17.3440
17250.000000	71.346	-30.2147
17500.000000	70.830	-46.9771
17750.000000	69.232	-60.7703
18000.000000	66.987	-67.8172
18250.000000	64.709	-69.0283
18500.000000	62.809	-66.7390
18750.000000	61.415	-62.9982
19000.000000	60.496	-58.9658
19250.000000	59.956	-55.5935
19500.000000	59.730	-53.6041
19750.000000	59.729	-53.5057
20000.000000	59.758	-54.5310
