* Measurement data measured by REW V5.20.13
* Source: EXCL: Mic in at rear panel (Pink)(Realtek(R) Audio), MICROPHONE (마스), L, volume: 1.000
* Format: 256k Log Swept Sine, 1 sweep at -12.0 dBFS with no timing reference
* Dated: 2022. 12. 24 오후 7:21:36
* REW Settings:
*  C-weighting compensation: Off
*  Target level: 75.0 dB
* Note: 
* Measurement: R_T-APB
* Smoothing: 1/24 octave
* Frequency Step: 1/48 octave
* Start Frequency: 20.300 Hz
*
* Freq(Hz)	SPL(dB)	Phase(degrees)
20.299999	91.396	-179.1746
20.600000	91.415	-179.4577
20.900000	91.452	-179.9683
21.200001	91.484	179.5298
21.400000	91.501	179.1931
21.799999	91.528	178.4877
22.000000	91.537	178.1153
22.400000	91.548	177.3528
22.700001	91.549	176.7827
23.000000	91.547	176.2231
23.299999	91.545	175.6762
23.600000	91.545	175.1379
24.000000	91.553	174.4212
24.299999	91.564	173.8735
24.700001	91.580	173.1232
25.000000	91.592	172.5513
25.400000	91.604	171.7956
25.799999	91.614	171.0700
26.200001	91.627	170.3811
26.500000	91.639	169.8804
26.900000	91.655	169.2194
27.200001	91.665	168.7228
27.600000	91.674	168.0642
28.000000	91.678	167.4290
28.500000	91.682	166.6865
29.000000	91.688	165.9651
29.500000	91.697	165.1903
30.000000	91.696	164.3314
30.400000	91.682	163.6282
30.700001	91.663	163.1318
31.100000	91.631	162.5545
31.500000	91.602	162.0832
32.000000	91.584	161.5871
32.500000	91.590	161.0754
33.000000	91.611	160.4482
33.500000	91.630	159.7080
34.000000	91.641	158.9360
34.500000	91.643	158.2036
35.000000	91.645	157.5184
35.500000	91.649	156.8504
36.000000	91.654	156.1781
36.500000	91.658	155.5058
37.000000	91.659	154.8483
37.500000	91.660	154.2067
38.200001	91.657	153.2988
38.700001	91.649	152.6265
39.500000	91.621	151.5708
40.000000	91.599	150.9704
40.599998	91.579	150.3041
41.200001	91.570	149.6355
41.799999	91.565	148.9231
42.500000	91.559	148.0555
43.099998	91.553	147.3233
43.700001	91.550	146.6132
44.400002	91.549	145.7888
45.000000	91.548	145.0652
45.500000	91.544	144.4540
46.200001	91.529	143.6266
46.799999	91.511	142.9890
47.500000	91.497	142.3184
48.200001	91.494	141.6369
48.700001	91.493	141.1116
49.400002	91.485	140.3492
50.000000	91.472	139.7081
50.799999	91.456	138.8751
51.500000	91.444	138.1445
52.200001	91.434	137.4051
53.000000	91.419	136.5645
53.799999	91.403	135.7664
54.500000	91.393	135.1134
55.200001	91.391	134.4715
56.000000	91.392	133.7087
57.000000	91.385	132.7076
58.000000	91.364	131.7121
59.000000	91.334	130.7685
60.000000	91.301	129.8727
60.799999	91.279	129.1641
61.500000	91.263	128.5282
62.200001	91.248	127.8837
63.000000	91.231	127.1547
64.000000	91.210	126.2508
65.000000	91.185	125.3981
66.000000	91.170	124.6193
67.000000	91.165	123.8054
68.000000	91.153	122.9403
69.000000	91.133	122.0926
70.000000	91.114	121.2525
71.000000	91.097	120.3737
72.000000	91.075	119.4746
73.000000	91.051	118.6244
74.000000	91.032	117.8226
75.000000	91.020	117.0274
76.199997	91.005	116.0705
77.500000	90.980	115.0477
78.800003	90.952	114.1139
80.000000	90.937	113.2638
81.199997	90.917	112.3221
82.500000	90.886	111.3224
83.800003	90.862	110.3548
85.000000	90.845	109.4721
86.199997	90.831	108.5898
87.500000	90.817	107.6559
88.500000	90.804	106.9533
90.000000	90.777	105.9557
91.199997	90.762	105.2077
92.500000	90.752	104.3379
93.800003	90.735	103.4272
95.000000	90.715	102.6017
96.199997	90.695	101.7998
97.500000	90.677	100.9665
98.800003	90.664	100.1537
100.000000	90.653	99.4163
101.500000	90.639	98.5211
103.000000	90.622	97.6082
104.400002	90.600	96.7450
106.000000	90.577	95.7872
107.500000	90.565	94.8826
109.000000	90.558	93.9763
110.599998	90.551	93.0280
112.000000	90.538	92.2155
113.800003	90.508	91.1751
115.000000	90.488	90.4670
117.199997	90.465	88.9991
118.000000	90.456	88.4099
120.599998	90.412	86.8478
122.000000	90.412	86.2735
124.099998	90.418	85.3701
125.000000	90.412	84.9636
126.500000	90.394	84.2413
128.000000	90.370	83.4905
131.500000	90.347	81.7048
132.000000	90.344	81.4420
134.000000	90.325	80.4421
136.000000	90.300	79.5231
138.000000	90.277	78.6088
140.000000	90.255	77.6840
143.000000	90.224	76.3578
145.000000	90.207	75.4999
147.500000	90.181	74.4175
150.000000	90.153	73.3951
152.500000	90.126	72.4298
155.000000	90.099	71.5220
157.500000	90.074	70.6782
160.000000	90.057	69.9098
162.500000	90.052	69.1899
165.000000	90.061	68.4724
167.500000	90.084	67.7520
170.000000	90.128	67.0002
172.500000	90.185	66.1519
175.000000	90.244	65.1577
177.500000	90.293	63.9842
180.000000	90.320	62.7030
182.500000	90.325	61.4500
185.000000	90.315	60.2575
187.500000	90.296	59.1260
190.000000	90.272	58.0605
192.500000	90.244	57.0573
195.000000	90.216	56.1104
197.500000	90.191	55.1865
200.000000	90.166	54.2936
203.000000	90.134	53.2681
206.000000	90.103	52.2661
209.000000	90.075	51.2908
212.000000	90.051	50.3434
214.000000	90.036	49.7191
218.000000	90.001	48.5225
220.000000	89.983	47.9465
224.000000	89.948	46.8104
227.000000	89.927	45.9752
230.000000	89.906	45.1570
233.000000	89.886	44.3546
236.000000	89.863	43.5646
240.000000	89.824	42.5255
243.000000	89.796	41.7417
247.000000	89.761	40.7358
250.000000	89.734	40.0099
254.000000	89.697	39.0429
258.000000	89.658	38.1035
262.000000	89.618	37.2055
265.000000	89.585	36.5538
269.000000	89.545	35.6973
272.000000	89.520	35.0638
276.000000	89.490	34.2317
280.000000	89.454	33.4166
285.000000	89.413	32.4259
290.000000	89.374	31.4717
295.000000	89.331	30.5237
300.000000	89.290	29.6010
304.000000	89.256	28.9165
307.000000	89.231	28.4278
311.000000	89.198	27.7812
315.000000	89.167	27.1391
320.000000	89.125	26.3568
325.000000	89.080	25.5865
330.000000	89.035	24.8222
335.000000	88.990	24.1021
340.000000	88.945	23.4119
345.000000	88.899	22.7258
350.000000	88.847	22.0636
355.000000	88.794	21.4249
360.000000	88.741	20.8000
365.000000	88.687	20.2171
370.000000	88.628	19.6752
375.000000	88.567	19.1290
382.000000	88.483	18.3737
387.000000	88.421	17.9009
395.000000	88.318	17.2551
400.000000	88.251	16.9018
406.000000	88.173	16.5621
412.000000	88.104	16.3625
418.000000	88.051	16.3126
425.000000	88.029	16.3797
431.000000	88.062	16.3218
437.000000	88.124	15.9486
444.000000	88.181	15.0920
450.000000	88.189	14.1837
455.000000	88.168	13.4409
462.000000	88.109	12.5079
468.000000	88.047	11.8203
475.000000	87.972	11.1458
482.000000	87.897	10.5557
487.000000	87.843	10.1731
494.000000	87.767	9.6954
500.000000	87.703	9.3190
508.000000	87.623	8.8516
515.000000	87.555	8.4825
522.000000	87.490	8.1545
530.000000	87.418	7.8056
538.000000	87.344	7.4705
545.000000	87.280	7.2054
552.000000	87.219	6.9698
560.000000	87.151	6.7281
570.000000	87.068	6.4716
580.000000	86.985	6.2167
590.000000	86.904	5.9796
600.000000	86.822	5.7905
608.000000	86.759	5.6520
615.000000	86.704	5.5367
622.000000	86.650	5.4397
630.000000	86.591	5.3529
640.000000	86.518	5.2770
650.000000	86.446	5.2197
660.000000	86.376	5.1829
670.000000	86.309	5.1743
680.000000	86.242	5.1776
690.000000	86.178	5.2215
700.000000	86.116	5.2903
710.000000	86.054	5.3700
720.000000	85.994	5.4484
730.000000	85.942	5.5496
740.000000	85.892	5.6843
750.000000	85.841	5.8440
762.000000	85.784	6.0529
775.000000	85.725	6.2786
788.000000	85.672	6.5426
800.000000	85.628	6.8110
812.000000	85.589	7.0931
825.000000	85.555	7.3855
838.000000	85.526	7.6959
850.000000	85.502	7.9930
862.000000	85.485	8.2834
875.000000	85.471	8.6101
885.000000	85.464	8.8677
900.000000	85.459	9.2186
912.000000	85.461	9.4871
925.000000	85.470	9.7755
938.000000	85.486	10.0584
950.000000	85.502	10.2861
962.000000	85.523	10.4738
975.000000	85.550	10.6592
988.000000	85.579	10.8452
1000.000000	85.606	10.9957
1015.000000	85.634	11.1044
1030.000000	85.666	11.1921
1044.000000	85.699	11.2518
1060.000000	85.741	11.2761
1075.000000	85.776	11.2596
1090.000000	85.810	11.2087
1106.000000	85.852	11.1088
1120.000000	85.893	11.0055
1138.000000	85.943	10.8812
1150.000000	85.972	10.7784
1172.000000	86.020	10.5258
1180.000000	86.036	10.4264
1206.000000	86.081	10.1216
1220.000000	86.101	9.9661
1241.000000	86.126	9.7250
1250.000000	86.136	9.6207
1265.000000	86.149	9.4472
1280.000000	86.161	9.2756
1315.000000	86.181	8.9296
1320.000000	86.184	8.8843
1340.000000	86.190	8.7234
1360.000000	86.187	8.5782
1380.000000	86.186	8.4441
1400.000000	86.192	8.3301
1430.000000	86.201	8.1663
1450.000000	86.207	8.1054
1475.000000	86.212	8.0615
1500.000000	86.222	8.0359
1525.000000	86.235	8.0155
1550.000000	86.248	7.9887
1575.000000	86.261	8.0062
1600.000000	86.278	8.0525
1625.000000	86.295	8.1061
1650.000000	86.317	8.1616
1675.000000	86.343	8.2334
1700.000000	86.371	8.3121
1725.000000	86.399	8.3858
1750.000000	86.429	8.4467
1775.000000	86.464	8.5018
1800.000000	86.502	8.5473
1825.000000	86.544	8.5953
1850.000000	86.591	8.6528
1875.000000	86.638	8.7057
1900.000000	86.688	8.7374
1925.000000	86.741	8.7437
1950.000000	86.797	8.7377
1975.000000	86.854	8.7083
2000.000000	86.914	8.6638
2030.000000	86.990	8.5837
2060.000000	87.067	8.4734
2090.000000	87.146	8.3530
2120.000000	87.230	8.2010
2140.000000	87.285	8.0764
2180.000000	87.397	7.7882
2200.000000	87.455	7.6318
2240.000000	87.571	7.2960
2270.000000	87.662	7.0101
2300.000000	87.758	6.6899
2330.000000	87.856	6.3344
2360.000000	87.955	5.9198
2400.000000	88.087	5.2727
2430.000000	88.187	4.7171
2470.000000	88.319	3.8839
2500.000000	88.415	3.2073
2540.000000	88.536	2.2354
2580.000000	88.654	1.1896
2620.000000	88.766	0.0840
2650.000000	88.846	-0.7948
2690.000000	88.945	-2.0347
2720.000000	89.013	-3.0098
2760.000000	89.096	-4.3697
2800.000000	89.171	-5.7883
2850.000000	89.253	-7.6339
2900.000000	89.321	-9.5768
2950.000000	89.370	-11.5969
3000.000000	89.396	-13.6715
3040.000000	89.403	-15.3711
3070.000000	89.402	-16.6602
3110.000000	89.391	-18.3729
3150.000000	89.368	-20.0663
3200.000000	89.334	-22.1746
3250.000000	89.298	-24.2966
3300.000000	89.260	-26.4680
3350.000000	89.217	-28.7335
3400.000000	89.167	-31.1357
3450.000000	89.113	-33.6890
3500.000000	89.050	-36.4178
3550.000000	88.967	-39.3728
3600.000000	88.852	-42.5947
3650.000000	88.684	-46.0935
3700.000000	88.441	-49.8121
3750.000000	88.098	-53.6057
3820.000000	87.422	-58.5498
3870.000000	86.804	-61.3615
3950.000000	85.680	-63.8727
4000.000000	84.991	-64.0919
4060.000000	84.278	-63.3022
4120.000000	83.739	-61.9397
4180.000000	83.376	-60.5741
4250.000000	83.123	-59.4780
4310.000000	82.999	-59.1653
4370.000000	82.910	-59.4780
4440.000000	82.823	-60.5927
4500.000000	82.754	-62.1298
4550.000000	82.692	-63.7769
4620.000000	82.589	-66.6024
4680.000000	82.488	-69.5106
4750.000000	82.355	-73.4362
4820.000000	82.211	-77.9151
4870.000000	82.099	-81.4635
4940.000000	81.939	-86.9442
5000.000000	81.817	-92.1650
5080.000000	81.702	-99.9142
5150.000000	81.661	-107.4915
5220.000000	81.702	-115.8518
5300.000000	81.890	-126.4380
5380.000000	82.254	-138.1920
5450.000000	82.700	-149.4240
5520.000000	83.229	-161.5206
5600.000000	83.870	-176.1991
5700.000000	84.575	164.7524
5800.000000	85.009	145.9484
5900.000000	85.098	128.6951
6000.000000	84.885	114.0172
6080.000000	84.572	104.3895
6150.000000	84.248	97.4608
6220.000000	83.916	91.8062
6300.000000	83.565	86.6923
6400.000000	83.201	81.9664
6500.000000	82.932	78.7042
6600.000000	82.761	76.5422
6700.000000	82.689	75.1667
6800.000000	82.717	74.3567
6900.000000	82.851	73.9260
7000.000000	83.088	73.7734
7100.000000	83.415	73.8665
7200.000000	83.873	74.1725
7300.000000	84.495	74.2079
7400.000000	85.242	73.5201
7500.000000	86.086	71.9111
7620.000000	87.194	68.2783
7750.000000	88.356	61.5329
7880.000000	89.174	51.6122
8000.000000	89.438	40.5167
8120.000000	89.173	29.4112
8250.000000	88.388	19.3438
8380.000000	87.299	12.1996
8500.000000	86.203	8.0774
8620.000000	85.127	5.8510
8750.000000	84.043	5.0369
8850.000000	83.291	5.2517
9000.000000	82.314	6.4860
9120.000000	81.654	7.9884
9250.000000	81.056	9.9094
9380.000000	80.573	11.9497
9500.000000	80.202	13.8370
9620.000000	79.889	15.7025
9750.000000	79.614	17.7004
9880.000000	79.405	19.5957
10000.000000	79.249	21.0826
10150.000000	79.021	22.6776
10300.000000	78.761	24.8490
10440.000000	78.620	27.5081
10600.000000	78.629	30.4672
10750.000000	78.744	32.7835
10900.000000	78.926	34.5966
11060.000000	79.179	35.9670
11200.000000	79.438	36.6528
11380.000000	79.795	36.6760
11500.000000	80.030	36.1837
11720.000000	80.436	34.2236
11800.000000	80.562	33.1176
12060.000000	80.767	28.3270
12200.000000	80.706	25.4046
12410.000000	80.386	21.2538
12500.000000	80.183	19.6952
12650.000000	79.786	17.4866
12800.000000	79.340	15.8125
13150.000000	78.238	13.8296
13200.000000	78.082	13.7319
13400.000000	77.471	13.7533
13600.000000	76.896	14.4553
13800.000000	76.385	15.9052
14000.000000	75.984	18.0497
14300.000000	75.699	22.1364
14500.000000	75.776	24.8322
14750.000000	76.183	27.2368
15000.000000	76.865	27.5587
15250.000000	77.685	24.7978
15500.000000	78.407	18.3427
15750.000000	78.734	8.8082
16000.000000	78.429	-1.5928
16250.000000	77.478	-9.3428
16500.000000	76.315	-11.6221
16750.000000	75.798	-10.6127
17000.000000	76.082	-12.2039
17250.000000	76.457	-19.5244
17500.000000	76.271	-31.2052
17750.000000	75.261	-42.9064
18000.000000	73.585	-50.7866
18250.000000	71.637	-53.9664
18500.000000	69.783	-53.5150
18750.000000	68.212	-50.7466
19000.000000	66.977	-46.7690
19250.000000	66.066	-42.4359
19500.000000	65.465	-38.4803
19750.000000	65.183	-35.6415
20000.000000	65.113	-34.3539
