* Measurement data measured by REW V5.20.13
* Source: EXCL: Mic in at rear panel (Pink)(Realtek(R) Audio), MICROPHONE (마스), L, volume: 1.000
* Format: 256k Log Swept Sine, 1 sweep at -12.0 dBFS with no timing reference
* Dated: 2022. 12. 24 오후 7:25:37
* REW Settings:
*  C-weighting compensation: Off
*  Target level: 75.0 dB
* Note: 
* Measurement: L_T-APB
* Smoothing: 1/24 octave
* Frequency Step: 1/48 octave
* Start Frequency: 20.300 Hz
*
* Freq(Hz)	SPL(dB)	Phase(degrees)
20.299999	89.865	-166.5181
20.600000	89.889	-166.9092
20.900000	89.934	-167.5952
21.200001	89.972	-168.2136
21.400000	89.995	-168.5913
21.799999	90.040	-169.3206
22.000000	90.065	-169.6949
22.400000	90.118	-170.4845
22.700001	90.158	-171.1293
23.000000	90.195	-171.8285
23.299999	90.227	-172.5670
23.600000	90.252	-173.3191
24.000000	90.278	-174.2964
24.299999	90.295	-174.9830
24.700001	90.320	-175.8314
25.000000	90.344	-176.4359
25.400000	90.381	-177.2366
25.799999	90.419	-178.0614
26.200001	90.453	-178.9058
26.500000	90.472	-179.5284
26.900000	90.489	179.6911
27.200001	90.497	179.1578
27.600000	90.507	178.5114
28.000000	90.523	177.9043
28.500000	90.549	177.1331
29.000000	90.574	176.3018
29.500000	90.589	175.4237
30.000000	90.595	174.5451
30.400000	90.599	173.8578
30.700001	90.603	173.3466
31.100000	90.608	172.6571
31.500000	90.613	171.9533
32.000000	90.616	171.0685
32.500000	90.618	170.2083
33.000000	90.622	169.3799
33.500000	90.634	168.5656
34.000000	90.650	167.7542
34.500000	90.666	166.9534
35.000000	90.680	166.1734
35.500000	90.694	165.4151
36.000000	90.707	164.6719
36.500000	90.719	163.9397
37.000000	90.727	163.2244
37.500000	90.732	162.5347
38.200001	90.734	161.6075
38.700001	90.735	160.9548
39.500000	90.735	159.8901
40.000000	90.734	159.2055
40.599998	90.728	158.3785
41.200001	90.719	157.5716
41.799999	90.712	156.7952
42.500000	90.709	155.9128
43.099998	90.714	155.1624
43.700001	90.720	154.4135
44.400002	90.728	153.5402
45.000000	90.733	152.7957
45.500000	90.737	152.1763
46.200001	90.740	151.2971
46.799999	90.734	150.5457
47.500000	90.719	149.7349
48.200001	90.711	148.9989
48.700001	90.713	148.4637
49.400002	90.715	147.6528
50.000000	90.709	146.9556
50.799999	90.702	146.1065
51.500000	90.711	145.3576
52.200001	90.723	144.5161
53.000000	90.722	143.5229
53.799999	90.712	142.6113
54.500000	90.705	141.8736
55.200001	90.699	141.1764
56.000000	90.697	140.4273
57.000000	90.703	139.5031
58.000000	90.711	138.5106
59.000000	90.702	137.4648
60.000000	90.675	136.5223
60.799999	90.662	135.8495
61.500000	90.661	135.2437
62.200001	90.663	134.6022
63.000000	90.666	133.8332
64.000000	90.661	132.8289
65.000000	90.644	131.8812
66.000000	90.634	131.0154
67.000000	90.633	130.1353
68.000000	90.629	129.2152
69.000000	90.616	128.2793
70.000000	90.596	127.4018
71.000000	90.583	126.5699
72.000000	90.573	125.6943
73.000000	90.555	124.8454
74.000000	90.542	124.0622
75.000000	90.533	123.2633
76.199997	90.517	122.3190
77.500000	90.503	121.3096
78.800003	90.491	120.2817
80.000000	90.481	119.3326
81.199997	90.470	118.3927
82.500000	90.458	117.4064
83.800003	90.447	116.4795
85.000000	90.441	115.6627
86.199997	90.440	114.8239
87.500000	90.436	113.8664
88.500000	90.427	113.1468
90.000000	90.427	112.0903
91.199997	90.428	111.1780
92.500000	90.421	110.2611
93.800003	90.419	109.4253
95.000000	90.419	108.6324
96.199997	90.414	107.8159
97.500000	90.404	106.9024
98.800003	90.393	105.9713
100.000000	90.383	105.1134
101.500000	90.370	104.0815
103.000000	90.357	103.1260
104.400002	90.347	102.2811
106.000000	90.337	101.3232
107.500000	90.327	100.3960
109.000000	90.320	99.4526
110.599998	90.313	98.4627
112.000000	90.308	97.6341
113.800003	90.301	96.6002
115.000000	90.295	95.9294
117.199997	90.284	94.6680
118.000000	90.277	94.1907
120.599998	90.255	92.7692
122.000000	90.258	92.0462
124.099998	90.262	90.9481
125.000000	90.261	90.4835
126.500000	90.258	89.7057
128.000000	90.252	88.9246
131.500000	90.238	87.0917
132.000000	90.235	86.8363
134.000000	90.226	85.8608
136.000000	90.220	84.9073
138.000000	90.211	83.9599
140.000000	90.201	83.0352
143.000000	90.188	81.6794
145.000000	90.179	80.8221
147.500000	90.175	79.8095
150.000000	90.179	78.8010
152.500000	90.187	77.7570
155.000000	90.195	76.6998
157.500000	90.203	75.6491
160.000000	90.206	74.6274
162.500000	90.210	73.6269
165.000000	90.215	72.6316
167.500000	90.221	71.6766
170.000000	90.228	70.7604
172.500000	90.237	69.8383
175.000000	90.250	68.8874
177.500000	90.268	67.9158
180.000000	90.285	66.9256
182.500000	90.298	65.9251
185.000000	90.305	64.9016
187.500000	90.305	63.8683
190.000000	90.299	62.8687
192.500000	90.293	61.9255
195.000000	90.287	61.0086
197.500000	90.279	60.0977
200.000000	90.268	59.2034
203.000000	90.255	58.1643
206.000000	90.243	57.1588
209.000000	90.234	56.1810
212.000000	90.224	55.2063
214.000000	90.214	54.5634
218.000000	90.195	53.3330
220.000000	90.187	52.7339
224.000000	90.171	51.5542
227.000000	90.161	50.6879
230.000000	90.153	49.8311
233.000000	90.140	48.9926
236.000000	90.125	48.1620
240.000000	90.105	47.0777
243.000000	90.088	46.2905
247.000000	90.063	45.2496
250.000000	90.046	44.4898
254.000000	90.018	43.5116
258.000000	89.985	42.5460
262.000000	89.954	41.6067
265.000000	89.933	40.9067
269.000000	89.904	39.9750
272.000000	89.880	39.3057
276.000000	89.848	38.4320
280.000000	89.820	37.5616
285.000000	89.785	36.5336
290.000000	89.744	35.5562
295.000000	89.699	34.6139
300.000000	89.656	33.7200
304.000000	89.627	33.0189
307.000000	89.604	32.5069
311.000000	89.569	31.8550
315.000000	89.535	31.2332
320.000000	89.493	30.4653
325.000000	89.449	29.7179
330.000000	89.400	29.0369
335.000000	89.348	28.4243
340.000000	89.292	27.9000
345.000000	89.235	27.4934
350.000000	89.189	27.2346
355.000000	89.165	27.0929
360.000000	89.178	27.0203
365.000000	89.235	26.8869
370.000000	89.325	26.4824
375.000000	89.413	25.7014
382.000000	89.484	24.1243
387.000000	89.486	22.9074
395.000000	89.421	21.1550
400.000000	89.358	20.2341
406.000000	89.278	19.2875
412.000000	89.198	18.4489
418.000000	89.118	17.6823
425.000000	89.027	16.9015
431.000000	88.956	16.2883
437.000000	88.890	15.6945
444.000000	88.813	15.0498
450.000000	88.749	14.5409
455.000000	88.697	14.1274
462.000000	88.620	13.5669
468.000000	88.555	13.1211
475.000000	88.484	12.6298
482.000000	88.417	12.1510
487.000000	88.369	11.8300
494.000000	88.300	11.4184
500.000000	88.243	11.0950
508.000000	88.168	10.6808
515.000000	88.101	10.3253
522.000000	88.035	9.9926
530.000000	87.961	9.6388
538.000000	87.889	9.3192
545.000000	87.828	9.0500
552.000000	87.767	8.7839
560.000000	87.701	8.5118
570.000000	87.620	8.2342
580.000000	87.537	7.9881
590.000000	87.458	7.7642
600.000000	87.374	7.5671
608.000000	87.310	7.4222
615.000000	87.255	7.3070
622.000000	87.199	7.2033
630.000000	87.139	7.1075
640.000000	87.065	7.0270
650.000000	86.992	6.9837
660.000000	86.922	6.9670
670.000000	86.852	6.9763
680.000000	86.785	7.0002
690.000000	86.721	7.0253
700.000000	86.656	7.0880
710.000000	86.593	7.1824
720.000000	86.533	7.3031
730.000000	86.476	7.4503
740.000000	86.423	7.5920
750.000000	86.372	7.7415
762.000000	86.315	7.9476
775.000000	86.255	8.2214
788.000000	86.203	8.5115
800.000000	86.161	8.7865
812.000000	86.122	9.0829
825.000000	86.085	9.4115
838.000000	86.056	9.7650
850.000000	86.034	10.1022
862.000000	86.016	10.4152
875.000000	86.004	10.7585
885.000000	85.999	11.0248
900.000000	85.997	11.3942
912.000000	86.001	11.6923
925.000000	86.010	12.0078
938.000000	86.024	12.2975
950.000000	86.040	12.5336
962.000000	86.062	12.7483
975.000000	86.093	12.9768
988.000000	86.128	13.1655
1000.000000	86.159	13.2938
1015.000000	86.185	13.4882
1030.000000	86.218	13.6577
1044.000000	86.256	13.7560
1060.000000	86.302	13.8113
1075.000000	86.339	13.8236
1090.000000	86.376	13.8134
1106.000000	86.423	13.7717
1120.000000	86.466	13.7050
1138.000000	86.518	13.5970
1150.000000	86.551	13.5190
1172.000000	86.606	13.3605
1180.000000	86.624	13.2968
1206.000000	86.675	13.0507
1220.000000	86.700	12.9135
1241.000000	86.735	12.7084
1250.000000	86.747	12.6223
1265.000000	86.767	12.4928
1280.000000	86.784	12.3694
1315.000000	86.819	12.1139
1320.000000	86.823	12.0831
1340.000000	86.834	11.9781
1360.000000	86.843	11.8776
1380.000000	86.854	11.7776
1400.000000	86.868	11.7112
1430.000000	86.893	11.6522
1450.000000	86.911	11.6465
1475.000000	86.932	11.6335
1500.000000	86.956	11.6254
1525.000000	86.981	11.6617
1550.000000	87.008	11.7299
1575.000000	87.040	11.8083
1600.000000	87.074	11.8782
1625.000000	87.110	11.9521
1650.000000	87.154	12.0416
1675.000000	87.201	12.1237
1700.000000	87.249	12.1890
1725.000000	87.300	12.2479
1750.000000	87.353	12.2902
1775.000000	87.409	12.3259
1800.000000	87.467	12.3439
1825.000000	87.528	12.3260
1850.000000	87.589	12.2839
1875.000000	87.647	12.2289
1900.000000	87.703	12.1866
1925.000000	87.759	12.1577
1950.000000	87.820	12.1434
1975.000000	87.885	12.1365
2000.000000	87.956	12.1309
2030.000000	88.050	12.1022
2060.000000	88.153	12.0143
2090.000000	88.263	11.8635
2120.000000	88.376	11.6600
2140.000000	88.452	11.4926
2180.000000	88.608	11.0740
2200.000000	88.685	10.8242
2240.000000	88.837	10.2600
2270.000000	88.951	9.7685
2300.000000	89.062	9.2225
2330.000000	89.170	8.6277
2360.000000	89.274	7.9753
2400.000000	89.406	7.0239
2430.000000	89.501	6.2630
2470.000000	89.619	5.2023
2500.000000	89.702	4.3880
2540.000000	89.807	3.2812
2580.000000	89.909	2.1633
2620.000000	90.009	1.0325
2650.000000	90.089	0.1589
2690.000000	90.203	-1.1000
2720.000000	90.289	-2.1441
2760.000000	90.400	-3.6819
2800.000000	90.493	-5.3734
2850.000000	90.573	-7.6553
2900.000000	90.613	-10.0255
2950.000000	90.621	-12.3932
3000.000000	90.602	-14.7213
3040.000000	90.569	-16.5539
3070.000000	90.537	-17.9105
3110.000000	90.486	-19.6804
3150.000000	90.427	-21.3962
3200.000000	90.346	-23.4826
3250.000000	90.263	-25.5389
3300.000000	90.182	-27.5970
3350.000000	90.105	-29.7041
3400.000000	90.035	-31.9048
3450.000000	89.973	-34.2529
3500.000000	89.910	-36.8275
3550.000000	89.835	-39.7010
3600.000000	89.730	-42.9312
3650.000000	89.565	-46.5495
3700.000000	89.307	-50.5027
3750.000000	88.924	-54.5947
3820.000000	88.129	-59.8417
3870.000000	87.383	-62.5632
3950.000000	86.035	-64.0118
4000.000000	85.247	-63.0488
4060.000000	84.507	-60.5978
4120.000000	84.047	-57.6659
4180.000000	83.836	-55.0809
4250.000000	83.794	-53.0989
4310.000000	83.845	-52.4095
4370.000000	83.918	-52.5876
4440.000000	84.000	-53.7466
4500.000000	84.051	-55.4342
4550.000000	84.075	-57.2678
4620.000000	84.081	-60.4255
4680.000000	84.059	-63.6486
4750.000000	83.993	-67.9862
4820.000000	83.880	-72.9117
4870.000000	83.772	-76.7356
4940.000000	83.595	-82.4619
5000.000000	83.436	-87.7432
5080.000000	83.246	-95.3868
5150.000000	83.131	-102.7010
5220.000000	83.101	-110.7734
5300.000000	83.208	-121.1560
5380.000000	83.485	-133.0051
5450.000000	83.853	-144.6907
5520.000000	84.303	-157.5724
5600.000000	84.833	-173.6077
5700.000000	85.334	165.1643
5800.000000	85.480	144.3141
5900.000000	85.237	125.7631
6000.000000	84.717	110.6656
6080.000000	84.209	101.1667
6150.000000	83.758	94.5336
6220.000000	83.336	89.2367
6300.000000	82.914	84.5554
6400.000000	82.488	80.3915
6500.000000	82.174	77.6930
6600.000000	81.965	76.1633
6700.000000	81.867	75.5243
6800.000000	81.882	75.5960
6900.000000	82.030	76.2460
7000.000000	82.345	77.2913
7100.000000	82.820	78.3346
7200.000000	83.421	79.1335
7300.000000	84.153	79.5383
7400.000000	85.024	79.3085
7500.000000	86.024	78.1075
7620.000000	87.365	74.7931
7750.000000	88.837	67.8372
7880.000000	89.958	56.4692
8000.000000	90.369	42.7728
8120.000000	90.026	28.7466
8250.000000	88.936	16.6025
8380.000000	87.457	9.0331
8500.000000	86.042	5.5229
8620.000000	84.736	4.3320
8750.000000	83.495	4.7255
8850.000000	82.667	5.7784
9000.000000	81.613	8.1192
9120.000000	80.910	10.4774
9250.000000	80.275	13.3502
9380.000000	79.770	16.3533
9500.000000	79.397	19.0828
9620.000000	79.089	21.7139
9750.000000	78.810	24.4427
9880.000000	78.559	27.0786
10000.000000	78.338	29.6257
10150.000000	78.116	33.2645
10300.000000	78.018	37.2178
10440.000000	78.052	40.8026
10600.000000	78.210	44.5927
10750.000000	78.451	47.7919
10900.000000	78.777	50.5485
11060.000000	79.212	52.8331
11200.000000	79.639	54.1429
11380.000000	80.180	54.8854
11500.000000	80.523	55.0604
11720.000000	81.253	54.8350
11800.000000	81.551	54.2245
12060.000000	82.344	49.6951
12200.000000	82.553	46.2770
12410.000000	82.547	41.1168
12500.000000	82.446	39.1679
12650.000000	82.192	36.5295
12800.000000	81.883	34.7722
13150.000000	81.270	33.7889
13200.000000	81.218	33.9130
13400.000000	81.149	34.7411
13600.000000	81.347	35.6165
13800.000000	81.845	35.7298
14000.000000	82.619	34.0732
14300.000000	83.962	25.4727
14500.000000	84.501	14.5229
14750.000000	84.202	-2.0605
15000.000000	82.829	-15.5244
15250.000000	80.968	-22.9938
15500.000000	79.224	-26.2670
15750.000000	77.755	-27.7359
16000.000000	76.340	-27.4412
16250.000000	75.010	-23.0817
16500.000000	74.511	-15.3415
16750.000000	75.217	-9.8690
17000.000000	76.430	-11.0436
17250.000000	77.380	-19.7947
17500.000000	77.521	-33.6732
17750.000000	76.683	-47.2188
18000.000000	75.162	-56.3585
18250.000000	73.474	-61.0706
18500.000000	71.972	-63.4521
18750.000000	70.709	-65.3522
19000.000000	69.550	-67.6064
19250.000000	68.316	-70.0507
19500.000000	66.906	-71.8177
19750.000000	65.436	-72.3337
20000.000000	64.324	-72.0604
