* Measurement data measured by REW V5.20.13
* Source: EXCL: Mic in at rear panel (Pink)(Realtek(R) Audio), MICROPHONE (마스), L, volume: 1.000
* Format: 256k Log Swept Sine, 1 sweep at -12.0 dBFS with no timing reference
* Dated: 2022. 12. 24 오후 7:17:36
* REW Settings:
*  C-weighting compensation: Off
*  Target level: 75.0 dB
* Note: 
* Measurement: R_50ohm
* Smoothing: 1/24 octave
* Frequency Step: 1/48 octave
* Start Frequency: 20.300 Hz
*
* Freq(Hz)	SPL(dB)	Phase(degrees)
20.299999	78.350	162.2650
20.600000	78.335	161.8571
20.900000	78.309	161.1588
21.200001	78.293	160.5613
21.400000	78.289	160.1807
21.799999	78.291	159.3473
22.000000	78.292	158.8626
22.400000	78.281	157.7817
22.700001	78.258	156.9373
23.000000	78.225	156.1215
23.299999	78.189	155.3566
23.600000	78.159	154.6314
24.000000	78.131	153.6811
24.299999	78.117	152.9461
24.700001	78.099	151.9302
25.000000	78.082	151.1677
25.400000	78.055	150.1926
25.799999	78.031	149.2737
26.200001	78.014	148.3685
26.500000	78.002	147.6712
26.900000	77.980	146.7182
27.200001	77.953	146.0152
27.600000	77.908	145.1393
28.000000	77.863	144.3476
28.500000	77.816	143.3984
29.000000	77.773	142.3708
29.500000	77.716	141.2629
30.000000	77.640	140.1990
30.400000	77.579	139.4332
30.700001	77.539	138.8935
31.100000	77.494	138.1714
31.500000	77.454	137.4202
32.000000	77.407	136.4664
32.500000	77.368	135.5416
33.000000	77.348	134.5903
33.500000	77.343	133.4900
34.000000	77.326	132.2129
34.500000	77.274	130.9062
35.000000	77.187	129.7636
35.500000	77.093	128.8837
36.000000	77.015	128.2078
36.500000	76.962	127.6034
37.000000	76.926	126.9612
37.500000	76.894	126.2524
38.200001	76.841	125.1935
38.700001	76.800	124.4123
39.500000	76.729	123.0617
40.000000	76.671	122.1583
40.599998	76.584	121.1294
41.200001	76.497	120.2428
41.799999	76.430	119.3775
42.500000	76.357	118.2087
43.099998	76.271	117.1853
43.700001	76.175	116.3249
44.400002	76.076	115.4644
45.000000	76.000	114.7365
45.500000	75.940	114.1647
46.200001	75.878	113.3780
46.799999	75.840	112.5038
47.500000	75.755	111.2478
48.200001	75.614	110.2598
48.700001	75.527	109.8596
49.400002	75.475	109.3375
50.000000	75.459	108.5792
50.799999	75.402	107.3245
51.500000	75.337	106.3365
52.200001	75.282	105.3461
53.000000	75.197	104.1559
53.799999	75.089	103.2505
54.500000	75.025	102.6337
55.200001	74.982	101.8465
56.000000	74.897	100.7853
57.000000	74.743	99.7256
58.000000	74.608	98.8158
59.000000	74.476	97.7742
60.000000	74.327	96.7687
60.799999	74.230	96.1208
61.500000	74.186	95.4917
62.200001	74.152	94.6587
63.000000	74.094	93.6996
64.000000	74.031	92.6384
65.000000	73.926	91.4520
66.000000	73.754	90.8954
67.000000	73.636	90.6001
68.000000	73.473	90.2505
69.000000	73.381	90.3863
70.000000	73.411	89.4097
71.000000	73.311	87.6511
72.000000	73.194	86.5925
73.000000	73.187	85.5719
74.000000	73.195	84.3323
75.000000	73.165	83.1730
76.199997	73.054	82.1544
77.500000	72.841	81.3937
78.800003	72.564	81.1573
80.000000	72.393	80.9123
81.199997	72.303	80.1117
82.500000	72.264	78.8937
83.800003	72.237	77.8216
85.000000	72.131	77.3611
86.199997	71.931	78.1359
87.500000	71.759	79.7372
88.500000	71.682	80.7127
90.000000	71.736	80.1566
91.199997	71.762	77.1900
92.500000	71.656	73.2181
93.800003	71.503	70.2637
95.000000	71.422	68.9292
96.199997	71.372	68.3523
97.500000	71.224	68.6513
98.800003	71.121	69.7618
100.000000	71.076	69.7800
101.500000	70.893	68.7765
103.000000	70.697	67.6272
104.400002	70.577	66.5828
106.000000	70.524	65.6645
107.500000	70.503	65.0203
109.000000	70.454	64.6704
110.599998	70.345	64.4173
112.000000	70.217	64.0332
113.800003	70.067	62.6419
115.000000	70.020	61.2279
117.199997	70.293	58.4523
118.000000	70.513	57.2215
120.599998	70.607	53.2361
122.000000	70.248	54.8715
124.099998	69.928	57.9253
125.000000	69.800	58.3095
126.500000	69.568	57.8056
128.000000	69.388	56.5168
131.500000	69.338	54.1657
132.000000	69.347	54.1024
134.000000	69.329	54.3035
136.000000	69.220	54.8272
138.000000	69.090	54.7661
140.000000	68.917	53.9904
143.000000	68.656	52.5522
145.000000	68.562	52.0248
147.500000	68.613	51.5484
150.000000	68.593	50.6034
152.500000	68.448	50.2385
155.000000	68.381	49.9789
157.500000	68.319	49.7002
160.000000	68.250	49.2955
162.500000	68.128	48.5045
165.000000	68.023	47.7604
167.500000	67.971	47.0292
170.000000	67.886	46.3324
172.500000	67.792	46.0467
175.000000	67.725	45.8973
177.500000	67.654	45.6663
180.000000	67.595	45.3639
182.500000	67.573	44.9216
185.000000	67.538	44.5200
187.500000	67.479	44.1542
190.000000	67.414	43.5161
192.500000	67.370	42.7276
195.000000	67.330	42.3918
197.500000	67.328	42.6667
200.000000	67.355	42.7051
203.000000	67.339	42.2535
206.000000	67.279	41.9398
209.000000	67.207	41.7287
212.000000	67.120	41.3380
214.000000	67.065	41.0313
218.000000	67.000	40.2592
220.000000	66.981	39.8351
224.000000	66.947	39.1038
227.000000	66.921	38.6817
230.000000	66.903	38.3946
233.000000	66.877	38.2026
236.000000	66.823	38.0774
240.000000	66.762	37.8229
243.000000	66.746	37.6602
247.000000	66.719	37.4549
250.000000	66.666	37.1207
254.000000	66.608	36.6026
258.000000	66.535	36.1562
262.000000	66.443	35.7788
265.000000	66.406	35.6275
269.000000	66.385	35.4419
272.000000	66.358	35.0508
276.000000	66.313	34.6056
280.000000	66.315	34.5161
285.000000	66.326	34.2630
290.000000	66.285	34.1849
295.000000	66.210	34.2379
300.000000	66.182	34.0343
304.000000	66.140	33.9653
307.000000	66.102	33.8213
311.000000	66.079	33.6707
315.000000	66.069	33.7113
320.000000	66.022	33.6335
325.000000	65.963	33.2932
330.000000	65.913	33.1735
335.000000	65.881	33.2919
340.000000	65.875	33.2720
345.000000	65.872	33.1463
350.000000	65.883	33.2358
355.000000	65.888	33.4811
360.000000	65.888	33.4731
365.000000	65.894	33.2339
370.000000	65.902	33.0463
375.000000	65.937	33.2502
382.000000	65.976	33.9465
387.000000	65.988	34.0703
395.000000	65.966	33.1145
400.000000	65.965	32.6985
406.000000	66.037	32.4524
412.000000	66.054	32.5446
418.000000	65.994	32.6459
425.000000	65.956	32.6217
431.000000	65.919	32.7074
437.000000	65.876	32.5233
444.000000	65.878	32.1406
450.000000	65.875	32.0807
455.000000	65.855	32.2579
462.000000	65.832	32.6126
468.000000	65.795	32.5972
475.000000	65.773	32.3688
482.000000	65.765	32.3940
487.000000	65.752	32.4419
494.000000	65.746	32.5061
500.000000	65.748	32.5566
508.000000	65.747	32.9296
515.000000	65.745	33.3263
522.000000	65.767	33.5207
530.000000	65.795	33.5204
538.000000	65.802	33.3946
545.000000	65.795	33.5760
552.000000	65.790	33.8941
560.000000	65.771	34.0841
570.000000	65.762	34.3136
580.000000	65.762	34.5081
590.000000	65.748	34.8500
600.000000	65.767	35.2985
608.000000	65.769	35.6825
615.000000	65.776	36.1042
622.000000	65.784	36.3487
630.000000	65.790	36.2733
640.000000	65.802	36.1980
650.000000	65.838	36.5861
660.000000	65.910	37.1815
670.000000	65.920	37.7672
680.000000	65.881	38.1286
690.000000	65.876	38.3748
700.000000	65.886	38.7340
710.000000	65.908	39.0887
720.000000	65.945	39.3148
730.000000	65.976	39.7931
740.000000	66.036	40.5912
750.000000	66.082	41.1246
762.000000	66.079	41.4454
775.000000	66.117	41.9108
788.000000	66.188	42.6760
800.000000	66.231	43.4189
812.000000	66.272	43.9714
825.000000	66.325	44.5394
838.000000	66.443	45.0640
850.000000	66.532	45.5870
862.000000	66.604	45.9656
875.000000	66.705	46.5375
885.000000	66.774	47.0663
900.000000	66.860	47.7273
912.000000	66.921	48.1555
925.000000	67.016	48.6822
938.000000	67.122	49.1475
950.000000	67.207	49.5656
962.000000	67.308	49.9719
975.000000	67.453	50.4394
988.000000	67.596	50.9821
1000.000000	67.711	51.4469
1015.000000	67.870	51.5856
1030.000000	68.032	51.6242
1044.000000	68.165	51.7122
1060.000000	68.294	51.8961
1075.000000	68.394	52.0735
1090.000000	68.513	52.1862
1106.000000	68.689	52.1983
1120.000000	68.837	52.1614
1138.000000	68.993	51.9301
1150.000000	69.095	51.8514
1172.000000	69.296	51.7156
1180.000000	69.374	51.6256
1206.000000	69.603	51.4605
1220.000000	69.716	51.2860
1241.000000	69.875	50.9794
1250.000000	69.936	50.8964
1265.000000	70.030	50.7941
1280.000000	70.135	50.6752
1315.000000	70.398	50.2681
1320.000000	70.431	50.2026
1340.000000	70.561	49.9722
1360.000000	70.684	49.7781
1380.000000	70.815	49.5427
1400.000000	70.955	49.3540
1430.000000	71.130	48.9837
1450.000000	71.233	48.7626
1475.000000	71.373	48.5944
1500.000000	71.535	48.3833
1525.000000	71.705	48.1738
1550.000000	71.870	47.9093
1575.000000	72.036	47.6066
1600.000000	72.186	47.3059
1625.000000	72.332	47.0495
1650.000000	72.498	46.8605
1675.000000	72.659	46.5445
1700.000000	72.814	46.1546
1725.000000	72.965	45.7320
1750.000000	73.128	45.3778
1775.000000	73.298	44.9948
1800.000000	73.463	44.5148
1825.000000	73.630	43.9917
1850.000000	73.794	43.4069
1875.000000	73.960	42.7795
1900.000000	74.123	42.1610
1925.000000	74.277	41.5044
1950.000000	74.428	40.7805
1975.000000	74.577	39.9537
2000.000000	74.727	39.0590
2030.000000	74.902	38.0316
2060.000000	75.075	36.9228
2090.000000	75.246	35.6733
2120.000000	75.408	34.3946
2140.000000	75.509	33.5085
2180.000000	75.688	31.5855
2200.000000	75.770	30.5913
2240.000000	75.915	28.5353
2270.000000	76.005	26.8963
2300.000000	76.068	25.1978
2330.000000	76.100	23.4636
2360.000000	76.112	21.7418
2400.000000	76.096	19.5816
2430.000000	76.074	18.1054
2470.000000	76.034	16.2359
2500.000000	75.996	14.8620
2540.000000	75.928	13.0067
2580.000000	75.815	11.3011
2620.000000	75.679	9.8053
2650.000000	75.569	8.7916
2690.000000	75.395	7.6716
2720.000000	75.264	7.1046
2760.000000	75.116	6.6165
2800.000000	75.007	6.2818
2850.000000	74.928	6.0026
2900.000000	74.901	5.7963
2950.000000	74.909	5.4380
3000.000000	74.952	4.7342
3040.000000	75.012	3.9585
3070.000000	75.061	3.3271
3110.000000	75.118	2.3976
3150.000000	75.161	1.3249
3200.000000	75.216	-0.0981
3250.000000	75.277	-1.6404
3300.000000	75.324	-3.3185
3350.000000	75.361	-5.1619
3400.000000	75.404	-7.1936
3450.000000	75.443	-9.3852
3500.000000	75.476	-11.8425
3550.000000	75.484	-14.6293
3600.000000	75.452	-17.7244
3650.000000	75.365	-21.1379
3700.000000	75.195	-24.8438
3750.000000	74.920	-28.6825
3820.000000	74.334	-33.6378
3870.000000	73.767	-36.4635
3950.000000	72.703	-38.8872
4000.000000	72.051	-38.9723
4060.000000	71.398	-37.9079
4120.000000	70.929	-36.2971
4180.000000	70.640	-34.5829
4250.000000	70.491	-33.0212
4310.000000	70.453	-32.4232
4370.000000	70.458	-32.5245
4440.000000	70.480	-33.3497
4500.000000	70.498	-34.6378
4550.000000	70.512	-36.1412
4620.000000	70.516	-38.8673
4680.000000	70.504	-41.6298
4750.000000	70.486	-45.3624
4820.000000	70.445	-49.7087
4870.000000	70.408	-53.1677
4940.000000	70.361	-58.5237
5000.000000	70.323	-63.6363
5080.000000	70.292	-71.3608
5150.000000	70.324	-78.9095
5220.000000	70.441	-87.2081
5300.000000	70.693	-97.8463
5380.000000	71.112	-109.7937
5450.000000	71.614	-121.1610
5520.000000	72.188	-133.4158
5600.000000	72.870	-148.3610
5700.000000	73.650	-167.7809
5800.000000	74.200	173.1147
5900.000000	74.457	155.5370
6000.000000	74.467	140.3391
6080.000000	74.351	130.0631
6150.000000	74.191	122.4468
6220.000000	74.010	115.9830
6300.000000	73.817	109.8125
6400.000000	73.629	103.7548
6500.000000	73.524	99.2022
6600.000000	73.504	95.7207
6700.000000	73.564	92.9714
6800.000000	73.703	90.7730
6900.000000	73.940	88.9260
7000.000000	74.278	87.2104
7100.000000	74.690	85.5663
7200.000000	75.184	83.9581
7300.000000	75.771	82.0154
7400.000000	76.419	79.4500
7500.000000	77.103	76.1088
7620.000000	77.926	70.8094
7750.000000	78.718	63.3351
7880.000000	79.241	54.2571
8000.000000	79.440	44.8893
8120.000000	79.344	35.0659
8250.000000	78.873	24.6344
8380.000000	78.029	15.4511
8500.000000	76.999	8.9111
8620.000000	75.835	4.4779
8750.000000	74.542	1.7662
8850.000000	73.586	0.9329
9000.000000	72.269	1.2296
9120.000000	71.336	2.3888
9250.000000	70.454	4.1865
9380.000000	69.694	6.4413
9500.000000	69.107	8.9951
9620.000000	68.621	11.7559
9750.000000	68.198	14.6787
9880.000000	67.878	17.4154
10000.000000	67.635	19.6511
10150.000000	67.320	22.2014
10300.000000	67.003	25.4188
10440.000000	66.847	28.9876
10600.000000	66.848	32.9379
10750.000000	66.966	36.1037
10900.000000	67.169	38.6352
11060.000000	67.447	40.6917
11200.000000	67.719	41.8013
11380.000000	68.069	42.2881
11500.000000	68.286	42.1674
11720.000000	68.630	41.2100
11800.000000	68.728	40.5638
12060.000000	68.850	37.6962
12200.000000	68.760	36.1666
12410.000000	68.455	34.5140
12500.000000	68.283	34.1522
12650.000000	67.973	34.0469
12800.000000	67.663	34.5878
13150.000000	67.151	38.1538
13200.000000	67.115	38.8412
13400.000000	67.090	41.8535
13600.000000	67.277	45.0212
13800.000000	67.712	48.0510
14000.000000	68.436	50.6575
14300.000000	70.103	52.1614
14500.000000	71.536	49.8599
14750.000000	73.292	40.8352
15000.000000	74.294	24.4900
15250.000000	74.054	6.0005
15500.000000	72.848	-7.7964
15750.000000	71.394	-15.7749
16000.000000	70.100	-20.2750
16250.000000	68.968	-22.2860
16500.000000	68.189	-21.4562
16750.000000	68.232	-20.7898
17000.000000	68.788	-25.4885
17250.000000	68.915	-36.1852
17500.000000	68.171	-47.8858
17750.000000	66.768	-55.7483
18000.000000	65.207	-59.0546
18250.000000	63.909	-59.2647
18500.000000	63.070	-58.3602
18750.000000	62.691	-58.1875
19000.000000	62.666	-60.5054
19250.000000	62.697	-66.5848
19500.000000	62.352	-76.3557
19750.000000	61.445	-87.1504
20000.000000	60.406	-94.3282
