* Measurement data measured by REW V5.20.13
* Source: EXCL: Mic in at rear panel (Pink)(Realtek(R) Audio), MICROPHONE (마스), L, volume: 1.000
* Format: 256k Log Swept Sine, 1 sweep at -12.0 dBFS with no timing reference
* Dated: 2022. 12. 24 오후 8:46:32
* REW Settings:
*  C-weighting compensation: Off
*  Target level: 75.0 dB
* Note: 
* Measurement: R_Xelastec
* Smoothing: 1/24 octave
* Frequency Step: 1/48 octave
* Start Frequency: 20.300 Hz
*
* Freq(Hz)	SPL(dB)	Phase(degrees)
20.299999	90.535	-31.4922
20.600000	90.528	-31.6960
20.900000	90.512	-32.0564
21.200001	90.493	-32.3928
21.400000	90.479	-32.6124
21.799999	90.446	-33.0741
22.000000	90.427	-33.3264
22.400000	90.386	-33.8701
22.700001	90.350	-34.3031
23.000000	90.313	-34.7507
23.299999	90.273	-35.2054
23.600000	90.233	-35.6595
24.000000	90.182	-36.2518
24.299999	90.148	-36.6777
24.700001	90.110	-37.2192
25.000000	90.088	-37.6142
25.400000	90.069	-38.1493
25.799999	90.059	-38.7274
26.200001	90.051	-39.3690
26.500000	90.040	-39.8820
26.900000	90.013	-40.5674
27.200001	89.981	-41.0421
27.600000	89.931	-41.5795
28.000000	89.882	-42.0010
28.500000	89.837	-42.4401
29.000000	89.810	-42.9218
29.500000	89.783	-43.5236
30.000000	89.739	-44.1991
30.400000	89.690	-44.7206
30.700001	89.650	-45.0769
31.100000	89.597	-45.5085
31.500000	89.548	-45.9166
32.000000	89.494	-46.4374
32.500000	89.444	-46.9892
33.000000	89.399	-47.5690
33.500000	89.359	-48.1813
34.000000	89.318	-48.8267
34.500000	89.270	-49.4668
35.000000	89.219	-50.0478
35.500000	89.174	-50.5606
36.000000	89.142	-51.0619
36.500000	89.117	-51.6144
37.000000	89.089	-52.2281
37.500000	89.051	-52.8598
38.200001	88.985	-53.6902
38.700001	88.933	-54.2304
39.500000	88.854	-55.0382
40.000000	88.806	-55.5252
40.599998	88.753	-56.1047
41.200001	88.703	-56.6907
41.799999	88.656	-57.2905
42.500000	88.605	-58.0196
43.099998	88.562	-58.6815
43.700001	88.513	-59.3612
44.400002	88.448	-60.1170
45.000000	88.390	-60.7003
45.500000	88.344	-61.1531
46.200001	88.282	-61.7537
46.799999	88.231	-62.2280
47.500000	88.183	-62.7624
48.200001	88.146	-63.3777
48.700001	88.114	-63.8830
49.400002	88.052	-64.5852
50.000000	87.991	-65.1035
50.799999	87.919	-65.7266
51.500000	87.864	-66.2946
52.200001	87.808	-66.8703
53.000000	87.750	-67.5174
53.799999	87.697	-68.2028
54.500000	87.647	-68.8366
55.200001	87.590	-69.4559
56.000000	87.526	-70.0920
57.000000	87.463	-70.8158
58.000000	87.404	-71.6227
59.000000	87.325	-72.4073
60.000000	87.246	-73.0735
60.799999	87.187	-73.6516
61.500000	87.128	-74.1751
62.200001	87.065	-74.6691
63.000000	86.994	-75.2189
64.000000	86.907	-75.9035
65.000000	86.830	-76.5839
66.000000	86.759	-77.2574
67.000000	86.706	-77.9201
68.000000	86.664	-78.7439
69.000000	86.591	-79.6846
70.000000	86.485	-80.3922
71.000000	86.404	-80.7974
72.000000	86.369	-81.3177
73.000000	86.325	-82.0952
74.000000	86.253	-82.8685
75.000000	86.175	-83.5431
76.199997	86.093	-84.2574
77.500000	86.027	-85.0350
78.800003	85.972	-85.8699
80.000000	85.916	-86.7321
81.199997	85.831	-87.5652
82.500000	85.732	-88.2956
83.800003	85.640	-89.0199
85.000000	85.561	-89.6990
86.199997	85.501	-90.4499
87.500000	85.443	-91.3555
88.500000	85.401	-91.9720
90.000000	85.366	-92.7296
91.199997	85.350	-93.3108
92.500000	85.315	-93.9710
93.800003	85.231	-94.5493
95.000000	85.136	-94.8477
96.199997	85.072	-95.1775
97.500000	85.005	-95.9484
98.800003	84.900	-96.8299
100.000000	84.809	-97.5034
101.500000	84.730	-98.2043
103.000000	84.695	-98.8379
104.400002	84.669	-99.4841
106.000000	84.624	-100.2527
107.500000	84.548	-101.0983
109.000000	84.446	-101.9180
110.599998	84.352	-102.7365
112.000000	84.297	-103.4044
113.800003	84.255	-104.1119
115.000000	84.220	-104.4576
117.199997	84.077	-104.5991
118.000000	84.018	-104.4071
120.599998	84.021	-104.7703
122.000000	83.974	-106.3267
124.099998	83.816	-108.2247
125.000000	83.772	-108.7900
126.500000	83.722	-109.5292
128.000000	83.675	-110.0871
131.500000	83.535	-111.3361
132.000000	83.518	-111.5356
134.000000	83.463	-112.3982
136.000000	83.409	-113.1819
138.000000	83.345	-113.7661
140.000000	83.271	-114.3364
143.000000	83.157	-115.4164
145.000000	83.087	-116.1219
147.500000	83.012	-116.8905
150.000000	82.935	-117.6255
152.500000	82.853	-118.3873
155.000000	82.769	-119.0810
157.500000	82.686	-119.7242
160.000000	82.608	-120.3432
162.500000	82.533	-120.9090
165.000000	82.461	-121.3867
167.500000	82.385	-121.8426
170.000000	82.304	-122.2614
172.500000	82.238	-122.6488
175.000000	82.191	-122.9417
177.500000	82.168	-123.0253
180.000000	82.165	-122.9762
182.500000	82.166	-122.9087
185.000000	82.189	-122.9072
187.500000	82.250	-123.1580
190.000000	82.335	-123.7176
192.500000	82.423	-124.5350
195.000000	82.509	-125.5630
197.500000	82.572	-126.8093
200.000000	82.595	-128.1314
203.000000	82.580	-129.6312
206.000000	82.537	-130.9279
209.000000	82.473	-132.0440
212.000000	82.400	-133.0612
214.000000	82.353	-133.7129
218.000000	82.271	-134.9353
220.000000	82.232	-135.4841
224.000000	82.157	-136.5075
227.000000	82.100	-137.2373
230.000000	82.043	-137.9269
233.000000	81.989	-138.5719
236.000000	81.936	-139.1861
240.000000	81.870	-139.9928
243.000000	81.827	-140.5978
247.000000	81.774	-141.3953
250.000000	81.733	-141.9727
254.000000	81.681	-142.6812
258.000000	81.627	-143.3629
262.000000	81.569	-144.0695
265.000000	81.525	-144.6197
269.000000	81.479	-145.3036
272.000000	81.450	-145.7538
276.000000	81.408	-146.3351
280.000000	81.361	-146.9633
285.000000	81.306	-147.7408
290.000000	81.260	-148.5131
295.000000	81.214	-149.2066
300.000000	81.174	-149.8260
304.000000	81.139	-150.3189
307.000000	81.113	-150.7152
311.000000	81.088	-151.2774
315.000000	81.065	-151.8178
320.000000	81.027	-152.4270
325.000000	80.988	-152.9990
330.000000	80.955	-153.5267
335.000000	80.923	-154.0716
340.000000	80.887	-154.6655
345.000000	80.839	-155.2206
350.000000	80.789	-155.6997
355.000000	80.754	-156.1741
360.000000	80.725	-156.6744
365.000000	80.692	-157.1507
370.000000	80.660	-157.5899
375.000000	80.633	-158.0085
382.000000	80.588	-158.6207
387.000000	80.551	-159.0105
395.000000	80.491	-159.5915
400.000000	80.453	-159.9685
406.000000	80.409	-160.3964
412.000000	80.369	-160.7894
418.000000	80.329	-161.1920
425.000000	80.276	-161.6284
431.000000	80.236	-161.9611
437.000000	80.204	-162.2897
444.000000	80.171	-162.6086
450.000000	80.152	-162.8479
455.000000	80.143	-163.0793
462.000000	80.129	-163.4479
468.000000	80.113	-163.7431
475.000000	80.094	-164.0547
482.000000	80.075	-164.3886
487.000000	80.060	-164.6523
494.000000	80.037	-165.0679
500.000000	80.021	-165.4252
508.000000	79.994	-165.8011
515.000000	79.961	-166.0472
522.000000	79.931	-166.3023
530.000000	79.900	-166.6086
538.000000	79.874	-166.9147
545.000000	79.849	-167.1574
552.000000	79.820	-167.3508
560.000000	79.793	-167.5903
570.000000	79.761	-167.8468
580.000000	79.717	-168.0312
590.000000	79.675	-168.1852
600.000000	79.648	-168.3442
608.000000	79.627	-168.4950
615.000000	79.605	-168.6017
622.000000	79.580	-168.6652
630.000000	79.551	-168.7183
640.000000	79.523	-168.8034
650.000000	79.504	-168.8698
660.000000	79.480	-168.8847
670.000000	79.463	-168.8794
680.000000	79.438	-168.8585
690.000000	79.412	-168.8348
700.000000	79.399	-168.8009
710.000000	79.389	-168.7085
720.000000	79.379	-168.6073
730.000000	79.367	-168.5141
740.000000	79.358	-168.3877
750.000000	79.356	-168.2758
762.000000	79.352	-168.1541
775.000000	79.348	-167.9471
788.000000	79.356	-167.7480
800.000000	79.375	-167.5349
812.000000	79.393	-167.2749
825.000000	79.414	-167.0221
838.000000	79.444	-166.8562
850.000000	79.475	-166.6788
862.000000	79.514	-166.4528
875.000000	79.558	-166.2698
885.000000	79.593	-166.1544
900.000000	79.653	-165.9615
912.000000	79.702	-165.8219
925.000000	79.754	-165.6765
938.000000	79.808	-165.5523
950.000000	79.861	-165.4910
962.000000	79.917	-165.4327
975.000000	79.979	-165.4072
988.000000	80.047	-165.4732
1000.000000	80.105	-165.4930
1015.000000	80.159	-165.3895
1030.000000	80.215	-165.3486
1044.000000	80.276	-165.3260
1060.000000	80.354	-165.2894
1075.000000	80.427	-165.3062
1090.000000	80.499	-165.4074
1106.000000	80.586	-165.5167
1120.000000	80.659	-165.5882
1138.000000	80.750	-165.7177
1150.000000	80.813	-165.8125
1172.000000	80.930	-165.9973
1180.000000	80.972	-166.0685
1206.000000	81.097	-166.3054
1220.000000	81.161	-166.4263
1241.000000	81.259	-166.6202
1250.000000	81.302	-166.7267
1265.000000	81.373	-166.8941
1280.000000	81.437	-167.0181
1315.000000	81.573	-167.2879
1320.000000	81.593	-167.3181
1340.000000	81.674	-167.4390
1360.000000	81.752	-167.5739
1380.000000	81.827	-167.6946
1400.000000	81.909	-167.8023
1430.000000	82.046	-167.9279
1450.000000	82.138	-167.9834
1475.000000	82.248	-168.0701
1500.000000	82.359	-168.1357
1525.000000	82.478	-168.1821
1550.000000	82.600	-168.2400
1575.000000	82.723	-168.3217
1600.000000	82.855	-168.3937
1625.000000	82.997	-168.4851
1650.000000	83.140	-168.5852
1675.000000	83.283	-168.7206
1700.000000	83.425	-168.8649
1725.000000	83.569	-169.0403
1750.000000	83.717	-169.2718
1775.000000	83.870	-169.5176
1800.000000	84.025	-169.7692
1825.000000	84.180	-170.0881
1850.000000	84.336	-170.4607
1875.000000	84.492	-170.8773
1900.000000	84.650	-171.3418
1925.000000	84.805	-171.8465
1950.000000	84.956	-172.4035
1975.000000	85.104	-173.0166
2000.000000	85.249	-173.6833
2030.000000	85.416	-174.5403
2060.000000	85.574	-175.4582
2090.000000	85.724	-176.4436
2120.000000	85.867	-177.4766
2140.000000	85.954	-178.1903
2180.000000	86.103	-179.6682
2200.000000	86.168	179.5784
2240.000000	86.281	178.0604
2270.000000	86.349	176.9288
2300.000000	86.404	175.8192
2330.000000	86.443	174.7367
2360.000000	86.469	173.6994
2400.000000	86.485	172.4110
2430.000000	86.484	171.5093
2470.000000	86.473	170.4098
2500.000000	86.460	169.6791
2540.000000	86.436	168.8092
2580.000000	86.406	168.1006
2620.000000	86.373	167.5771
2650.000000	86.351	167.2606
2690.000000	86.327	166.9191
2720.000000	86.314	166.7490
2760.000000	86.304	166.6295
2800.000000	86.303	166.6076
2850.000000	86.323	166.7160
2900.000000	86.370	166.9333
2950.000000	86.447	167.2538
3000.000000	86.560	167.6610
3040.000000	86.681	167.9934
3070.000000	86.792	168.2317
3110.000000	86.962	168.4863
3150.000000	87.157	168.6265
3200.000000	87.434	168.6184
3250.000000	87.744	168.3533
3300.000000	88.078	167.7678
3350.000000	88.432	166.8356
3400.000000	88.798	165.5229
3450.000000	89.170	163.7460
3500.000000	89.528	161.4651
3550.000000	89.849	158.6805
3600.000000	90.113	155.4199
3650.000000	90.300	151.7405
3700.000000	90.389	147.7762
3750.000000	90.372	143.7129
3820.000000	90.167	138.2141
3870.000000	89.904	134.6556
3950.000000	89.332	129.9139
4000.000000	88.912	127.6299
4060.000000	88.379	125.5865
4120.000000	87.845	124.2201
4180.000000	87.327	123.4431
4250.000000	86.757	123.1437
4310.000000	86.307	123.3061
4370.000000	85.894	123.7377
4440.000000	85.467	124.4631
4500.000000	85.146	125.1960
4550.000000	84.909	125.8154
4620.000000	84.619	126.6096
4680.000000	84.406	127.1520
4750.000000	84.184	127.5551
4820.000000	83.970	127.6371
4870.000000	83.807	127.4671
4940.000000	83.542	126.9196
5000.000000	83.261	126.2180
5080.000000	82.781	125.1954
5150.000000	82.249	124.4751
5220.000000	81.610	124.1597
5300.000000	80.775	124.6722
5380.000000	79.884	126.3290
5450.000000	79.106	128.7185
5520.000000	78.361	131.9739
5600.000000	77.585	136.6157
5700.000000	76.792	143.3550
5800.000000	76.219	150.5700
5900.000000	75.834	157.7389
6000.000000	75.592	164.5110
6080.000000	75.450	169.6201
6150.000000	75.343	173.9184
6220.000000	75.236	178.1422
6300.000000	75.104	-176.9290
6400.000000	74.940	-170.3259
6500.000000	74.821	-163.0773
6600.000000	74.818	-155.1009
6700.000000	74.996	-146.6355
6800.000000	75.398	-138.0983
6900.000000	76.029	-129.9004
7000.000000	76.866	-122.2983
7100.000000	77.890	-115.5162
7200.000000	79.075	-109.8603
7300.000000	80.363	-105.5249
7400.000000	81.715	-102.5692
7500.000000	83.117	-101.1032
7620.000000	84.844	-101.6881
7750.000000	86.603	-105.9836
7880.000000	87.860	-114.5269
8000.000000	88.322	-124.6790
8120.000000	88.105	-133.9526
8250.000000	87.383	-140.5159
8380.000000	86.540	-143.4593
8500.000000	85.868	-144.1621
8620.000000	85.348	-144.0575
8750.000000	84.900	-143.8869
8850.000000	84.585	-143.9937
9000.000000	84.066	-144.5501
9120.000000	83.549	-145.0397
9250.000000	82.868	-145.1769
9380.000000	82.079	-144.5207
9500.000000	81.297	-143.0158
9620.000000	80.509	-140.6002
9750.000000	79.697	-137.0074
9880.000000	78.966	-132.6148
10000.000000	78.381	-128.0590
10150.000000	77.781	-121.9298
10300.000000	77.338	-115.6038
10440.000000	77.060	-109.7829
10600.000000	76.898	-103.4900
10750.000000	76.884	-98.3007
10900.000000	76.955	-94.2441
11060.000000	77.039	-91.4627
11200.000000	77.021	-90.3546
11380.000000	76.729	-90.3122
11500.000000	76.316	-90.5286
11720.000000	75.108	-89.6024
11800.000000	74.552	-88.5075
12060.000000	72.571	-81.5238
12200.000000	71.510	-75.7831
12410.000000	70.037	-65.3535
12500.000000	69.457	-60.3186
12650.000000	68.587	-51.2731
12800.000000	67.869	-41.7465
13150.000000	66.724	-18.4362
13200.000000	66.623	-15.0064
13400.000000	66.397	-1.1988
13600.000000	66.472	12.5111
13800.000000	66.875	25.4929
14000.000000	67.638	37.0134
14300.000000	69.251	48.6804
14500.000000	70.118	50.8243
14750.000000	70.214	49.7472
15000.000000	69.191	53.0009
15250.000000	68.188	64.4711
15500.000000	68.370	77.8552
15750.000000	69.206	86.3297
16000.000000	69.559	89.9116
16250.000000	69.182	95.1379
16500.000000	68.868	105.4813
16750.000000	69.440	116.9950
17000.000000	70.475	124.4254
17250.000000	71.347	128.1275
17500.000000	72.134	130.2959
17750.000000	72.894	130.2274
18000.000000	73.359	127.0921
18250.000000	73.297	122.1203
18500.000000	72.737	117.1212
18750.000000	71.819	112.4416
19000.000000	70.495	107.9171
19250.000000	68.552	105.4162
19500.000000	65.964	107.7655
19750.000000	63.092	114.9132
20000.000000	60.827	121.7365
