* Measurement data measured by REW V5.20.7
* Source: Input device not selected, no input selected, L, volume: no control. Timing signal peak level -20.6 dBFS, measurement signal peak level -20.3 dBFS
* Format: 128k Log Swept Sine, 1 sweep using an acoustic timing reference
* Dated: 2022. 5. 20 ¿ÀÈÄ 5:35:19
* REW Settings:
*  C-weighting compensation: Off
*  Target level: 75.0 dB
* Note: ; Delay 0.0087 ms (3.0 mm, 0.12 in) using estimated IR delay relative to Acoustic reference on  L with no timing offset
* Measurement: JBL_E25BT_R
* Smoothing: 1/24 octave
* Frequency Step: 1/48 octave
* Start Frequency: 20.000 Hz
*
* Freq(Hz)	SPL(dB)	Phase(degrees)
20.000000	95.402	31.0878
20.299999	95.456	30.3760
20.600000	95.507	29.6999
20.900000	95.558	29.0668
21.200001	95.611	28.4705
21.400000	95.648	28.0821
21.799999	95.724	27.3049
22.000000	95.760	26.9080
22.400000	95.825	26.0972
22.700001	95.863	25.4977
23.000000	95.892	24.9385
23.299999	95.914	24.4424
23.600000	95.936	24.0122
24.000000	95.970	23.5147
24.299999	96.003	23.1549
24.700001	96.053	22.6341
25.000000	96.090	22.1922
25.400000	96.130	21.5492
25.799999	96.158	20.9013
26.200001	96.178	20.3013
26.500000	96.195	19.8858
26.900000	96.223	19.3445
27.200001	96.249	18.9133
27.600000	96.285	18.2745
28.000000	96.313	17.5765
28.500000	96.331	16.7135
29.000000	96.340	15.9663
29.500000	96.359	15.3356
30.000000	96.395	14.7220
30.400000	96.429	14.1860
30.700001	96.454	13.7570
31.100000	96.480	13.1795
31.500000	96.499	12.6296
32.000000	96.520	12.0009
32.500000	96.543	11.4066
33.000000	96.565	10.8032
33.500000	96.580	10.1921
34.000000	96.589	9.6052
34.500000	96.599	9.0498
35.000000	96.612	8.4917
35.500000	96.625	7.8957
36.000000	96.631	7.2751
36.500000	96.628	6.6792
37.000000	96.624	6.1396
37.500000	96.626	5.6362
38.200001	96.634	4.9134
38.700001	96.640	4.3701
39.500000	96.641	3.5171
40.000000	96.641	3.0084
40.599998	96.641	2.4090
41.200001	96.637	1.8237
41.799999	96.630	1.2690
42.500000	96.624	0.6499
43.099998	96.620	0.1171
43.700001	96.613	-0.4170
44.400002	96.604	-1.0300
45.000000	96.598	-1.5596
45.500000	96.592	-2.0142
46.200001	96.578	-2.6505
46.799999	96.563	-3.1638
47.500000	96.548	-3.7243
48.200001	96.537	-4.2804
48.700001	96.528	-4.6831
49.400002	96.514	-5.2354
50.000000	96.501	-5.6868
50.799999	96.486	-6.2775
51.500000	96.472	-6.8035
52.200001	96.454	-7.3264
53.000000	96.431	-7.9050
53.799999	96.407	-8.4693
54.500000	96.384	-8.9479
55.200001	96.363	-9.4159
56.000000	96.339	-9.9599
57.000000	96.304	-10.6439
58.000000	96.264	-11.3095
59.000000	96.219	-11.9304
60.000000	96.180	-12.4759
60.799999	96.157	-12.9360
61.500000	96.135	-13.3673
62.200001	96.111	-13.7874
63.000000	96.085	-14.2537
64.000000	96.053	-14.8527
65.000000	96.015	-15.4423
66.000000	95.975	-15.9925
67.000000	95.936	-16.5184
68.000000	95.897	-17.0386
69.000000	95.857	-17.5505
70.000000	95.817	-18.0579
71.000000	95.776	-18.5551
72.000000	95.736	-19.0471
73.000000	95.693	-19.5288
74.000000	95.651	-19.9837
75.000000	95.610	-20.4346
76.199997	95.558	-20.9643
77.500000	95.501	-21.5219
78.800003	95.444	-22.0681
80.000000	95.391	-22.5639
81.199997	95.337	-23.0449
82.500000	95.281	-23.5560
83.800003	95.223	-24.0578
85.000000	95.171	-24.5156
86.199997	95.116	-24.9704
87.500000	95.057	-25.4439
88.500000	95.011	-25.7934
90.000000	94.943	-26.3045
91.199997	94.889	-26.7126
92.500000	94.830	-27.1384
93.800003	94.770	-27.5565
95.000000	94.716	-27.9325
96.199997	94.662	-28.3030
97.500000	94.603	-28.6912
98.800003	94.546	-29.0663
100.000000	94.492	-29.4056
101.500000	94.425	-29.8195
103.000000	94.358	-30.2272
104.400002	94.295	-30.6008
106.000000	94.225	-31.0134
107.500000	94.159	-31.3932
109.000000	94.093	-31.7645
110.599998	94.020	-32.1409
112.000000	93.958	-32.4673
113.800003	93.878	-32.8775
115.000000	93.828	-33.1452
117.199997	93.738	-33.5982
118.000000	93.707	-33.7516
120.599998	93.602	-34.3018
122.000000	93.533	-34.5836
124.099998	93.433	-34.9612
125.000000	93.392	-35.1281
126.500000	93.326	-35.4098
128.000000	93.262	-35.6876
131.500000	93.117	-36.2681
132.000000	93.096	-36.3473
134.000000	93.012	-36.6578
136.000000	92.928	-36.9607
138.000000	92.845	-37.2565
140.000000	92.763	-37.5506
143.000000	92.639	-37.9799
145.000000	92.556	-38.2451
147.500000	92.453	-38.5582
150.000000	92.354	-38.8697
152.500000	92.258	-39.1768
155.000000	92.159	-39.4642
157.500000	92.058	-39.7153
160.000000	91.957	-39.9556
162.500000	91.859	-40.1893
165.000000	91.764	-40.4267
167.500000	91.668	-40.6589
170.000000	91.575	-40.8670
172.500000	91.482	-41.0559
175.000000	91.386	-41.2404
177.500000	91.289	-41.4231
180.000000	91.194	-41.5957
182.500000	91.104	-41.7624
185.000000	91.014	-41.9166
187.500000	90.923	-42.0589
190.000000	90.832	-42.2056
192.500000	90.741	-42.3558
195.000000	90.652	-42.4853
197.500000	90.566	-42.5953
200.000000	90.479	-42.6972
203.000000	90.374	-42.8315
206.000000	90.269	-42.9724
209.000000	90.167	-43.0817
212.000000	90.067	-43.1690
214.000000	90.000	-43.2202
218.000000	89.868	-43.3166
220.000000	89.803	-43.3566
224.000000	89.673	-43.3995
227.000000	89.575	-43.4274
230.000000	89.472	-43.4725
233.000000	89.369	-43.5006
236.000000	89.267	-43.4696
240.000000	89.131	-43.3949
243.000000	89.033	-43.3987
247.000000	88.906	-43.4173
250.000000	88.808	-43.3838
254.000000	88.672	-43.2671
258.000000	88.533	-43.0910
262.000000	88.399	-42.8433
265.000000	88.304	-42.5921
269.000000	88.191	-42.1579
272.000000	88.117	-41.7777
276.000000	88.039	-41.2574
280.000000	87.979	-40.8597
285.000000	87.908	-40.6429
290.000000	87.811	-40.6185
295.000000	87.673	-40.5342
300.000000	87.509	-40.1731
304.000000	87.378	-39.6900
307.000000	87.282	-39.1588
311.000000	87.165	-38.1434
315.000000	87.091	-36.8580
320.000000	87.113	-35.1416
325.000000	87.279	-33.9392
330.000000	87.513	-33.7237
335.000000	87.692	-34.4476
340.000000	87.767	-35.6061
345.000000	87.747	-36.8154
350.000000	87.664	-37.7664
355.000000	87.550	-38.4648
360.000000	87.423	-38.9200
365.000000	87.289	-39.2841
370.000000	87.157	-39.4935
375.000000	87.032	-39.6148
382.000000	86.862	-39.6504
387.000000	86.748	-39.6243
395.000000	86.571	-39.5259
400.000000	86.468	-39.4194
406.000000	86.344	-39.2839
412.000000	86.223	-39.0727
418.000000	86.114	-38.8869
425.000000	85.981	-38.6601
431.000000	85.878	-38.4189
437.000000	85.776	-38.2157
444.000000	85.657	-37.9165
450.000000	85.561	-37.6470
455.000000	85.483	-37.4359
462.000000	85.374	-37.1269
468.000000	85.283	-36.8241
475.000000	85.182	-36.4208
482.000000	85.088	-36.0569
487.000000	85.019	-35.8416
494.000000	84.919	-35.5114
500.000000	84.838	-35.1765
508.000000	84.737	-34.7314
515.000000	84.651	-34.3639
522.000000	84.565	-33.9897
530.000000	84.469	-33.5445
538.000000	84.374	-33.0903
545.000000	84.292	-32.6913
552.000000	84.213	-32.2873
560.000000	84.125	-31.8107
570.000000	84.017	-31.2235
580.000000	83.909	-30.6295
590.000000	83.806	-30.0183
600.000000	83.704	-29.4016
608.000000	83.630	-28.9124
615.000000	83.570	-28.4736
622.000000	83.510	-28.0219
630.000000	83.441	-27.4946
640.000000	83.356	-26.8404
650.000000	83.275	-26.2024
660.000000	83.200	-25.5580
670.000000	83.130	-24.9046
680.000000	83.060	-24.2512
690.000000	82.993	-23.5791
700.000000	82.930	-22.9241
710.000000	82.871	-22.2711
720.000000	82.815	-21.6118
730.000000	82.760	-20.9627
740.000000	82.708	-20.3058
750.000000	82.659	-19.6390
762.000000	82.606	-18.8443
775.000000	82.553	-17.9684
788.000000	82.503	-17.0905
800.000000	82.460	-16.2908
812.000000	82.422	-15.4932
825.000000	82.384	-14.6295
838.000000	82.351	-13.7697
850.000000	82.325	-13.0101
862.000000	82.300	-12.2745
875.000000	82.277	-11.5024
885.000000	82.261	-10.9146
900.000000	82.242	-10.0498
912.000000	82.229	-9.3773
925.000000	82.218	-8.6609
938.000000	82.211	-7.9621
950.000000	82.205	-7.3351
962.000000	82.199	-6.7164
975.000000	82.193	-6.0487
988.000000	82.191	-5.3979
1000.000000	82.193	-4.8037
1015.000000	82.197	-4.0572
1030.000000	82.200	-3.3296
1044.000000	82.203	-2.6817
1060.000000	82.209	-1.9582
1075.000000	82.214	-1.2784
1090.000000	82.218	-0.6167
1106.000000	82.220	0.0737
1120.000000	82.222	0.6882
1138.000000	82.225	1.4786
1150.000000	82.227	1.9819
1172.000000	82.236	2.8910
1180.000000	82.240	3.2221
1206.000000	82.262	4.3328
1220.000000	82.282	4.9410
1241.000000	82.321	5.8575
1250.000000	82.340	6.2650
1265.000000	82.377	6.9629
1280.000000	82.420	7.6729
1315.000000	82.538	9.3762
1320.000000	82.557	9.6214
1340.000000	82.641	10.5901
1360.000000	82.740	11.5162
1380.000000	82.854	12.3760
1400.000000	82.979	13.1650
1430.000000	83.171	14.2067
1450.000000	83.298	14.8152
1475.000000	83.458	15.5032
1500.000000	83.616	16.1320
1525.000000	83.772	16.7000
1550.000000	83.915	17.2204
1575.000000	84.052	17.6863
1600.000000	84.186	18.1073
1625.000000	84.319	18.5127
1650.000000	84.449	18.9029
1675.000000	84.576	19.2772
1700.000000	84.701	19.6470
1725.000000	84.824	19.9932
1750.000000	84.947	20.3260
1775.000000	85.069	20.6564
1800.000000	85.191	20.9833
1825.000000	85.313	21.2999
1850.000000	85.436	21.5919
1875.000000	85.559	21.8631
1900.000000	85.681	22.1181
1925.000000	85.805	22.3581
1950.000000	85.929	22.5808
1975.000000	86.055	22.7903
2000.000000	86.182	22.9929
2030.000000	86.338	23.2222
2060.000000	86.495	23.4312
2090.000000	86.653	23.6204
2120.000000	86.814	23.7976
2140.000000	86.924	23.9071
2180.000000	87.147	24.1068
2200.000000	87.260	24.1926
2240.000000	87.489	24.3193
2270.000000	87.663	24.3697
2300.000000	87.841	24.3820
2330.000000	88.022	24.3556
2360.000000	88.206	24.2815
2400.000000	88.455	24.0968
2430.000000	88.643	23.8866
2470.000000	88.895	23.5032
2500.000000	89.084	23.1469
2540.000000	89.337	22.5929
2580.000000	89.588	21.9500
2620.000000	89.837	21.2144
2650.000000	90.020	20.5946
2690.000000	90.258	19.6855
2720.000000	90.430	18.9595
2760.000000	90.654	17.9387
2800.000000	90.870	16.8509
2850.000000	91.122	15.3882
2900.000000	91.354	13.8051
2950.000000	91.565	12.1242
3000.000000	91.753	10.3677
3040.000000	91.887	8.9178
3070.000000	91.978	7.8081
3110.000000	92.086	6.3013
3150.000000	92.177	4.7696
3200.000000	92.271	2.8474
3250.000000	92.344	0.9571
3300.000000	92.398	-0.8730
3350.000000	92.433	-2.6255
3400.000000	92.453	-4.2874
3450.000000	92.458	-5.8529
3500.000000	92.453	-7.3101
3550.000000	92.441	-8.6348
3600.000000	92.423	-9.8243
3650.000000	92.401	-10.8997
3700.000000	92.377	-11.8782
3750.000000	92.354	-12.7659
3820.000000	92.325	-13.8658
3870.000000	92.307	-14.5559
3950.000000	92.287	-15.5196
4000.000000	92.284	-16.0644
4060.000000	92.291	-16.6911
4120.000000	92.311	-17.2854
4180.000000	92.346	-17.8309
4250.000000	92.405	-18.4093
4310.000000	92.472	-18.8607
4370.000000	92.556	-19.2690
4440.000000	92.677	-19.6822
4500.000000	92.804	-19.9658
4550.000000	92.935	-20.1510
4620.000000	93.165	-20.3849
4680.000000	93.411	-20.6748
4750.000000	93.744	-21.2817
4820.000000	94.111	-22.2864
4870.000000	94.383	-23.2647
4940.000000	94.766	-24.9886
5000.000000	95.095	-26.7924
5080.000000	95.526	-29.6744
5150.000000	95.888	-32.6695
5220.000000	96.220	-36.1388
5300.000000	96.547	-40.6651
5380.000000	96.798	-45.6917
5450.000000	96.936	-50.3926
5520.000000	96.988	-55.2644
5600.000000	96.935	-60.8739
5700.000000	96.709	-67.6421
5800.000000	96.331	-73.8030
5900.000000	95.845	-79.0873
6000.000000	95.302	-83.3875
6080.000000	94.854	-86.1709
6150.000000	94.469	-88.1864
6220.000000	94.100	-89.8568
6300.000000	93.702	-91.3935
6400.000000	93.250	-92.8418
6500.000000	92.857	-93.8774
6600.000000	92.533	-94.6044
6700.000000	92.287	-95.1495
6800.000000	92.120	-95.6455
6900.000000	92.028	-96.2093
7000.000000	92.005	-96.9361
7100.000000	92.049	-97.9218
7200.000000	92.154	-99.2802
7300.000000	92.308	-101.1273
7400.000000	92.492	-103.5665
7500.000000	92.685	-106.6943
7620.000000	92.889	-111.4941
7750.000000	93.004	-118.0418
7880.000000	92.940	-125.7629
8000.000000	92.669	-133.5288
8120.000000	92.159	-141.3489
8250.000000	91.343	-149.1449
8380.000000	90.310	-155.6292
8500.000000	89.239	-160.2180
8620.000000	88.125	-163.4987
8750.000000	86.929	-165.7589
8850.000000	86.042	-166.7364
9000.000000	84.793	-167.2171
9120.000000	83.873	-166.9305
9250.000000	82.957	-166.1130
9380.000000	82.125	-164.8826
9500.000000	81.432	-163.4606
9620.000000	80.811	-161.8273
9750.000000	80.219	-159.8508
9880.000000	79.711	-157.6614
10000.000000	79.310	-155.4786
10150.000000	78.890	-152.6275
10300.000000	78.551	-149.7215
10440.000000	78.307	-147.0009
10600.000000	78.115	-143.9067
10750.000000	78.023	-141.0153
10900.000000	78.015	-138.1401
11060.000000	78.105	-135.1279
11200.000000	78.269	-132.5461
11380.000000	78.609	-129.3583
11500.000000	78.928	-127.3429
11720.000000	79.733	-123.9751
11800.000000	80.103	-122.9036
12060.000000	81.651	-120.3223
12200.000000	82.753	-119.8068
12410.000000	84.856	-121.1500
12500.000000	85.929	-123.0043
12650.000000	87.854	-128.9551
12800.000000	89.669	-140.1089
13150.000000	91.119	174.3450
13200.000000	90.887	167.6544
13400.000000	89.134	146.8009
13600.000000	86.833	135.6987
13800.000000	84.783	130.7462
14000.000000	83.254	128.7817
14300.000000	81.864	128.1138
14500.000000	81.450	128.1404
14750.000000	81.467	127.9093
15000.000000	82.125	126.6023
15250.000000	83.597	122.8060
15500.000000	85.942	113.0959
15750.000000	88.255	90.7185
16000.000000	88.832	54.2211
16250.000000	86.918	20.2733
16500.000000	83.440	1.3757
16750.000000	79.891	-6.9240
17000.000000	77.044	-10.8504
17250.000000	74.907	-13.2883
17500.000000	73.304	-15.3883
17750.000000	72.095	-17.6742
18000.000000	71.186	-20.4795
18250.000000	70.533	-24.1736
18500.000000	70.116	-29.2167
18750.000000	69.903	-36.2074
19000.000000	69.844	-45.9569
19250.000000	69.808	-59.3784
19500.000000	69.622	-76.8215
19750.000000	69.277	-95.8531
20000.000000	69.024	-108.0114
