* Measurement data measured by REW V5.20.13
* Source: EXCL: Mic in at rear panel (Pink)(Realtek(R) Audio), MICROPHONE (마스), L, volume: 1.000
* Format: 256k Log Swept Sine, 1 sweep at -12.0 dBFS with no timing reference
* Dated: 2022. 12. 30 오후 4:34:26
* REW Settings:
*  C-weighting compensation: Off
*  Target level: 75.0 dB
* Note: 
* Measurement: 12월 30
* Smoothing: 1/24 octave
* Frequency Step: 1/48 octave
* Start Frequency: 20.300 Hz
*
* Freq(Hz)	SPL(dB)	Phase(degrees)
20.299999	78.423	-119.1717
20.600000	78.453	-119.6571
20.900000	78.507	-120.4047
21.200001	78.551	-120.8068
21.400000	78.588	-120.9342
21.799999	78.700	-121.1397
22.000000	78.774	-121.3488
22.400000	78.925	-122.1358
22.700001	79.011	-123.0062
23.000000	79.054	-123.9596
23.299999	79.056	-124.7898
23.600000	79.039	-125.3585
24.000000	79.035	-125.6420
24.299999	79.083	-125.6263
24.700001	79.229	-125.6379
25.000000	79.381	-125.9089
25.400000	79.588	-126.7549
25.799999	79.743	-127.9894
26.200001	79.824	-129.2249
26.500000	79.851	-129.9347
26.900000	79.877	-130.4902
27.200001	79.915	-130.6893
27.600000	80.004	-130.8821
28.000000	80.118	-131.2148
28.500000	80.245	-131.8547
29.000000	80.333	-132.4349
29.500000	80.419	-132.7523
30.000000	80.544	-133.0003
30.400000	80.663	-133.3631
30.700001	80.747	-133.7596
31.100000	80.839	-134.3588
31.500000	80.911	-134.9136
32.000000	81.000	-135.4766
32.500000	81.107	-136.0365
33.000000	81.214	-136.7437
33.500000	81.293	-137.5076
34.000000	81.345	-138.0907
34.500000	81.405	-138.4036
35.000000	81.502	-138.6045
35.500000	81.633	-138.9573
36.000000	81.764	-139.6116
36.500000	81.859	-140.5247
37.000000	81.894	-141.4765
37.500000	81.880	-142.1849
38.200001	81.860	-142.5219
38.700001	81.908	-142.5633
39.500000	82.057	-143.2581
40.000000	82.112	-144.0979
40.599998	82.114	-145.0032
41.200001	82.110	-145.4837
41.799999	82.158	-145.8003
42.500000	82.256	-146.4278
43.099998	82.327	-147.1711
43.700001	82.377	-147.8904
44.400002	82.429	-148.6001
45.000000	82.479	-149.1299
45.500000	82.528	-149.5513
46.200001	82.605	-150.1774
46.799999	82.674	-150.8155
47.500000	82.738	-151.6800
48.200001	82.773	-152.5309
48.700001	82.789	-153.0383
49.400002	82.821	-153.6089
50.000000	82.865	-154.0888
50.799999	82.924	-154.8342
51.500000	82.957	-155.4633
52.200001	82.988	-155.9273
53.000000	83.049	-156.3395
53.799999	83.134	-156.8779
54.500000	83.198	-157.5253
55.200001	83.234	-158.2174
56.000000	83.258	-158.8936
57.000000	83.304	-159.6336
58.000000	83.355	-160.5688
59.000000	83.364	-161.5739
60.000000	83.363	-162.3139
60.799999	83.391	-162.8719
61.500000	83.424	-163.4920
62.200001	83.442	-164.2006
63.000000	83.440	-164.9756
64.000000	83.426	-165.7408
65.000000	83.434	-166.3696
66.000000	83.450	-167.0619
67.000000	83.451	-167.6776
68.000000	83.465	-168.1446
69.000000	83.498	-168.6428
70.000000	83.532	-169.2551
71.000000	83.544	-169.9511
72.000000	83.536	-170.4939
73.000000	83.553	-170.9356
74.000000	83.582	-171.5460
75.000000	83.595	-172.2391
76.199997	83.600	-173.0663
77.500000	83.597	-173.9011
78.800003	83.601	-174.6872
80.000000	83.608	-175.4205
81.199997	83.614	-176.1609
82.500000	83.614	-176.9077
83.800003	83.617	-177.5557
85.000000	83.621	-178.1503
86.199997	83.615	-178.7611
87.500000	83.597	-179.3886
88.500000	83.580	-179.8496
90.000000	83.566	179.4349
91.199997	83.559	178.7512
92.500000	83.543	178.0237
93.800003	83.537	177.4062
95.000000	83.542	176.8442
96.199997	83.540	176.3068
97.500000	83.535	175.7921
98.800003	83.525	175.3019
100.000000	83.510	174.8754
101.500000	83.486	174.4011
103.000000	83.462	173.9178
104.400002	83.425	173.3738
106.000000	83.364	172.7212
107.500000	83.316	172.0370
109.000000	83.286	171.2710
110.599998	83.275	170.4674
112.000000	83.274	169.8947
113.800003	83.271	169.3398
115.000000	83.250	169.0069
117.199997	83.166	168.3118
118.000000	83.127	168.0291
120.599998	83.055	167.1624
122.000000	83.061	166.6158
124.099998	83.060	165.8735
125.000000	83.052	165.6216
126.500000	83.026	165.2177
128.000000	82.987	164.7910
131.500000	82.895	163.7367
132.000000	82.882	163.5908
134.000000	82.828	163.0692
136.000000	82.780	162.5452
138.000000	82.740	161.8768
140.000000	82.701	161.1733
143.000000	82.643	160.4988
145.000000	82.605	160.2606
147.500000	82.566	159.8683
150.000000	82.518	159.2423
152.500000	82.448	158.5914
155.000000	82.367	158.0341
157.500000	82.297	157.4424
160.000000	82.232	156.8205
162.500000	82.159	156.2898
165.000000	82.082	155.8738
167.500000	82.014	155.4756
170.000000	81.954	155.0334
172.500000	81.890	154.5878
175.000000	81.824	154.1326
177.500000	81.755	153.6468
180.000000	81.691	153.2126
182.500000	81.628	152.8262
185.000000	81.552	152.4584
187.500000	81.468	152.0922
190.000000	81.391	151.7463
192.500000	81.325	151.4366
195.000000	81.253	151.1236
197.500000	81.164	150.7879
200.000000	81.074	150.4858
203.000000	80.983	150.1899
206.000000	80.893	149.8737
209.000000	80.780	149.5943
212.000000	80.670	149.4774
214.000000	80.603	149.4877
218.000000	80.468	149.6484
220.000000	80.402	149.7766
224.000000	80.285	150.2590
227.000000	80.233	150.7266
230.000000	80.228	151.0993
233.000000	80.268	151.2627
236.000000	80.316	151.1308
240.000000	80.362	150.6564
243.000000	80.380	150.2662
247.000000	80.359	149.7068
250.000000	80.317	149.2000
254.000000	80.256	148.5488
258.000000	80.185	148.0570
262.000000	80.096	147.6179
265.000000	80.033	147.3462
269.000000	79.962	147.1320
272.000000	79.912	146.9553
276.000000	79.831	146.5916
280.000000	79.741	146.2220
285.000000	79.643	145.9437
290.000000	79.553	145.7014
295.000000	79.459	145.3604
300.000000	79.370	145.0590
304.000000	79.302	144.8616
307.000000	79.247	144.7653
311.000000	79.177	144.6444
315.000000	79.108	144.5073
320.000000	79.025	144.3350
325.000000	78.943	144.2439
330.000000	78.847	144.2108
335.000000	78.751	144.2020
340.000000	78.668	144.1749
345.000000	78.581	144.0941
350.000000	78.497	144.0836
355.000000	78.425	144.0917
360.000000	78.343	144.0400
365.000000	78.260	143.9699
370.000000	78.175	143.9158
375.000000	78.082	143.9666
382.000000	77.966	144.0164
387.000000	77.892	144.0869
395.000000	77.783	144.1945
400.000000	77.713	144.2364
406.000000	77.618	144.2236
412.000000	77.527	144.2340
418.000000	77.445	144.2800
425.000000	77.361	144.3696
431.000000	77.284	144.5447
437.000000	77.200	144.6829
444.000000	77.107	144.7322
450.000000	77.028	144.8054
455.000000	76.963	144.9354
462.000000	76.879	145.2050
468.000000	76.811	145.4199
475.000000	76.733	145.6097
482.000000	76.654	145.7638
487.000000	76.597	145.8615
494.000000	76.516	146.0287
500.000000	76.451	146.2002
508.000000	76.364	146.4406
515.000000	76.291	146.7172
522.000000	76.218	147.0214
530.000000	76.149	147.3293
538.000000	76.097	147.7165
545.000000	76.044	147.9871
552.000000	75.978	148.2194
560.000000	75.898	148.5632
570.000000	75.799	149.0349
580.000000	75.704	149.5056
590.000000	75.620	150.0202
600.000000	75.548	150.5381
608.000000	75.485	150.8950
615.000000	75.427	151.2241
622.000000	75.371	151.5412
630.000000	75.313	151.9387
640.000000	75.247	152.5656
650.000000	75.179	153.0051
660.000000	75.115	153.3725
670.000000	75.063	153.9869
680.000000	74.989	154.5558
690.000000	74.926	155.0715
700.000000	74.874	155.6787
710.000000	74.820	156.3853
720.000000	74.768	157.0510
730.000000	74.723	157.6833
740.000000	74.684	158.3074
750.000000	74.640	158.9134
762.000000	74.587	159.7197
775.000000	74.541	160.5515
788.000000	74.529	161.2390
800.000000	74.523	161.9633
812.000000	74.501	162.7546
825.000000	74.469	163.5775
838.000000	74.458	164.3444
850.000000	74.453	165.0139
862.000000	74.438	165.7758
875.000000	74.427	166.6772
885.000000	74.429	167.3512
900.000000	74.430	168.2386
912.000000	74.426	168.8742
925.000000	74.416	169.6621
938.000000	74.410	170.5590
950.000000	74.416	171.4030
962.000000	74.422	172.2416
975.000000	74.441	173.2881
988.000000	74.491	174.5384
1000.000000	74.544	175.8154
1015.000000	74.617	177.2916
1030.000000	74.750	178.5667
1044.000000	74.908	179.5309
1060.000000	75.112	-179.6190
1075.000000	75.308	-179.0533
1090.000000	75.483	-178.6472
1106.000000	75.658	-178.3457
1120.000000	75.811	-178.1691
1138.000000	75.997	-178.0769
1150.000000	76.112	-178.0933
1172.000000	76.294	-178.1426
1180.000000	76.358	-178.1628
1206.000000	76.559	-178.2668
1220.000000	76.663	-178.3531
1241.000000	76.797	-178.4344
1250.000000	76.849	-178.4371
1265.000000	76.937	-178.4781
1280.000000	77.027	-178.5776
1315.000000	77.219	-178.8423
1320.000000	77.243	-178.8825
1340.000000	77.335	-179.0182
1360.000000	77.427	-179.0691
1380.000000	77.508	-179.1111
1400.000000	77.594	-179.1461
1430.000000	77.729	-179.2055
1450.000000	77.816	-179.2934
1475.000000	77.915	-179.3386
1500.000000	78.009	-179.3062
1525.000000	78.109	-179.3096
1550.000000	78.210	-179.3358
1575.000000	78.308	-179.3297
1600.000000	78.409	-179.2874
1625.000000	78.521	-179.2348
1650.000000	78.629	-179.2524
1675.000000	78.727	-179.2249
1700.000000	78.834	-179.1499
1725.000000	78.937	-179.1044
1750.000000	79.043	-179.0956
1775.000000	79.152	-179.0855
1800.000000	79.260	-179.1244
1825.000000	79.372	-179.1659
1850.000000	79.487	-179.1781
1875.000000	79.599	-179.1975
1900.000000	79.710	-179.2471
1925.000000	79.829	-179.3492
1950.000000	79.953	-179.4583
1975.000000	80.076	-179.5475
2000.000000	80.195	-179.6884
2030.000000	80.339	-179.8839
2060.000000	80.488	179.8909
2090.000000	80.637	179.5977
2120.000000	80.786	179.2836
2140.000000	80.887	179.0643
2180.000000	81.087	178.5679
2200.000000	81.184	178.2698
2240.000000	81.379	177.5847
2270.000000	81.522	177.0775
2300.000000	81.660	176.5547
2330.000000	81.792	175.9710
2360.000000	81.921	175.3336
2400.000000	82.083	174.4393
2430.000000	82.198	173.7199
2470.000000	82.349	172.7105
2500.000000	82.455	171.9232
2540.000000	82.584	170.8443
2580.000000	82.699	169.7612
2620.000000	82.801	168.6735
2650.000000	82.871	167.8744
2690.000000	82.957	166.8695
2720.000000	83.020	166.1689
2760.000000	83.112	165.2624
2800.000000	83.219	164.3198
2850.000000	83.373	162.9691
2900.000000	83.516	161.2937
2950.000000	83.616	159.3131
3000.000000	83.664	157.2234
3040.000000	83.664	155.5980
3070.000000	83.645	154.4577
3110.000000	83.603	153.0260
3150.000000	83.546	151.6981
3200.000000	83.455	150.1952
3250.000000	83.353	148.8256
3300.000000	83.244	147.5878
3350.000000	83.128	146.4775
3400.000000	83.007	145.4728
3450.000000	82.890	144.6001
3500.000000	82.774	143.8141
3550.000000	82.662	143.1089
3600.000000	82.550	142.5127
3650.000000	82.438	142.0214
3700.000000	82.329	141.6215
3750.000000	82.224	141.2937
3820.000000	82.075	140.9399
3870.000000	81.970	140.7361
3950.000000	81.805	140.4962
4000.000000	81.705	140.4232
4060.000000	81.589	140.3827
4120.000000	81.483	140.3789
4180.000000	81.383	140.4060
4250.000000	81.267	140.4770
4310.000000	81.171	140.5763
4370.000000	81.068	140.6912
4440.000000	80.937	140.8083
4500.000000	80.819	140.8851
4550.000000	80.717	140.9556
4620.000000	80.558	141.1627
4680.000000	80.409	141.4920
4750.000000	80.234	142.1135
4820.000000	80.076	142.9859
4870.000000	79.979	143.7040
4940.000000	79.875	144.7849
5000.000000	79.814	145.6957
5080.000000	79.760	146.8427
5150.000000	79.731	147.7938
5220.000000	79.711	148.6784
5300.000000	79.700	149.5948
5380.000000	79.701	150.4623
5450.000000	79.706	151.1891
5520.000000	79.714	151.8844
5600.000000	79.736	152.6432
5700.000000	79.781	153.4875
5800.000000	79.834	154.2092
5900.000000	79.899	154.8076
6000.000000	79.961	155.2727
6080.000000	80.005	155.5257
6150.000000	80.039	155.6907
6220.000000	80.069	155.8224
6300.000000	80.098	155.9071
6400.000000	80.120	155.9449
6500.000000	80.119	156.0125
6600.000000	80.108	156.1574
6700.000000	80.099	156.3158
6800.000000	80.095	156.4536
6900.000000	80.109	156.6130
7000.000000	80.149	156.7374
7100.000000	80.198	156.7909
7200.000000	80.241	156.7371
7300.000000	80.267	156.5894
7400.000000	80.269	156.4330
7500.000000	80.248	156.2896
7620.000000	80.220	156.0974
7750.000000	80.184	156.0466
7880.000000	80.071	156.1417
8000.000000	79.922	156.3398
8120.000000	79.758	156.6927
8250.000000	79.572	157.2253
8380.000000	79.379	157.9163
8500.000000	79.202	158.6967
8620.000000	79.029	159.6075
8750.000000	78.840	160.7199
8850.000000	78.697	161.6661
9000.000000	78.494	163.2220
9120.000000	78.352	164.5345
9250.000000	78.224	165.9979
9380.000000	78.114	167.5086
9500.000000	78.038	168.8984
9620.000000	77.986	170.2388
9750.000000	77.957	171.6623
9880.000000	77.963	173.0075
10000.000000	77.993	174.0582
10150.000000	78.047	175.1232
10300.000000	78.121	175.8458
10440.000000	78.197	176.1104
10600.000000	78.274	175.9612
10750.000000	78.318	175.3275
10900.000000	78.305	174.1565
11060.000000	78.189	172.4257
11200.000000	77.965	170.7834
11380.000000	77.509	169.1194
11500.000000	77.145	168.4658
11720.000000	76.451	167.9058
11800.000000	76.192	167.8568
12060.000000	75.304	168.2729
12200.000000	74.791	168.7944
12410.000000	73.958	170.0191
12500.000000	73.582	170.7398
12650.000000	72.944	172.2327
12800.000000	72.300	174.1041
13150.000000	70.872	179.7589
13200.000000	70.684	-179.3025
13400.000000	69.966	-175.3441
13600.000000	69.314	-171.1407
13800.000000	68.757	-166.7685
14000.000000	68.289	-162.4845
14300.000000	67.721	-156.6476
14500.000000	67.364	-153.3447
14750.000000	66.871	-150.0915
15000.000000	66.268	-147.3731
15250.000000	65.517	-144.4903
15500.000000	64.658	-140.9458
15750.000000	63.774	-136.4156
16000.000000	62.903	-130.7355
16250.000000	62.093	-124.1207
16500.000000	61.318	-116.9831
16750.000000	60.605	-109.3325
17000.000000	60.019	-101.2689
17250.000000	59.527	-93.1616
17500.000000	59.115	-84.8995
17750.000000	58.802	-76.5851
18000.000000	58.549	-68.3097
18250.000000	58.331	-59.9180
18500.000000	58.170	-51.4804
18750.000000	58.097	-43.0702
19000.000000	58.172	-34.4519
19250.000000	58.450	-26.4570
19500.000000	58.940	-19.9880
19750.000000	59.505	-15.5827
20000.000000	59.874	-13.7431
