* Measurement data measured by REW V5.20.13
* Source: Input device not selected, no input selected, L, volume: no control
* Format: 256k Log Swept Sine, 1 sweep at -12.0 dBFS with no timing reference
* Dated: 2022. 10. 1 ¿ÀÈÄ 7:20:07
* REW Settings:
*  C-weighting compensation: Off
*  Target level: 75.0 dB
* Note: 
* Measurement: R_8k
* Smoothing: 1/24 octave
* Frequency Step: 1/48 octave
* Start Frequency: 20.300 Hz
*
* Freq(Hz)	SPL(dB)	Phase(degrees)
20.299999	79.597	-127.1050
20.600000	79.636	-127.4271
20.900000	79.713	-127.9917
21.200001	79.785	-128.5069
21.400000	79.831	-128.8415
21.799999	79.920	-129.5532
22.000000	79.962	-129.9470
22.400000	80.039	-130.7941
22.700001	80.087	-131.4508
23.000000	80.131	-132.1010
23.299999	80.174	-132.7344
23.600000	80.219	-133.3548
24.000000	80.283	-134.1782
24.299999	80.334	-134.8057
24.700001	80.404	-135.6577
25.000000	80.456	-136.2971
25.400000	80.523	-137.1282
25.799999	80.589	-137.9154
26.200001	80.656	-138.6543
26.500000	80.707	-139.1826
26.900000	80.777	-139.8639
27.200001	80.830	-140.3661
27.600000	80.899	-141.0321
28.000000	80.962	-141.6971
28.500000	81.032	-142.5178
29.000000	81.090	-143.3052
29.500000	81.139	-144.0506
30.000000	81.183	-144.7738
30.400000	81.214	-145.3542
30.700001	81.234	-145.7908
31.100000	81.257	-146.3613
31.500000	81.278	-146.9034
32.000000	81.308	-147.5446
32.500000	81.349	-148.1993
33.000000	81.396	-148.9328
33.500000	81.436	-149.7437
34.000000	81.465	-150.5576
34.500000	81.487	-151.3017
35.000000	81.512	-151.9721
35.500000	81.544	-152.6156
36.000000	81.579	-153.2654
36.500000	81.611	-153.9129
37.000000	81.640	-154.5370
37.500000	81.667	-155.1375
38.200001	81.702	-155.9631
38.700001	81.721	-156.5447
39.500000	81.744	-157.4445
40.000000	81.754	-157.9892
40.599998	81.762	-158.6211
41.200001	81.770	-159.2182
41.799999	81.783	-159.8006
42.500000	81.803	-160.5180
43.099998	81.816	-161.1667
43.700001	81.823	-161.7971
44.400002	81.832	-162.4886
45.000000	81.843	-163.0765
45.500000	81.850	-163.5739
46.200001	81.853	-164.2514
46.799999	81.854	-164.7933
47.500000	81.856	-165.4039
48.200001	81.856	-166.0179
48.700001	81.854	-166.4523
49.400002	81.848	-167.0380
50.000000	81.843	-167.5203
50.799999	81.839	-168.1569
51.500000	81.838	-168.7300
52.200001	81.835	-169.3223
53.000000	81.827	-169.9918
53.799999	81.815	-170.6159
54.500000	81.806	-171.1193
55.200001	81.801	-171.5935
56.000000	81.803	-172.1329
57.000000	81.806	-172.8595
58.000000	81.799	-173.6017
59.000000	81.783	-174.3036
60.000000	81.761	-174.9829
60.799999	81.735	-175.4791
61.500000	81.713	-175.8584
62.200001	81.696	-176.2150
63.000000	81.681	-176.6503
64.000000	81.659	-177.2431
65.000000	81.629	-177.8103
66.000000	81.601	-178.3328
67.000000	81.578	-178.8505
68.000000	81.555	-179.3658
69.000000	81.530	-179.8592
70.000000	81.504	179.6641
71.000000	81.477	179.1972
72.000000	81.449	178.7142
73.000000	81.416	178.2174
74.000000	81.378	177.7252
75.000000	81.338	177.2740
76.199997	81.301	176.7808
77.500000	81.268	176.1785
78.800003	81.226	175.6089
80.000000	81.189	175.1373
81.199997	81.153	174.6681
82.500000	81.107	174.1646
83.800003	81.055	173.7187
85.000000	81.011	173.3434
86.199997	80.969	172.9404
87.500000	80.920	172.4705
88.500000	80.878	172.1157
90.000000	80.822	171.6266
91.199997	80.786	171.2154
92.500000	80.745	170.7555
93.800003	80.699	170.3756
95.000000	80.661	170.1014
96.199997	80.627	169.8385
97.500000	80.585	169.5135
98.800003	80.530	169.1757
100.000000	80.471	168.8900
101.500000	80.394	168.5863
103.000000	80.325	168.2975
104.400002	80.267	168.0043
106.000000	80.207	167.6447
107.500000	80.155	167.3394
109.000000	80.104	167.1014
110.599998	80.041	166.9052
112.000000	79.971	166.7473
113.800003	79.866	166.4753
115.000000	79.801	166.1809
117.199997	79.724	165.3340
118.000000	79.706	164.9070
120.599998	79.539	164.1402
122.000000	79.469	164.6246
124.099998	79.416	165.2067
125.000000	79.380	165.3395
126.500000	79.307	165.4987
128.000000	79.240	165.6035
131.500000	79.123	165.9662
132.000000	79.109	166.0662
134.000000	79.060	166.5414
136.000000	79.040	167.0052
138.000000	79.061	167.2983
140.000000	79.111	167.4156
143.000000	79.185	167.2387
145.000000	79.211	166.9221
147.500000	79.227	166.3438
150.000000	79.216	165.6300
152.500000	79.164	165.0192
155.000000	79.111	164.5617
157.500000	79.055	164.1079
160.000000	78.986	163.7263
162.500000	78.916	163.3843
165.000000	78.845	163.0487
167.500000	78.770	162.7816
170.000000	78.695	162.5893
172.500000	78.624	162.3994
175.000000	78.553	162.1865
177.500000	78.479	162.0022
180.000000	78.402	161.8660
182.500000	78.330	161.7668
185.000000	78.259	161.6987
187.500000	78.188	161.6698
190.000000	78.123	161.6356
192.500000	78.064	161.5503
195.000000	78.003	161.4716
197.500000	77.940	161.4267
200.000000	77.871	161.3683
203.000000	77.781	161.3270
206.000000	77.693	161.3328
209.000000	77.605	161.3729
212.000000	77.524	161.4702
214.000000	77.476	161.5343
218.000000	77.375	161.6378
220.000000	77.321	161.7183
224.000000	77.215	162.0160
227.000000	77.138	162.3268
230.000000	77.072	162.6969
233.000000	77.021	163.1192
236.000000	76.980	163.5734
240.000000	76.953	164.1337
243.000000	76.956	164.4317
247.000000	76.970	164.6685
250.000000	76.977	164.6732
254.000000	76.972	164.5309
258.000000	76.953	164.3843
262.000000	76.921	164.2341
265.000000	76.890	164.1389
269.000000	76.839	164.0538
272.000000	76.796	164.0250
276.000000	76.742	164.0114
280.000000	76.686	163.9949
285.000000	76.609	164.0262
290.000000	76.538	164.0898
295.000000	76.469	164.1429
300.000000	76.398	164.2467
304.000000	76.342	164.3855
307.000000	76.299	164.4981
311.000000	76.244	164.6424
315.000000	76.191	164.7761
320.000000	76.125	164.9462
325.000000	76.063	165.1039
330.000000	76.003	165.2693
335.000000	75.947	165.4860
340.000000	75.900	165.7281
345.000000	75.849	165.9561
350.000000	75.788	166.1409
355.000000	75.729	166.3217
360.000000	75.679	166.5174
365.000000	75.632	166.7456
370.000000	75.581	167.0152
375.000000	75.532	167.2518
382.000000	75.469	167.5483
387.000000	75.426	167.7811
395.000000	75.358	168.1921
400.000000	75.314	168.4418
406.000000	75.261	168.7250
412.000000	75.215	169.0391
418.000000	75.170	169.3450
425.000000	75.114	169.6642
431.000000	75.068	169.9477
437.000000	75.025	170.2393
444.000000	74.977	170.5843
450.000000	74.938	170.8817
455.000000	74.903	171.1335
462.000000	74.850	171.5197
468.000000	74.810	171.8572
475.000000	74.772	172.2413
482.000000	74.731	172.6419
487.000000	74.698	172.9119
494.000000	74.653	173.2609
500.000000	74.619	173.5805
508.000000	74.580	174.0356
515.000000	74.542	174.4075
522.000000	74.503	174.7487
530.000000	74.461	175.1653
538.000000	74.422	175.6298
545.000000	74.394	176.0334
552.000000	74.369	176.4122
560.000000	74.336	176.8494
570.000000	74.294	177.4172
580.000000	74.257	177.9660
590.000000	74.222	178.5130
600.000000	74.186	179.0511
608.000000	74.158	179.5006
615.000000	74.135	179.8920
622.000000	74.112	-179.7166
630.000000	74.088	-179.2547
640.000000	74.067	-178.6912
650.000000	74.045	-178.1301
660.000000	74.016	-177.5382
670.000000	73.990	-176.9451
680.000000	73.970	-176.3412
690.000000	73.957	-175.7571
700.000000	73.946	-175.1576
710.000000	73.936	-174.5250
720.000000	73.930	-173.9032
730.000000	73.923	-173.3044
740.000000	73.916	-172.7184
750.000000	73.912	-172.1447
762.000000	73.913	-171.4619
775.000000	73.912	-170.7345
788.000000	73.919	-170.0210
800.000000	73.931	-169.3752
812.000000	73.943	-168.7578
825.000000	73.938	-168.1584
838.000000	73.903	-167.5908
850.000000	73.839	-166.8918
862.000000	73.775	-165.7466
875.000000	73.793	-164.0779
885.000000	73.879	-162.8976
900.000000	74.037	-161.6745
912.000000	74.145	-160.9988
925.000000	74.244	-160.3684
938.000000	74.336	-159.7796
950.000000	74.416	-159.2597
962.000000	74.493	-158.7504
975.000000	74.574	-158.2323
988.000000	74.656	-157.7190
1000.000000	74.738	-157.2395
1015.000000	74.849	-156.7370
1030.000000	74.957	-156.2720
1044.000000	75.056	-155.8608
1060.000000	75.169	-155.4609
1075.000000	75.273	-155.1508
1090.000000	75.377	-154.8638
1106.000000	75.484	-154.6038
1120.000000	75.577	-154.4222
1138.000000	75.693	-154.2306
1150.000000	75.764	-154.1172
1172.000000	75.886	-153.9932
1180.000000	75.929	-153.9775
1206.000000	76.058	-153.9299
1220.000000	76.114	-153.8839
1241.000000	76.182	-153.8091
1250.000000	76.211	-153.7489
1265.000000	76.262	-153.5890
1280.000000	76.319	-153.3890
1315.000000	76.465	-152.9863
1320.000000	76.487	-152.9477
1340.000000	76.576	-152.8349
1360.000000	76.663	-152.7681
1380.000000	76.744	-152.7346
1400.000000	76.818	-152.6913
1430.000000	76.918	-152.6061
1450.000000	76.980	-152.5654
1475.000000	77.058	-152.5007
1500.000000	77.133	-152.4348
1525.000000	77.206	-152.3754
1550.000000	77.281	-152.2941
1575.000000	77.353	-152.1948
1600.000000	77.423	-152.0892
1625.000000	77.493	-151.9986
1650.000000	77.564	-151.9015
1675.000000	77.635	-151.7954
1700.000000	77.709	-151.6919
1725.000000	77.783	-151.5984
1750.000000	77.857	-151.4952
1775.000000	77.932	-151.4067
1800.000000	78.008	-151.3348
1825.000000	78.083	-151.2679
1850.000000	78.159	-151.2146
1875.000000	78.237	-151.1774
1900.000000	78.314	-151.1432
1925.000000	78.388	-151.1143
1950.000000	78.460	-151.0947
1975.000000	78.533	-151.0878
2000.000000	78.604	-151.0762
2030.000000	78.683	-151.0403
2060.000000	78.759	-150.9958
2090.000000	78.833	-150.9192
2120.000000	78.905	-150.7455
2140.000000	78.956	-150.5654
2180.000000	79.079	-150.0211
2200.000000	79.160	-149.6813
2240.000000	79.369	-149.0250
2270.000000	79.562	-148.6143
2300.000000	79.796	-148.3057
2330.000000	80.080	-148.2679
2360.000000	80.388	-148.7452
2400.000000	80.746	-150.1990
2430.000000	80.942	-151.6068
2470.000000	81.121	-153.5003
2500.000000	81.218	-154.8241
2540.000000	81.317	-156.4695
2580.000000	81.396	-158.0028
2620.000000	81.461	-159.4534
2650.000000	81.501	-160.5154
2690.000000	81.543	-161.9153
2720.000000	81.567	-162.9472
2760.000000	81.589	-164.3003
2800.000000	81.599	-165.6424
2850.000000	81.594	-167.2840
2900.000000	81.568	-168.8855
2950.000000	81.524	-170.4406
3000.000000	81.462	-171.9468
3040.000000	81.402	-173.1216
3070.000000	81.349	-173.9772
3110.000000	81.268	-175.0600
3150.000000	81.178	-176.0603
3200.000000	81.055	-177.2040
3250.000000	80.921	-178.2374
3300.000000	80.780	-179.1572
3350.000000	80.633	-179.9657
3400.000000	80.484	179.3383
3450.000000	80.334	178.7405
3500.000000	80.186	178.2603
3550.000000	80.043	177.8953
3600.000000	79.911	177.5954
3650.000000	79.788	177.3398
3700.000000	79.675	177.1140
3750.000000	79.570	176.8735
3820.000000	79.426	176.4673
3870.000000	79.316	176.1253
3950.000000	79.113	175.5917
4000.000000	78.971	175.3687
4060.000000	78.797	175.2621
4120.000000	78.627	175.3049
4180.000000	78.468	175.4542
4250.000000	78.299	175.7181
4310.000000	78.163	176.0084
4370.000000	78.033	176.3595
4440.000000	77.889	176.8289
4500.000000	77.781	177.2765
4550.000000	77.700	177.6613
4620.000000	77.594	178.2020
4680.000000	77.508	178.6775
4750.000000	77.417	179.2492
4820.000000	77.336	179.8492
4870.000000	77.285	-179.7070
4940.000000	77.223	-179.0798
5000.000000	77.175	-178.5430
5080.000000	77.112	-177.8270
5150.000000	77.063	-177.1687
5220.000000	77.021	-176.4696
5300.000000	76.986	-175.6105
5380.000000	76.975	-174.6882
5450.000000	76.983	-173.8642
5520.000000	77.009	-173.0675
5600.000000	77.064	-172.2375
5700.000000	77.164	-171.3535
5800.000000	77.284	-170.6555
5900.000000	77.413	-170.1765
6000.000000	77.547	-169.8840
6080.000000	77.655	-169.7412
6150.000000	77.749	-169.6895
6220.000000	77.843	-169.6972
6300.000000	77.951	-169.7775
6400.000000	78.088	-170.0017
6500.000000	78.226	-170.3638
6600.000000	78.359	-170.8559
6700.000000	78.483	-171.4989
6800.000000	78.600	-172.2844
6900.000000	78.708	-173.1744
7000.000000	78.801	-174.1576
7100.000000	78.880	-175.2110
7200.000000	78.946	-176.3368
7300.000000	79.000	-177.5622
7400.000000	79.040	-178.8696
7500.000000	79.060	179.7707
7620.000000	79.060	178.0904
7750.000000	79.034	176.2427
7880.000000	78.983	174.4090
8000.000000	78.923	172.7419
8120.000000	78.851	171.0436
8250.000000	78.757	169.1528
8380.000000	78.642	167.2215
8500.000000	78.518	165.4076
8620.000000	78.377	163.5486
8750.000000	78.200	161.4970
8850.000000	78.043	159.9158
9000.000000	77.775	157.5852
9120.000000	77.536	155.7546
9250.000000	77.253	153.7985
9380.000000	76.945	151.8694
9500.000000	76.634	150.1137
9620.000000	76.294	148.4191
9750.000000	75.894	146.6595
9880.000000	75.449	144.9893
10000.000000	74.983	143.7228
10150.000000	74.377	142.7567
10300.000000	73.793	142.1942
10440.000000	73.254	141.8838
10600.000000	72.648	141.7885
10750.000000	72.087	141.9612
10900.000000	71.530	142.3838
11060.000000	70.951	143.0787
11200.000000	70.461	143.8932
11380.000000	69.857	145.2634
11500.000000	69.477	146.3310
11720.000000	68.843	148.3728
11800.000000	68.629	149.1083
12060.000000	67.964	151.4598
12200.000000	67.611	152.7792
12410.000000	67.094	154.8818
12500.000000	66.881	155.8445
12650.000000	66.535	157.5225
12800.000000	66.202	159.2781
13150.000000	65.490	163.5896
13200.000000	65.396	164.2176
13400.000000	65.039	166.7488
13600.000000	64.716	169.2799
13800.000000	64.422	171.8833
14000.000000	64.146	174.5159
14300.000000	63.775	178.3731
14500.000000	63.562	-179.0152
14750.000000	63.342	-175.7425
15000.000000	63.175	-172.4660
15250.000000	63.046	-169.2289
15500.000000	62.970	-166.0549
15750.000000	62.966	-163.0221
16000.000000	63.028	-160.2204
16250.000000	63.161	-157.7155
16500.000000	63.369	-155.6486
16750.000000	63.645	-154.0161
17000.000000	64.005	-152.8372
17250.000000	64.511	-152.1978
17500.000000	65.266	-152.7065
17750.000000	66.268	-155.9974
18000.000000	67.226	-164.4274
18250.000000	67.602	-178.7344
18500.000000	66.949	164.5549
18750.000000	65.249	151.1912
19000.000000	62.876	144.0162
19250.000000	60.289	142.1591
19500.000000	57.806	143.8145
19750.000000	55.621	147.4388
20000.000000	54.154	150.5277
