* Measurement data measured by REW V5.20.13
* Source: Input device not selected, no input selected, L, volume: no control
* Format: 256k Log Swept Sine, 1 sweep at -12.0 dBFS with no timing reference
* Dated: 2022. 10. 1 오후 7:20:34
* REW Settings:
*  C-weighting compensation: Off
*  Target level: 75.0 dB
* Note: 
* Measurement: R_최대
* Smoothing: 1/24 octave
* Frequency Step: 1/48 octave
* Start Frequency: 20.300 Hz
*
* Freq(Hz)	SPL(dB)	Phase(degrees)
20.299999	81.569	-123.7094
20.600000	81.622	-124.0581
20.900000	81.724	-124.6845
21.200001	81.805	-125.2862
21.400000	81.849	-125.6656
21.799999	81.921	-126.3902
22.000000	81.954	-126.7407
22.400000	82.018	-127.4193
22.700001	82.068	-127.9268
23.000000	82.122	-128.4580
23.299999	82.176	-129.0250
23.600000	82.230	-129.6267
24.000000	82.298	-130.4630
24.299999	82.346	-131.0908
24.700001	82.408	-131.9018
25.000000	82.457	-132.4862
25.400000	82.527	-133.2473
25.799999	82.601	-134.0102
26.200001	82.674	-134.7784
26.500000	82.725	-135.3441
26.900000	82.789	-136.0604
27.200001	82.835	-136.5591
27.600000	82.898	-137.1783
28.000000	82.962	-137.7712
28.500000	83.041	-138.5148
29.000000	83.112	-139.2702
29.500000	83.171	-140.0142
30.000000	83.220	-140.7212
30.400000	83.254	-141.2522
30.700001	83.278	-141.6299
31.100000	83.311	-142.1119
31.500000	83.348	-142.5854
32.000000	83.399	-143.2053
32.500000	83.451	-143.8919
33.000000	83.495	-144.6319
33.500000	83.529	-145.3671
34.000000	83.557	-146.0451
34.500000	83.587	-146.6625
35.000000	83.623	-147.2467
35.500000	83.661	-147.8183
36.000000	83.702	-148.3812
36.500000	83.743	-148.9404
37.000000	83.784	-149.5065
37.500000	83.820	-150.0802
38.200001	83.863	-150.8730
38.700001	83.887	-151.4231
39.500000	83.917	-152.2672
40.000000	83.931	-152.7480
40.599998	83.953	-153.2768
41.200001	83.985	-153.8272
41.799999	84.016	-154.4524
42.500000	84.036	-155.1883
43.099998	84.052	-155.7264
43.700001	84.082	-156.2381
44.400002	84.124	-156.9409
45.000000	84.147	-157.6239
45.500000	84.152	-158.1717
46.200001	84.147	-158.8379
46.799999	84.141	-159.3242
47.500000	84.134	-159.8488
48.200001	84.120	-160.3385
48.700001	84.105	-160.6068
49.400002	84.099	-160.7946
50.000000	84.137	-160.9307
50.799999	84.225	-161.5308
51.500000	84.263	-162.4510
52.200001	84.245	-163.2889
53.000000	84.218	-163.9044
53.799999	84.219	-164.4309
54.500000	84.225	-164.9254
55.200001	84.233	-165.3953
56.000000	84.250	-165.9552
57.000000	84.259	-166.7515
58.000000	84.244	-167.4581
59.000000	84.233	-168.0265
60.000000	84.230	-168.5892
60.799999	84.227	-169.0410
61.500000	84.223	-169.4185
62.200001	84.222	-169.7925
63.000000	84.219	-170.2251
64.000000	84.215	-170.7583
65.000000	84.208	-171.2965
66.000000	84.195	-171.8160
67.000000	84.182	-172.3006
68.000000	84.170	-172.7878
69.000000	84.156	-173.2619
70.000000	84.145	-173.7258
71.000000	84.135	-174.2089
72.000000	84.122	-174.6970
73.000000	84.109	-175.1640
74.000000	84.096	-175.6443
75.000000	84.072	-176.1022
76.199997	84.046	-176.5335
77.500000	84.030	-177.0154
78.800003	84.009	-177.5325
80.000000	83.988	-178.0029
81.199997	83.964	-178.4929
82.500000	83.932	-178.9687
83.800003	83.907	-179.4018
85.000000	83.887	-179.8102
86.199997	83.864	179.7818
87.500000	83.837	179.3647
88.500000	83.816	179.0562
90.000000	83.786	178.5922
91.199997	83.759	178.2134
92.500000	83.727	177.8336
93.800003	83.700	177.4718
95.000000	83.683	177.1054
96.199997	83.662	176.6495
97.500000	83.624	176.1448
98.800003	83.576	175.7729
100.000000	83.549	175.5431
101.500000	83.530	175.1697
103.000000	83.488	174.8075
104.400002	83.448	174.6261
106.000000	83.413	174.3958
107.500000	83.379	174.1005
109.000000	83.340	173.7751
110.599998	83.303	173.4530
112.000000	83.276	173.1781
113.800003	83.239	172.8259
115.000000	83.208	172.5994
117.199997	83.139	172.2006
118.000000	83.111	172.0593
120.599998	83.040	171.6616
122.000000	83.018	171.3968
124.099998	82.979	170.9767
125.000000	82.958	170.8243
126.500000	82.921	170.6118
128.000000	82.885	170.4339
131.500000	82.804	169.9375
132.000000	82.791	169.8658
134.000000	82.738	169.6138
136.000000	82.689	169.3990
138.000000	82.646	169.1613
140.000000	82.607	168.9021
143.000000	82.544	168.5455
145.000000	82.494	168.3470
147.500000	82.429	168.0758
150.000000	82.366	167.8172
152.500000	82.316	167.5948
155.000000	82.255	167.4329
157.500000	82.191	167.3151
160.000000	82.136	167.1266
162.500000	82.087	166.9204
165.000000	82.037	166.7606
167.500000	81.980	166.6216
170.000000	81.922	166.4833
172.500000	81.868	166.3542
175.000000	81.812	166.2548
177.500000	81.755	166.1594
180.000000	81.701	166.0342
182.500000	81.651	165.8978
185.000000	81.601	165.8046
187.500000	81.553	165.7227
190.000000	81.503	165.6190
192.500000	81.453	165.5582
195.000000	81.407	165.5558
197.500000	81.366	165.5670
200.000000	81.327	165.5146
203.000000	81.269	165.4165
206.000000	81.209	165.3512
209.000000	81.150	165.2763
212.000000	81.091	165.1945
214.000000	81.053	165.1558
218.000000	80.985	165.1447
220.000000	80.952	165.1559
224.000000	80.886	165.1601
227.000000	80.838	165.1530
230.000000	80.790	165.1448
233.000000	80.740	165.1406
236.000000	80.691	165.1464
240.000000	80.629	165.1781
243.000000	80.582	165.2010
247.000000	80.515	165.2125
250.000000	80.464	165.2282
254.000000	80.405	165.2588
258.000000	80.350	165.3228
262.000000	80.296	165.4104
265.000000	80.253	165.4709
269.000000	80.198	165.5432
272.000000	80.160	165.5894
276.000000	80.110	165.6652
280.000000	80.055	165.7747
285.000000	79.986	165.8912
290.000000	79.921	165.9867
295.000000	79.860	166.1063
300.000000	79.799	166.2440
304.000000	79.748	166.3615
307.000000	79.713	166.4478
311.000000	79.671	166.5742
315.000000	79.627	166.7174
320.000000	79.568	166.8899
325.000000	79.514	167.0441
330.000000	79.465	167.1820
335.000000	79.418	167.3605
340.000000	79.370	167.5663
345.000000	79.320	167.7437
350.000000	79.273	167.9001
355.000000	79.226	168.0989
360.000000	79.180	168.3116
365.000000	79.134	168.4663
370.000000	79.091	168.6151
375.000000	79.050	168.8119
382.000000	78.990	169.1134
387.000000	78.948	169.3141
395.000000	78.883	169.6205
400.000000	78.841	169.8426
406.000000	78.791	170.1361
412.000000	78.742	170.3927
418.000000	78.703	170.6412
425.000000	78.661	170.9416
431.000000	78.616	171.1987
437.000000	78.566	171.4666
444.000000	78.512	171.7676
450.000000	78.476	172.0294
455.000000	78.451	172.2568
462.000000	78.416	172.5716
468.000000	78.382	172.8250
475.000000	78.337	173.1184
482.000000	78.296	173.4356
487.000000	78.268	173.6746
494.000000	78.230	174.0114
500.000000	78.199	174.3096
508.000000	78.157	174.6870
515.000000	78.119	174.9802
522.000000	78.084	175.2965
530.000000	78.048	175.6804
538.000000	78.013	176.0731
545.000000	77.982	176.4103
552.000000	77.952	176.7515
560.000000	77.919	177.1546
570.000000	77.878	177.6340
580.000000	77.840	178.0877
590.000000	77.801	178.5467
600.000000	77.756	178.9792
608.000000	77.719	179.3189
615.000000	77.685	179.6446
622.000000	77.647	-179.9954
630.000000	77.603	-179.5375
640.000000	77.555	-178.8968
650.000000	77.519	-178.2437
660.000000	77.490	-177.5692
670.000000	77.468	-176.8790
680.000000	77.449	-176.2229
690.000000	77.432	-175.5738
700.000000	77.419	-174.9218
710.000000	77.412	-174.3130
720.000000	77.406	-173.6939
730.000000	77.399	-173.0655
740.000000	77.394	-172.4614
750.000000	77.395	-171.8725
762.000000	77.398	-171.1516
775.000000	77.406	-170.3433
788.000000	77.418	-169.5538
800.000000	77.429	-168.8604
812.000000	77.440	-168.2150
825.000000	77.447	-167.5782
838.000000	77.428	-166.9071
850.000000	77.382	-166.1079
862.000000	77.332	-164.9102
875.000000	77.351	-163.2459
885.000000	77.435	-162.0708
900.000000	77.605	-160.8296
912.000000	77.730	-160.1251
925.000000	77.845	-159.4565
938.000000	77.949	-158.8053
950.000000	78.044	-158.2156
962.000000	78.141	-157.6644
975.000000	78.246	-157.1112
988.000000	78.353	-156.6187
1000.000000	78.454	-156.1831
1015.000000	78.581	-155.5885
1030.000000	78.710	-155.0527
1044.000000	78.833	-154.6389
1060.000000	78.976	-154.2550
1075.000000	79.114	-153.9567
1090.000000	79.252	-153.7112
1106.000000	79.395	-153.5356
1120.000000	79.517	-153.4453
1138.000000	79.668	-153.4116
1150.000000	79.764	-153.4285
1172.000000	79.927	-153.5266
1180.000000	79.982	-153.5735
1206.000000	80.137	-153.7706
1220.000000	80.207	-153.8956
1241.000000	80.297	-154.0165
1250.000000	80.332	-154.0315
1265.000000	80.390	-154.0050
1280.000000	80.454	-153.9229
1315.000000	80.644	-153.7462
1320.000000	80.672	-153.7390
1340.000000	80.785	-153.7546
1360.000000	80.893	-153.8309
1380.000000	80.994	-153.9693
1400.000000	81.089	-154.1275
1430.000000	81.221	-154.3725
1450.000000	81.305	-154.5328
1475.000000	81.407	-154.7235
1500.000000	81.504	-154.9247
1525.000000	81.595	-155.1292
1550.000000	81.685	-155.3296
1575.000000	81.770	-155.5174
1600.000000	81.852	-155.6880
1625.000000	81.935	-155.8526
1650.000000	82.018	-156.0115
1675.000000	82.099	-156.1667
1700.000000	82.179	-156.3306
1725.000000	82.259	-156.4881
1750.000000	82.342	-156.6476
1775.000000	82.427	-156.8154
1800.000000	82.513	-156.9849
1825.000000	82.599	-157.1569
1850.000000	82.686	-157.3327
1875.000000	82.773	-157.5146
1900.000000	82.861	-157.7186
1925.000000	82.950	-157.9423
1950.000000	83.041	-158.1741
1975.000000	83.132	-158.4169
2000.000000	83.223	-158.6767
2030.000000	83.334	-159.0148
2060.000000	83.445	-159.3849
2090.000000	83.556	-159.7819
2120.000000	83.668	-160.2072
2140.000000	83.742	-160.5117
2180.000000	83.892	-161.1671
2200.000000	83.967	-161.5197
2240.000000	84.114	-162.2836
2270.000000	84.222	-162.9017
2300.000000	84.327	-163.5555
2330.000000	84.429	-164.2450
2360.000000	84.529	-164.9686
2400.000000	84.658	-165.9911
2430.000000	84.750	-166.8124
2470.000000	84.866	-167.9594
2500.000000	84.948	-168.8596
2540.000000	85.050	-170.1133
2580.000000	85.139	-171.4141
2620.000000	85.217	-172.7553
2650.000000	85.268	-173.7929
2690.000000	85.324	-175.2167
2720.000000	85.358	-176.3006
2760.000000	85.392	-177.7479
2800.000000	85.413	-179.2058
2850.000000	85.419	178.9547
2900.000000	85.404	177.1210
2950.000000	85.370	175.3114
3000.000000	85.319	173.5468
3040.000000	85.263	172.1688
3070.000000	85.214	171.1597
3110.000000	85.139	169.8547
3150.000000	85.056	168.5973
3200.000000	84.940	167.0991
3250.000000	84.813	165.6918
3300.000000	84.677	164.3741
3350.000000	84.533	163.1504
3400.000000	84.386	162.0211
3450.000000	84.240	160.9759
3500.000000	84.093	159.9922
3550.000000	83.948	159.0511
3600.000000	83.803	158.1389
3650.000000	83.654	157.2608
3700.000000	83.500	156.4255
3750.000000	83.343	155.6416
3820.000000	83.120	154.6435
3870.000000	82.962	154.0052
3950.000000	82.706	153.0820
4000.000000	82.547	152.5590
4060.000000	82.358	151.9870
4120.000000	82.171	151.4882
4180.000000	81.987	151.0450
4250.000000	81.776	150.5623
4310.000000	81.599	150.1921
4370.000000	81.424	149.8686
4440.000000	81.225	149.5341
4500.000000	81.057	149.2764
4550.000000	80.918	149.0789
4620.000000	80.728	148.8298
4680.000000	80.566	148.6462
4750.000000	80.378	148.4505
4820.000000	80.191	148.2812
4870.000000	80.059	148.1853
4940.000000	79.878	148.0795
5000.000000	79.725	148.0068
5080.000000	79.520	147.9282
5150.000000	79.341	147.8915
5220.000000	79.161	147.9166
5300.000000	78.957	148.0251
5380.000000	78.765	148.1986
5450.000000	78.607	148.4171
5520.000000	78.460	148.6636
5600.000000	78.306	148.9119
5700.000000	78.123	149.1672
5800.000000	77.949	149.3761
5900.000000	77.781	149.5196
6000.000000	77.613	149.6112
6080.000000	77.478	149.6679
6150.000000	77.359	149.7051
6220.000000	77.238	149.7208
6300.000000	77.095	149.7189
6400.000000	76.913	149.6926
6500.000000	76.723	149.6613
6600.000000	76.521	149.6373
6700.000000	76.306	149.6260
6800.000000	76.079	149.6953
6900.000000	75.843	149.8819
7000.000000	75.604	150.2003
7100.000000	75.375	150.6376
7200.000000	75.161	151.1732
7300.000000	74.958	151.7419
7400.000000	74.759	152.2775
7500.000000	74.565	152.8011
7620.000000	74.327	153.4451
7750.000000	74.075	154.2154
7880.000000	73.827	155.0708
8000.000000	73.600	155.9387
8120.000000	73.385	156.8766
8250.000000	73.163	157.9207
8380.000000	72.948	158.9824
8500.000000	72.762	159.9757
8620.000000	72.584	160.9930
8750.000000	72.403	162.1411
8850.000000	72.270	163.0357
9000.000000	72.078	164.3718
9120.000000	71.930	165.4207
9250.000000	71.776	166.5168
9380.000000	71.624	167.6018
9500.000000	71.488	168.6275
9620.000000	71.361	169.6736
9750.000000	71.231	170.7869
9880.000000	71.097	171.8206
10000.000000	70.953	172.8175
10150.000000	70.782	174.3932
10300.000000	70.661	176.0482
10440.000000	70.563	177.5356
10600.000000	70.459	179.2100
10750.000000	70.379	-179.2542
10900.000000	70.318	-177.7574
11060.000000	70.272	-176.1824
11200.000000	70.244	-174.7859
11380.000000	70.223	-172.9895
11500.000000	70.228	-171.7847
11720.000000	70.286	-169.6967
11800.000000	70.320	-169.0463
12060.000000	70.443	-167.3558
12200.000000	70.508	-166.6232
12410.000000	70.594	-165.6210
12500.000000	70.629	-165.2039
12650.000000	70.692	-164.5405
12800.000000	70.762	-163.9374
13150.000000	70.938	-162.7610
13200.000000	70.965	-162.6229
13400.000000	71.082	-162.1388
13600.000000	71.217	-161.7905
13800.000000	71.358	-161.6008
14000.000000	71.501	-161.5897
14300.000000	71.741	-161.8523
14500.000000	71.930	-162.2080
14750.000000	72.190	-163.0996
15000.000000	72.463	-164.5625
15250.000000	72.747	-166.6354
15500.000000	73.037	-169.4452
15750.000000	73.318	-173.1999
16000.000000	73.554	-178.1371
16250.000000	73.682	175.5504
16500.000000	73.612	167.8748
16750.000000	73.251	159.1734
17000.000000	72.520	150.2964
17250.000000	71.406	142.4745
17500.000000	69.990	136.6595
17750.000000	68.420	133.0546
18000.000000	66.828	131.2552
18250.000000	65.284	130.8391
18500.000000	63.798	131.4362
18750.000000	62.346	132.8185
19000.000000	60.912	134.8659
19250.000000	59.497	137.5788
19500.000000	58.110	140.9664
19750.000000	56.803	144.7561
20000.000000	55.870	147.5831
