* Measurement data measured by REW V5.20.13
* Source: Input device not selected, no input selected, L, volume: no control
* Format: 256k Log Swept Sine, 1 sweep at -12.0 dBFS with no timing reference
* Dated: 2022. 10. 1 ¿ÀÈÄ 7:17:10
* REW Settings:
*  C-weighting compensation: Off
*  Target level: 75.0 dB
* Note: 
* Measurement: L_8k
* Smoothing: 1/24 octave
* Frequency Step: 1/48 octave
* Start Frequency: 20.300 Hz
*
* Freq(Hz)	SPL(dB)	Phase(degrees)
20.299999	78.683	-121.7994
20.600000	78.786	-122.5730
20.900000	78.944	-123.9846
21.200001	78.980	-125.3269
21.400000	78.947	-125.9899
21.799999	78.820	-126.5630
22.000000	78.770	-126.4647
22.400000	78.778	-125.7783
22.700001	78.899	-125.3285
23.000000	79.089	-125.3877
23.299999	79.285	-126.0762
23.600000	79.441	-127.2583
24.000000	79.549	-129.1569
24.299999	79.563	-130.4354
24.700001	79.561	-131.6830
25.000000	79.577	-132.3430
25.400000	79.647	-133.1544
25.799999	79.739	-134.1785
26.200001	79.797	-135.3618
26.500000	79.807	-136.1355
26.900000	79.805	-136.7642
27.200001	79.818	-136.9206
27.600000	79.907	-136.9545
28.000000	80.061	-137.2287
28.500000	80.250	-138.2526
29.000000	80.334	-139.6282
29.500000	80.324	-140.6114
30.000000	80.321	-140.9492
30.400000	80.375	-141.0652
30.700001	80.445	-141.2717
31.100000	80.541	-141.8164
31.500000	80.612	-142.5750
32.000000	80.657	-143.5170
32.500000	80.686	-144.2426
33.000000	80.737	-144.8339
33.500000	80.810	-145.4707
34.000000	80.890	-146.2242
34.500000	80.963	-147.0750
35.000000	81.021	-148.0083
35.500000	81.051	-148.9724
36.000000	81.047	-149.8244
36.500000	81.028	-150.4357
37.000000	81.024	-150.8572
37.500000	81.044	-151.2972
38.200001	81.068	-152.1645
38.700001	81.053	-152.8072
39.500000	81.023	-153.4835
40.000000	81.041	-153.8284
40.599998	81.091	-154.4307
41.200001	81.137	-155.2328
41.799999	81.171	-156.0452
42.500000	81.216	-156.9015
43.099998	81.268	-157.6118
43.700001	81.326	-158.3472
44.400002	81.387	-159.2843
45.000000	81.408	-160.1158
45.500000	81.397	-160.6683
46.200001	81.375	-161.0308
46.799999	81.400	-161.1336
47.500000	81.470	-161.5287
48.200001	81.512	-162.2831
48.700001	81.513	-162.8235
49.400002	81.511	-163.4645
50.000000	81.520	-164.0840
50.799999	81.504	-165.0891
51.500000	81.451	-165.8068
52.200001	81.408	-166.1964
53.000000	81.415	-166.5341
53.799999	81.447	-167.0908
54.500000	81.456	-167.6749
55.200001	81.451	-168.1483
56.000000	81.465	-168.6107
57.000000	81.494	-169.4865
58.000000	81.465	-170.5626
59.000000	81.393	-171.3914
60.000000	81.334	-171.9316
60.799999	81.316	-172.2975
61.500000	81.316	-172.6896
62.200001	81.313	-173.1454
63.000000	81.301	-173.6638
64.000000	81.278	-174.2440
65.000000	81.255	-174.7198
66.000000	81.246	-175.2098
67.000000	81.234	-175.8327
68.000000	81.204	-176.4996
69.000000	81.167	-177.0673
70.000000	81.155	-177.5732
71.000000	81.159	-178.2219
72.000000	81.148	-178.9560
73.000000	81.121	-179.5854
74.000000	81.093	179.9180
75.000000	81.072	179.5524
76.199997	81.076	179.1376
77.500000	81.071	178.3706
78.800003	81.012	177.7115
80.000000	80.970	177.2679
81.199997	80.932	176.7819
82.500000	80.885	176.2977
83.800003	80.836	175.8469
85.000000	80.784	175.5005
86.199997	80.736	175.1809
87.500000	80.681	174.8098
88.500000	80.646	174.5374
90.000000	80.612	173.9679
91.199997	80.579	173.4380
92.500000	80.544	172.9109
93.800003	80.502	172.4386
95.000000	80.455	172.1410
96.199997	80.411	171.9306
97.500000	80.365	171.6518
98.800003	80.308	171.2416
100.000000	80.245	170.8258
101.500000	80.179	170.3413
103.000000	80.137	169.8344
104.400002	80.100	169.4342
106.000000	80.065	169.1027
107.500000	80.016	168.8005
109.000000	79.940	168.5546
110.599998	79.850	168.3345
112.000000	79.779	168.1463
113.800003	79.702	167.8995
115.000000	79.660	167.8074
117.199997	79.623	167.6528
118.000000	79.614	167.5195
120.599998	79.521	166.9219
122.000000	79.450	166.7635
124.099998	79.354	166.5938
125.000000	79.308	166.5619
126.500000	79.240	166.6272
128.000000	79.201	166.7332
131.500000	79.175	166.5923
132.000000	79.175	166.5740
134.000000	79.189	166.4462
136.000000	79.180	166.2310
138.000000	79.139	166.0501
140.000000	79.095	165.8701
143.000000	79.048	165.3569
145.000000	79.013	164.9591
147.500000	78.949	164.4955
150.000000	78.871	164.1500
152.500000	78.809	163.7900
155.000000	78.743	163.4312
157.500000	78.669	163.1963
160.000000	78.596	162.9993
162.500000	78.525	162.7654
165.000000	78.453	162.5503
167.500000	78.383	162.3906
170.000000	78.311	162.2463
172.500000	78.235	162.1180
175.000000	78.160	161.9948
177.500000	78.086	161.8632
180.000000	78.016	161.7354
182.500000	77.950	161.6346
185.000000	77.888	161.5930
187.500000	77.825	161.5878
190.000000	77.758	161.5660
192.500000	77.686	161.5273
195.000000	77.618	161.5132
197.500000	77.556	161.5444
200.000000	77.498	161.5923
203.000000	77.425	161.6379
206.000000	77.353	161.7016
209.000000	77.295	161.7951
212.000000	77.245	161.9196
214.000000	77.211	162.0166
218.000000	77.138	162.1479
220.000000	77.101	162.1554
224.000000	77.035	162.1082
227.000000	76.990	162.1060
230.000000	76.934	162.1644
233.000000	76.871	162.2419
236.000000	76.812	162.3018
240.000000	76.743	162.3889
243.000000	76.696	162.4365
247.000000	76.635	162.4852
250.000000	76.590	162.5689
254.000000	76.526	162.6967
258.000000	76.465	162.8516
262.000000	76.410	163.0073
265.000000	76.367	163.0884
269.000000	76.310	163.1752
272.000000	76.267	163.2372
276.000000	76.212	163.3436
280.000000	76.156	163.4565
285.000000	76.086	163.5580
290.000000	76.021	163.7094
295.000000	75.954	163.8972
300.000000	75.880	164.1504
304.000000	75.826	164.3292
307.000000	75.788	164.4508
311.000000	75.738	164.6383
315.000000	75.691	164.8714
320.000000	75.640	165.1469
325.000000	75.593	165.3423
330.000000	75.548	165.4962
335.000000	75.501	165.6784
340.000000	75.454	165.8969
345.000000	75.402	166.0984
350.000000	75.351	166.2467
355.000000	75.301	166.4301
360.000000	75.251	166.6544
365.000000	75.201	166.8492
370.000000	75.149	167.0269
375.000000	75.098	167.1971
382.000000	75.034	167.4586
387.000000	74.989	167.7072
395.000000	74.915	168.1270
400.000000	74.871	168.3782
406.000000	74.819	168.6875
412.000000	74.768	168.9542
418.000000	74.716	169.1990
425.000000	74.664	169.5453
431.000000	74.619	169.8802
437.000000	74.578	170.2134
444.000000	74.525	170.5775
450.000000	74.477	170.8616
455.000000	74.442	171.1140
462.000000	74.393	171.4882
468.000000	74.351	171.8060
475.000000	74.314	172.1817
482.000000	74.277	172.5401
487.000000	74.249	172.8008
494.000000	74.209	173.1909
500.000000	74.172	173.5146
508.000000	74.125	173.9688
515.000000	74.087	174.3674
522.000000	74.048	174.7585
530.000000	74.006	175.2128
538.000000	73.963	175.6536
545.000000	73.929	176.0485
552.000000	73.902	176.4410
560.000000	73.869	176.9042
570.000000	73.825	177.4804
580.000000	73.790	178.0210
590.000000	73.757	178.5637
600.000000	73.722	179.1572
608.000000	73.691	179.6163
615.000000	73.665	-179.9969
622.000000	73.644	-179.6241
630.000000	73.623	-179.1745
640.000000	73.595	-178.5564
650.000000	73.568	-177.9652
660.000000	73.548	-177.3830
670.000000	73.531	-176.7967
680.000000	73.511	-176.1943
690.000000	73.494	-175.5697
700.000000	73.482	-174.9899
710.000000	73.470	-174.4226
720.000000	73.456	-173.8148
730.000000	73.449	-173.2183
740.000000	73.451	-172.6465
750.000000	73.448	-172.0259
762.000000	73.445	-171.2477
775.000000	73.456	-170.4804
788.000000	73.463	-169.7423
800.000000	73.473	-169.0443
812.000000	73.496	-168.3903
825.000000	73.517	-167.6508
838.000000	73.538	-166.9047
850.000000	73.560	-166.2612
862.000000	73.580	-165.6600
875.000000	73.612	-164.9989
885.000000	73.643	-164.5063
900.000000	73.683	-163.8028
912.000000	73.709	-163.2447
925.000000	73.737	-162.6376
938.000000	73.766	-162.0236
950.000000	73.791	-161.4304
962.000000	73.816	-160.7993
975.000000	73.849	-160.0691
988.000000	73.894	-159.3704
1000.000000	73.950	-158.7392
1015.000000	74.043	-157.8904
1030.000000	74.135	-157.1381
1044.000000	74.218	-156.5506
1060.000000	74.313	-155.9360
1075.000000	74.397	-155.4168
1090.000000	74.479	-154.8755
1106.000000	74.570	-154.2194
1120.000000	74.658	-153.6148
1138.000000	74.790	-152.8445
1150.000000	74.893	-152.4029
1172.000000	75.111	-151.9020
1180.000000	75.194	-151.8181
1206.000000	75.432	-151.8743
1220.000000	75.529	-152.0281
1241.000000	75.646	-152.2729
1250.000000	75.689	-152.3578
1265.000000	75.755	-152.4703
1280.000000	75.815	-152.5561
1315.000000	75.931	-152.7104
1320.000000	75.945	-152.7220
1340.000000	76.001	-152.7322
1360.000000	76.058	-152.7222
1380.000000	76.115	-152.7264
1400.000000	76.164	-152.7385
1430.000000	76.234	-152.6823
1450.000000	76.281	-152.6233
1475.000000	76.338	-152.5707
1500.000000	76.389	-152.4977
1525.000000	76.439	-152.4186
1550.000000	76.490	-152.3224
1575.000000	76.539	-152.1808
1600.000000	76.587	-152.0318
1625.000000	76.631	-151.8981
1650.000000	76.678	-151.7368
1675.000000	76.723	-151.5529
1700.000000	76.769	-151.3303
1725.000000	76.821	-151.0479
1750.000000	76.884	-150.7469
1775.000000	76.961	-150.4560
1800.000000	77.047	-150.2651
1825.000000	77.137	-150.1981
1850.000000	77.220	-150.1870
1875.000000	77.296	-150.1833
1900.000000	77.374	-150.1733
1925.000000	77.456	-150.1930
1950.000000	77.542	-150.3037
1975.000000	77.620	-150.5588
2000.000000	77.677	-150.9349
2030.000000	77.706	-151.4418
2060.000000	77.689	-151.8225
2090.000000	77.642	-151.8891
2120.000000	77.594	-151.5577
2140.000000	77.578	-151.1402
2180.000000	77.623	-150.0329
2200.000000	77.687	-149.4734
2240.000000	77.886	-148.6305
2270.000000	78.077	-148.3906
2300.000000	78.276	-148.5694
2330.000000	78.451	-149.1500
2360.000000	78.578	-150.0544
2400.000000	78.648	-151.4822
2430.000000	78.624	-152.4304
2470.000000	78.519	-153.2345
2500.000000	78.416	-153.4121
2540.000000	78.288	-153.0845
2580.000000	78.209	-152.2445
2620.000000	78.206	-151.1035
2650.000000	78.255	-150.1896
2690.000000	78.386	-149.0747
2720.000000	78.522	-148.4238
2760.000000	78.736	-147.8665
2800.000000	78.965	-147.6729
2850.000000	79.247	-147.8784
2900.000000	79.504	-148.4730
2950.000000	79.729	-149.3506
3000.000000	79.918	-150.4280
3040.000000	80.043	-151.4134
3070.000000	80.120	-152.1995
3110.000000	80.200	-153.2708
3150.000000	80.258	-154.3315
3200.000000	80.307	-155.5947
3250.000000	80.334	-156.7940
3300.000000	80.342	-157.9571
3350.000000	80.338	-159.0960
3400.000000	80.316	-160.1980
3450.000000	80.276	-161.2317
3500.000000	80.218	-162.1890
3550.000000	80.146	-163.0694
3600.000000	80.061	-163.8696
3650.000000	79.966	-164.5737
3700.000000	79.863	-165.1659
3750.000000	79.755	-165.6389
3820.000000	79.603	-166.0953
3870.000000	79.495	-166.2794
3950.000000	79.337	-166.3978
4000.000000	79.251	-166.4043
4060.000000	79.155	-166.3848
4120.000000	79.061	-166.3259
4180.000000	78.971	-166.2252
4250.000000	78.871	-166.0763
4310.000000	78.784	-165.9123
4370.000000	78.694	-165.6805
4440.000000	78.592	-165.2630
4500.000000	78.514	-164.7833
4550.000000	78.456	-164.3236
4620.000000	78.390	-163.6009
4680.000000	78.347	-162.9315
4750.000000	78.317	-162.1223
4820.000000	78.308	-161.2848
4870.000000	78.313	-160.6661
4940.000000	78.337	-159.7758
5000.000000	78.374	-159.0280
5080.000000	78.446	-158.0926
5150.000000	78.525	-157.3351
5220.000000	78.616	-156.6306
5300.000000	78.733	-155.8568
5380.000000	78.866	-155.1015
5450.000000	78.999	-154.4702
5520.000000	79.151	-153.8779
5600.000000	79.355	-153.2645
5700.000000	79.654	-152.6943
5800.000000	79.992	-152.4900
5900.000000	80.354	-152.6883
6000.000000	80.728	-153.3019
6080.000000	81.027	-154.1155
6150.000000	81.285	-155.0600
6220.000000	81.533	-156.2152
6300.000000	81.799	-157.7834
6400.000000	82.096	-160.0942
6500.000000	82.345	-162.7309
6600.000000	82.540	-165.6554
6700.000000	82.672	-168.8216
6800.000000	82.730	-172.1239
6900.000000	82.713	-175.4117
7000.000000	82.627	-178.5472
7100.000000	82.486	178.5675
7200.000000	82.309	175.9827
7300.000000	82.115	173.7020
7400.000000	81.916	171.6906
7500.000000	81.717	169.9187
7620.000000	81.502	168.0679
7750.000000	81.318	166.2118
7880.000000	81.194	164.2787
8000.000000	81.136	162.1809
8120.000000	81.106	159.4949
8250.000000	81.056	155.7205
8380.000000	80.918	150.9735
8500.000000	80.640	145.9026
8620.000000	80.166	140.6421
8750.000000	79.425	135.4107
8850.000000	78.720	132.0997
9000.000000	77.522	128.6548
9120.000000	76.514	127.2269
9250.000000	75.440	126.8304
9380.000000	74.417	127.4039
9500.000000	73.537	128.5699
9620.000000	72.728	130.1862
9750.000000	71.927	132.3158
9880.000000	71.205	134.7080
10000.000000	70.606	137.0793
10150.000000	69.931	140.1330
10300.000000	69.307	143.2877
10440.000000	68.773	146.4623
10600.000000	68.249	150.2374
10750.000000	67.831	153.6995
10900.000000	67.464	157.0522
11060.000000	67.124	160.5525
11200.000000	66.863	163.5461
11380.000000	66.575	167.2595
11500.000000	66.417	169.6617
11720.000000	66.191	173.8924
11800.000000	66.118	175.4000
12060.000000	65.908	-179.8295
12200.000000	65.827	-177.3872
12410.000000	65.753	-173.8933
12500.000000	65.740	-172.4616
12650.000000	65.741	-170.1783
12800.000000	65.764	-168.0522
13150.000000	65.880	-163.7568
13200.000000	65.905	-163.2220
13400.000000	66.008	-161.4039
13600.000000	66.091	-160.0473
13800.000000	66.119	-158.9137
14000.000000	66.077	-157.5181
14300.000000	66.079	-153.9879
14500.000000	66.287	-151.1666
14750.000000	66.823	-148.3224
15000.000000	67.603	-146.7688
15250.000000	68.623	-147.1111
15500.000000	69.867	-150.5289
15750.000000	71.128	-159.0148
16000.000000	71.886	-174.0811
16250.000000	71.566	166.6324
16500.000000	70.005	149.6699
16750.000000	67.598	139.3206
17000.000000	64.918	135.1219
17250.000000	62.349	135.0170
17500.000000	60.036	137.4374
17750.000000	57.964	141.3861
18000.000000	56.089	146.4175
18250.000000	54.420	152.3945
18500.000000	52.932	159.0150
18750.000000	51.559	165.8709
19000.000000	50.293	173.1118
19250.000000	49.129	-179.1783
19500.000000	48.116	-171.1999
19750.000000	47.206	-163.4411
20000.000000	46.468	-158.0453
