* Measurement data measured by REW V5.20.13
* Source: Input device not selected, no input selected, L, volume: no control
* Format: 256k Log Swept Sine, 1 sweep at -12.0 dBFS with no timing reference
* Dated: 2022. 10. 1 ¿ÀÈÄ 7:17:40
* REW Settings:
*  C-weighting compensation: Off
*  Target level: 75.0 dB
* Note: 
* Measurement: L_9k
* Smoothing: 1/24 octave
* Frequency Step: 1/48 octave
* Start Frequency: 20.300 Hz
*
* Freq(Hz)	SPL(dB)	Phase(degrees)
20.299999	78.764	-121.2740
20.600000	78.811	-121.6538
20.900000	78.904	-122.3030
21.200001	78.983	-122.8455
21.400000	79.033	-123.1608
21.799999	79.130	-123.7655
22.000000	79.180	-124.0868
22.400000	79.279	-124.7861
22.700001	79.347	-125.3515
23.000000	79.410	-125.9366
23.299999	79.470	-126.5259
23.600000	79.526	-127.1128
24.000000	79.598	-127.8865
24.299999	79.650	-128.4528
24.700001	79.719	-129.1701
25.000000	79.772	-129.6700
25.400000	79.851	-130.3008
25.799999	79.943	-130.9551
26.200001	80.037	-131.7046
26.500000	80.099	-132.3320
26.900000	80.161	-133.1919
27.200001	80.191	-133.7830
27.600000	80.222	-134.4326
28.000000	80.260	-134.9466
28.500000	80.327	-135.5711
29.000000	80.396	-136.3251
29.500000	80.443	-137.1233
30.000000	80.481	-137.7984
30.400000	80.527	-138.2796
30.700001	80.574	-138.6860
31.100000	80.639	-139.3689
31.500000	80.688	-140.1813
32.000000	80.718	-141.1643
32.500000	80.741	-141.9098
33.000000	80.799	-142.5193
33.500000	80.890	-143.2708
34.000000	80.971	-144.2458
34.500000	81.017	-145.2175
35.000000	81.045	-145.9693
35.500000	81.090	-146.5394
36.000000	81.152	-147.1169
36.500000	81.207	-147.7552
37.000000	81.245	-148.3291
37.500000	81.282	-148.7579
38.200001	81.363	-149.3460
38.700001	81.420	-149.9575
39.500000	81.446	-151.0601
40.000000	81.436	-151.5576
40.599998	81.445	-151.9758
41.200001	81.487	-152.5172
41.799999	81.522	-153.3227
42.500000	81.517	-154.2907
43.099998	81.508	-154.8625
43.700001	81.538	-155.3336
44.400002	81.609	-156.0963
45.000000	81.661	-156.9254
45.500000	81.696	-157.6084
46.200001	81.750	-158.5891
46.799999	81.781	-159.5879
47.500000	81.751	-160.7146
48.200001	81.676	-161.2983
48.700001	81.649	-161.3734
49.400002	81.678	-161.4420
50.000000	81.729	-161.7680
50.799999	81.764	-162.4904
51.500000	81.754	-163.0715
52.200001	81.739	-163.4557
53.000000	81.757	-163.8331
53.799999	81.791	-164.4884
54.500000	81.787	-165.2170
55.200001	81.755	-165.7492
56.000000	81.753	-166.1044
57.000000	81.806	-166.8672
58.000000	81.796	-167.9157
59.000000	81.758	-168.4849
60.000000	81.782	-168.9733
60.799999	81.795	-169.6358
61.500000	81.771	-170.1848
62.200001	81.742	-170.5336
63.000000	81.738	-170.8358
64.000000	81.757	-171.4499
65.000000	81.744	-172.2329
66.000000	81.713	-172.8265
67.000000	81.708	-173.3346
68.000000	81.706	-173.9868
69.000000	81.674	-174.5852
70.000000	81.644	-174.9636
71.000000	81.633	-175.3498
72.000000	81.607	-175.8579
73.000000	81.556	-176.2921
74.000000	81.510	-176.5870
75.000000	81.486	-176.9217
76.199997	81.460	-177.5103
77.500000	81.422	-178.1074
78.800003	81.408	-178.6854
80.000000	81.392	-179.2562
81.199997	81.376	-179.7227
82.500000	81.366	179.8079
83.800003	81.353	179.3302
85.000000	81.339	178.8715
86.199997	81.318	178.3633
87.500000	81.282	177.8464
88.500000	81.260	177.5176
90.000000	81.247	176.9334
91.199997	81.220	176.3494
92.500000	81.170	175.8690
93.800003	81.136	175.5388
95.000000	81.118	175.1632
96.199997	81.086	174.7433
97.500000	81.043	174.3665
98.800003	81.004	174.0323
100.000000	80.974	173.6903
101.500000	80.928	173.1883
103.000000	80.869	172.7603
104.400002	80.827	172.4658
106.000000	80.797	172.0545
107.500000	80.752	171.5755
109.000000	80.686	171.2143
110.599998	80.633	170.9449
112.000000	80.601	170.6254
113.800003	80.550	170.1493
115.000000	80.507	169.9259
117.199997	80.445	169.7043
118.000000	80.428	169.6078
120.599998	80.359	169.0034
122.000000	80.298	168.6578
124.099998	80.226	168.2973
125.000000	80.204	168.1194
126.500000	80.158	167.8038
128.000000	80.096	167.5590
131.500000	79.976	167.2467
132.000000	79.966	167.1711
134.000000	79.920	166.7425
136.000000	79.840	166.3744
138.000000	79.754	166.2733
140.000000	79.697	166.1898
143.000000	79.619	165.6845
145.000000	79.536	165.4158
147.500000	79.436	165.4338
150.000000	79.361	165.4169
152.500000	79.270	165.2416
155.000000	79.169	165.3188
157.500000	79.102	165.6337
160.000000	79.067	165.8199
162.500000	79.036	165.8120
165.000000	79.017	165.7961
167.500000	79.011	165.7664
170.000000	78.998	165.6445
172.500000	78.967	165.3925
175.000000	78.924	165.0721
177.500000	78.873	164.7770
180.000000	78.821	164.5750
182.500000	78.771	164.4243
185.000000	78.720	164.2733
187.500000	78.666	164.1193
190.000000	78.612	163.9945
192.500000	78.560	163.8972
195.000000	78.506	163.8239
197.500000	78.452	163.7508
200.000000	78.398	163.6801
203.000000	78.335	163.5986
206.000000	78.269	163.5184
209.000000	78.205	163.4583
212.000000	78.148	163.4109
214.000000	78.114	163.3693
218.000000	78.043	163.2921
220.000000	78.009	163.2751
224.000000	77.939	163.2522
227.000000	77.879	163.2602
230.000000	77.818	163.2252
233.000000	77.755	163.1359
236.000000	77.691	163.1010
240.000000	77.614	163.1727
243.000000	77.555	163.2361
247.000000	77.474	163.2928
250.000000	77.413	163.3477
254.000000	77.337	163.4683
258.000000	77.266	163.5974
262.000000	77.193	163.7309
265.000000	77.132	163.8375
269.000000	77.051	164.0339
272.000000	76.998	164.2505
276.000000	76.934	164.5765
280.000000	76.877	164.9328
285.000000	76.834	165.4288
290.000000	76.819	165.7849
295.000000	76.814	165.9699
300.000000	76.800	166.0461
304.000000	76.774	166.0106
307.000000	76.749	165.9677
311.000000	76.707	165.9383
315.000000	76.659	165.9537
320.000000	76.604	165.9902
325.000000	76.544	166.0450
330.000000	76.480	166.1373
335.000000	76.418	166.2674
340.000000	76.356	166.4301
345.000000	76.295	166.6306
350.000000	76.240	166.8845
355.000000	76.191	167.1108
360.000000	76.142	167.3116
365.000000	76.097	167.5165
370.000000	76.053	167.7051
375.000000	76.014	167.8751
382.000000	75.953	168.0927
387.000000	75.904	168.2521
395.000000	75.835	168.5601
400.000000	75.793	168.7684
406.000000	75.740	169.0504
412.000000	75.688	169.3402
418.000000	75.635	169.6093
425.000000	75.576	169.8965
431.000000	75.532	170.1692
437.000000	75.492	170.4589
444.000000	75.438	170.8074
450.000000	75.393	171.1091
455.000000	75.364	171.3383
462.000000	75.322	171.6594
468.000000	75.281	171.9778
475.000000	75.232	172.3573
482.000000	75.187	172.6958
487.000000	75.157	172.9211
494.000000	75.120	173.2535
500.000000	75.086	173.5587
508.000000	75.041	173.9969
515.000000	75.005	174.3714
522.000000	74.964	174.7062
530.000000	74.914	175.0849
538.000000	74.869	175.5050
545.000000	74.837	175.8660
552.000000	74.815	176.2102
560.000000	74.786	176.6203
570.000000	74.740	177.1826
580.000000	74.701	177.8020
590.000000	74.672	178.3586
600.000000	74.639	178.9069
608.000000	74.610	179.3408
615.000000	74.587	179.7256
622.000000	74.566	-179.8794
630.000000	74.540	-179.4413
640.000000	74.508	-178.8815
650.000000	74.482	-178.2962
660.000000	74.465	-177.7090
670.000000	74.448	-177.1150
680.000000	74.422	-176.5240
690.000000	74.399	-175.9552
700.000000	74.391	-175.4169
710.000000	74.386	-174.7997
720.000000	74.373	-174.1784
730.000000	74.365	-173.5972
740.000000	74.362	-172.9775
750.000000	74.363	-172.3703
762.000000	74.363	-171.6983
775.000000	74.370	-170.9227
788.000000	74.383	-170.1093
800.000000	74.392	-169.3999
812.000000	74.407	-168.7174
825.000000	74.430	-167.9727
838.000000	74.457	-167.2269
850.000000	74.489	-166.5735
862.000000	74.526	-165.9317
875.000000	74.564	-165.2215
885.000000	74.594	-164.7085
900.000000	74.645	-163.9807
912.000000	74.687	-163.4334
925.000000	74.726	-162.8338
938.000000	74.765	-162.1888
950.000000	74.807	-161.5779
962.000000	74.852	-160.9236
975.000000	74.901	-160.1400
988.000000	74.963	-159.3206
1000.000000	75.039	-158.6354
1015.000000	75.154	-157.9645
1030.000000	75.271	-157.3960
1044.000000	75.384	-156.9061
1060.000000	75.511	-156.4180
1075.000000	75.621	-156.0168
1090.000000	75.730	-155.6580
1106.000000	75.848	-155.3553
1120.000000	75.947	-155.1356
1138.000000	76.071	-154.9203
1150.000000	76.153	-154.8106
1172.000000	76.294	-154.6652
1180.000000	76.344	-154.6311
1206.000000	76.499	-154.5469
1220.000000	76.577	-154.5152
1241.000000	76.684	-154.4977
1250.000000	76.725	-154.4912
1265.000000	76.792	-154.4793
1280.000000	76.859	-154.4683
1315.000000	77.001	-154.4884
1320.000000	77.021	-154.4939
1340.000000	77.102	-154.4943
1360.000000	77.183	-154.4849
1380.000000	77.265	-154.4875
1400.000000	77.342	-154.5145
1430.000000	77.450	-154.5815
1450.000000	77.514	-154.6508
1475.000000	77.593	-154.7529
1500.000000	77.672	-154.8109
1525.000000	77.748	-154.8706
1550.000000	77.823	-154.9478
1575.000000	77.897	-155.0201
1600.000000	77.972	-155.0646
1625.000000	78.045	-155.1263
1650.000000	78.118	-155.2171
1675.000000	78.191	-155.3247
1700.000000	78.264	-155.4491
1725.000000	78.337	-155.5933
1750.000000	78.411	-155.7523
1775.000000	78.486	-155.9277
1800.000000	78.558	-156.1417
1825.000000	78.629	-156.3866
1850.000000	78.699	-156.6596
1875.000000	78.765	-156.9634
1900.000000	78.825	-157.3046
1925.000000	78.883	-157.6880
1950.000000	78.936	-158.1114
1975.000000	78.983	-158.5575
2000.000000	79.022	-159.0422
2030.000000	79.056	-159.6733
2060.000000	79.073	-160.3237
2090.000000	79.068	-160.9670
2120.000000	79.041	-161.5823
2140.000000	79.012	-161.9505
2180.000000	78.926	-162.4918
2200.000000	78.874	-162.6196
2240.000000	78.776	-162.5246
2270.000000	78.730	-162.2083
2300.000000	78.727	-161.8208
2330.000000	78.770	-161.5538
2360.000000	78.838	-161.5900
2400.000000	78.891	-162.1700
2430.000000	78.863	-162.7444
2470.000000	78.744	-163.2093
2500.000000	78.630	-163.1492
2540.000000	78.490	-162.5493
2580.000000	78.404	-161.5083
2620.000000	78.391	-160.2225
2650.000000	78.430	-159.2346
2690.000000	78.540	-158.0438
2720.000000	78.655	-157.3039
2760.000000	78.837	-156.5632
2800.000000	79.043	-156.1041
2850.000000	79.316	-155.9421
2900.000000	79.590	-156.2265
2950.000000	79.839	-156.8996
3000.000000	80.053	-157.8878
3040.000000	80.197	-158.8329
3070.000000	80.288	-159.6116
3110.000000	80.386	-160.7174
3150.000000	80.457	-161.8623
3200.000000	80.511	-163.3001
3250.000000	80.527	-164.6709
3300.000000	80.519	-165.9343
3350.000000	80.494	-167.1054
3400.000000	80.456	-168.2076
3450.000000	80.404	-169.2396
3500.000000	80.340	-170.1893
3550.000000	80.267	-171.0576
3600.000000	80.189	-171.8723
3650.000000	80.106	-172.6393
3700.000000	80.016	-173.3421
3750.000000	79.917	-174.0115
3820.000000	79.758	-174.9057
3870.000000	79.628	-175.4339
3950.000000	79.404	-176.0098
4000.000000	79.261	-176.1677
4060.000000	79.099	-176.1752
4120.000000	78.951	-176.0647
4180.000000	78.817	-175.8855
4250.000000	78.674	-175.5916
4310.000000	78.567	-175.2640
4370.000000	78.473	-174.8857
4440.000000	78.381	-174.4383
4500.000000	78.313	-174.0613
4550.000000	78.261	-173.7507
4620.000000	78.195	-173.3395
4680.000000	78.144	-173.0202
4750.000000	78.084	-172.6648
4820.000000	78.023	-172.2911
4870.000000	77.976	-172.0045
4940.000000	77.908	-171.5654
5000.000000	77.848	-171.1319
5080.000000	77.771	-170.4217
5150.000000	77.713	-169.6650
5220.000000	77.675	-168.8145
5300.000000	77.660	-167.7548
5380.000000	77.675	-166.6345
5450.000000	77.718	-165.6597
5520.000000	77.786	-164.7457
5600.000000	77.890	-163.7931
5700.000000	78.053	-162.7728
5800.000000	78.242	-161.9919
5900.000000	78.455	-161.4696
6000.000000	78.680	-161.1869
6080.000000	78.864	-161.1363
6150.000000	79.027	-161.2033
6220.000000	79.192	-161.3869
6300.000000	79.383	-161.7540
6400.000000	79.615	-162.4693
6500.000000	79.835	-163.4651
6600.000000	80.031	-164.7038
6700.000000	80.202	-166.1330
6800.000000	80.343	-167.7258
6900.000000	80.448	-169.4782
7000.000000	80.514	-171.3334
7100.000000	80.539	-173.2143
7200.000000	80.528	-175.0578
7300.000000	80.482	-176.8489
7400.000000	80.401	-178.5517
7500.000000	80.288	179.9085
7620.000000	80.124	178.3619
7750.000000	79.934	177.0772
7880.000000	79.750	176.2052
8000.000000	79.615	175.7343
8120.000000	79.530	175.4748
8250.000000	79.510	175.2990
8380.000000	79.580	175.0156
8500.000000	79.729	174.4178
8620.000000	79.946	173.2307
8750.000000	80.216	171.0167
8850.000000	80.411	168.5413
9000.000000	80.603	163.5371
9120.000000	80.602	158.6439
9250.000000	80.399	152.9469
9380.000000	79.981	147.4155
9500.000000	79.431	142.8876
9620.000000	78.767	139.1549
9750.000000	77.969	136.0898
9880.000000	77.137	133.9982
10000.000000	76.369	132.8182
10150.000000	75.438	132.1298
10300.000000	74.544	132.1401
10440.000000	73.746	132.8167
10600.000000	72.921	134.1846
10750.000000	72.232	135.6856
10900.000000	71.602	137.3613
11060.000000	70.982	139.3556
11200.000000	70.487	141.2112
11380.000000	69.917	143.6542
11500.000000	69.575	145.2797
11720.000000	69.006	148.2116
11800.000000	68.814	149.2629
12060.000000	68.233	152.6898
12200.000000	67.950	154.4911
12410.000000	67.576	157.0694
12500.000000	67.431	158.1495
12650.000000	67.201	159.9438
12800.000000	66.985	161.6770
13150.000000	66.544	165.1215
13200.000000	66.488	165.5257
13400.000000	66.260	166.8751
13600.000000	65.992	167.8962
13800.000000	65.638	168.8187
14000.000000	65.188	170.1121
14300.000000	64.473	173.6781
14500.000000	64.105	176.8208
14750.000000	63.791	-179.3187
15000.000000	63.573	-175.7124
15250.000000	63.393	-172.4426
15500.000000	63.243	-169.2327
15750.000000	63.130	-166.0711
16000.000000	63.082	-162.9162
16250.000000	63.121	-159.6700
16500.000000	63.264	-156.4403
16750.000000	63.549	-153.4039
17000.000000	64.049	-150.8758
17250.000000	64.801	-149.4841
17500.000000	65.835	-150.1490
17750.000000	67.049	-154.5749
18000.000000	68.090	-164.8690
18250.000000	68.393	178.7249
18500.000000	67.541	160.6645
18750.000000	65.589	147.2061
19000.000000	62.972	140.7325
19250.000000	60.199	139.8482
19500.000000	57.597	142.6053
19750.000000	55.329	147.2756
20000.000000	53.792	151.0629
