* Measurement data measured by REW V5.20.13
* Source: EXCL: Mic in at rear panel (Pink)(Realtek(R) Audio), MICROPHONE (마스), L, volume: 1.000
* Format: 256k Log Swept Sine, 1 sweep at -12.0 dBFS with no timing reference
* Dated: 2022. 12. 28 오후 1:36:16
* REW Settings:
*  C-weighting compensation: Off
*  Target level: 75.0 dB
* Note: 
* Measurement: R_Comply
* Smoothing: 1/24 octave
* Frequency Step: 1/48 octave
* Start Frequency: 20.300 Hz
*
* Freq(Hz)	SPL(dB)	Phase(degrees)
20.299999	90.174	-140.9487
20.600000	90.205	-141.1642
20.900000	90.269	-141.5402
21.200001	90.327	-141.8793
21.400000	90.365	-142.1000
21.799999	90.438	-142.5798
22.000000	90.473	-142.8537
22.400000	90.535	-143.4609
22.700001	90.574	-143.9406
23.000000	90.607	-144.4122
23.299999	90.638	-144.8597
23.600000	90.671	-145.2842
24.000000	90.724	-145.8349
24.299999	90.769	-146.2605
24.700001	90.833	-146.8624
25.000000	90.878	-147.3311
25.400000	90.931	-147.9434
25.799999	90.979	-148.4962
26.200001	91.030	-148.9766
26.500000	91.072	-149.3082
26.900000	91.133	-149.7503
27.200001	91.178	-150.1032
27.600000	91.231	-150.6080
28.000000	91.274	-151.1247
28.500000	91.313	-151.7228
29.000000	91.347	-152.2313
29.500000	91.384	-152.6876
30.000000	91.426	-153.1622
30.400000	91.458	-153.5769
30.700001	91.479	-153.9033
31.100000	91.504	-154.3433
31.500000	91.526	-154.7776
32.000000	91.550	-155.3061
32.500000	91.574	-155.8165
33.000000	91.601	-156.3069
33.500000	91.636	-156.7887
34.000000	91.674	-157.2872
34.500000	91.710	-157.8094
35.000000	91.739	-158.3297
35.500000	91.765	-158.8179
36.000000	91.791	-159.2763
36.500000	91.817	-159.7296
37.000000	91.838	-160.1846
37.500000	91.854	-160.6149
38.200001	91.872	-161.1325
38.700001	91.891	-161.4682
39.500000	91.930	-162.0668
40.000000	91.951	-162.4904
40.599998	91.969	-163.0016
41.200001	91.982	-163.4727
41.799999	91.997	-163.9005
42.500000	92.021	-164.3763
43.099998	92.047	-164.8014
43.700001	92.072	-165.2621
44.400002	92.092	-165.8162
45.000000	92.100	-166.2553
45.500000	92.104	-166.5777
46.200001	92.113	-166.9825
46.799999	92.126	-167.3291
47.500000	92.144	-167.7798
48.200001	92.158	-168.2737
48.700001	92.165	-168.6248
49.400002	92.172	-169.0822
50.000000	92.181	-169.4478
50.799999	92.198	-169.9348
51.500000	92.215	-170.3804
52.200001	92.228	-170.8369
53.000000	92.236	-171.3309
53.799999	92.240	-171.7569
54.500000	92.246	-172.0987
55.200001	92.253	-172.4569
56.000000	92.258	-172.8917
57.000000	92.260	-173.4299
58.000000	92.259	-173.9634
59.000000	92.253	-174.4897
60.000000	92.244	-174.9631
60.799999	92.243	-175.3112
61.500000	92.248	-175.6199
62.200001	92.255	-175.9438
63.000000	92.261	-176.3310
64.000000	92.262	-176.8358
65.000000	92.257	-177.3300
66.000000	92.248	-177.7808
67.000000	92.239	-178.2054
68.000000	92.230	-178.6167
69.000000	92.223	-179.0242
70.000000	92.215	-179.4240
71.000000	92.207	-179.8148
72.000000	92.199	179.7969
73.000000	92.190	179.4241
74.000000	92.180	179.0595
75.000000	92.170	178.6980
76.199997	92.157	178.2679
77.500000	92.145	177.8100
78.800003	92.135	177.3430
80.000000	92.120	176.8868
81.199997	92.097	176.4658
82.500000	92.074	176.0848
83.800003	92.064	175.6883
85.000000	92.051	175.2553
86.199997	92.036	174.8533
87.500000	92.027	174.4376
88.500000	92.018	174.1195
90.000000	92.003	173.6973
91.199997	91.989	173.3701
92.500000	91.964	173.0359
93.800003	91.939	172.7563
95.000000	91.920	172.4804
96.199997	91.902	172.1683
97.500000	91.883	171.8007
98.800003	91.860	171.4055
100.000000	91.835	171.0639
101.500000	91.805	170.6901
103.000000	91.782	170.3460
104.400002	91.762	170.0066
106.000000	91.733	169.6190
107.500000	91.704	169.3066
109.000000	91.680	169.0070
110.599998	91.654	168.6731
112.000000	91.631	168.3800
113.800003	91.601	168.0107
115.000000	91.580	167.7803
117.199997	91.536	167.4040
118.000000	91.520	167.2826
120.599998	91.480	166.8457
122.000000	91.459	166.5250
124.099998	91.419	166.0515
125.000000	91.400	165.8790
126.500000	91.373	165.6322
128.000000	91.349	165.4041
131.500000	91.292	164.8291
132.000000	91.284	164.7458
134.000000	91.248	164.4332
136.000000	91.210	164.1485
138.000000	91.171	163.8674
140.000000	91.132	163.5877
143.000000	91.077	163.1570
145.000000	91.038	162.8879
147.500000	90.986	162.5918
150.000000	90.940	162.2980
152.500000	90.900	161.9841
155.000000	90.856	161.6931
157.500000	90.808	161.4271
160.000000	90.759	161.1596
162.500000	90.715	160.9183
165.000000	90.673	160.6896
167.500000	90.623	160.4378
170.000000	90.571	160.1701
172.500000	90.527	159.9169
175.000000	90.486	159.7101
177.500000	90.439	159.5449
180.000000	90.387	159.3755
182.500000	90.335	159.1808
185.000000	90.287	159.0005
187.500000	90.243	158.8536
190.000000	90.197	158.7057
192.500000	90.149	158.5483
195.000000	90.105	158.3845
197.500000	90.064	158.2156
200.000000	90.024	158.0618
203.000000	89.974	157.9205
206.000000	89.925	157.7875
209.000000	89.878	157.6511
212.000000	89.831	157.5231
214.000000	89.799	157.4394
218.000000	89.739	157.2720
220.000000	89.709	157.1860
224.000000	89.645	157.0499
227.000000	89.594	156.9918
230.000000	89.543	156.9265
233.000000	89.494	156.8334
236.000000	89.447	156.7526
240.000000	89.389	156.6839
243.000000	89.347	156.6110
247.000000	89.287	156.4788
250.000000	89.237	156.3965
254.000000	89.174	156.3339
258.000000	89.116	156.2899
262.000000	89.061	156.2799
265.000000	89.019	156.3173
269.000000	88.961	156.3480
272.000000	88.919	156.3233
276.000000	88.868	156.2600
280.000000	88.815	156.2188
285.000000	88.748	156.2517
290.000000	88.686	156.2628
295.000000	88.627	156.2631
300.000000	88.571	156.2960
304.000000	88.527	156.3407
307.000000	88.494	156.3636
311.000000	88.452	156.3965
315.000000	88.413	156.4483
320.000000	88.364	156.5057
325.000000	88.316	156.5667
330.000000	88.266	156.6604
335.000000	88.215	156.7546
340.000000	88.168	156.8511
345.000000	88.118	156.9628
350.000000	88.067	157.0712
355.000000	88.017	157.1757
360.000000	87.966	157.2765
365.000000	87.916	157.3647
370.000000	87.868	157.4436
375.000000	87.823	157.5526
382.000000	87.762	157.7753
387.000000	87.716	157.9312
395.000000	87.644	158.1682
400.000000	87.600	158.3130
406.000000	87.545	158.4931
412.000000	87.493	158.6931
418.000000	87.443	158.8887
425.000000	87.388	159.1070
431.000000	87.345	159.3179
437.000000	87.307	159.5417
444.000000	87.263	159.7900
450.000000	87.223	160.0070
455.000000	87.191	160.1879
462.000000	87.150	160.4406
468.000000	87.117	160.6605
475.000000	87.076	160.9138
482.000000	87.035	161.1788
487.000000	87.007	161.3767
494.000000	86.971	161.6517
500.000000	86.943	161.8882
508.000000	86.903	162.2103
515.000000	86.868	162.4996
522.000000	86.837	162.8009
530.000000	86.804	163.1487
538.000000	86.771	163.4968
545.000000	86.745	163.8217
552.000000	86.719	164.1508
560.000000	86.688	164.5030
570.000000	86.655	164.9314
580.000000	86.621	165.3861
590.000000	86.592	165.8406
600.000000	86.567	166.3045
608.000000	86.545	166.6904
615.000000	86.529	167.0456
622.000000	86.512	167.3999
630.000000	86.491	167.7986
640.000000	86.466	168.2829
650.000000	86.448	168.7695
660.000000	86.431	169.2849
670.000000	86.418	169.7898
680.000000	86.403	170.3103
690.000000	86.387	170.8391
700.000000	86.374	171.3495
710.000000	86.364	171.8887
720.000000	86.360	172.4451
730.000000	86.357	172.9790
740.000000	86.358	173.5137
750.000000	86.361	174.0709
762.000000	86.363	174.7466
775.000000	86.371	175.4647
788.000000	86.387	176.1705
800.000000	86.403	176.8323
812.000000	86.426	177.5002
825.000000	86.460	178.2276
838.000000	86.495	178.9610
850.000000	86.530	179.6154
862.000000	86.571	-179.7410
875.000000	86.620	-179.0442
885.000000	86.660	-178.5202
900.000000	86.726	-177.7776
912.000000	86.784	-177.2038
925.000000	86.855	-176.6090
938.000000	86.933	-176.0461
950.000000	87.008	-175.5511
962.000000	87.084	-175.0874
975.000000	87.165	-174.6282
988.000000	87.246	-174.2385
1000.000000	87.321	-173.9081
1015.000000	87.416	-173.4461
1030.000000	87.509	-173.0106
1044.000000	87.593	-172.6545
1060.000000	87.689	-172.2596
1075.000000	87.780	-171.9224
1090.000000	87.875	-171.6269
1106.000000	87.980	-171.3311
1120.000000	88.075	-171.0547
1138.000000	88.203	-170.6966
1150.000000	88.290	-170.4888
1172.000000	88.451	-170.1474
1180.000000	88.511	-170.0337
1206.000000	88.709	-169.7221
1220.000000	88.813	-169.5882
1241.000000	88.967	-169.4271
1250.000000	89.031	-169.3704
1265.000000	89.139	-169.2947
1280.000000	89.247	-169.2457
1315.000000	89.487	-169.1859
1320.000000	89.520	-169.1761
1340.000000	89.648	-169.1360
1360.000000	89.771	-169.1183
1380.000000	89.893	-169.1096
1400.000000	90.019	-169.1078
1430.000000	90.210	-169.1157
1450.000000	90.337	-169.1421
1475.000000	90.495	-169.1694
1500.000000	90.651	-169.2094
1525.000000	90.807	-169.2772
1550.000000	90.963	-169.3631
1575.000000	91.117	-169.4681
1600.000000	91.272	-169.5793
1625.000000	91.427	-169.6964
1650.000000	91.580	-169.8378
1675.000000	91.733	-170.0076
1700.000000	91.886	-170.1886
1725.000000	92.036	-170.3892
1750.000000	92.186	-170.6036
1775.000000	92.336	-170.8295
1800.000000	92.486	-171.0786
1825.000000	92.633	-171.3555
1850.000000	92.780	-171.6540
1875.000000	92.929	-171.9636
1900.000000	93.079	-172.2914
1925.000000	93.228	-172.6571
1950.000000	93.377	-173.0548
1975.000000	93.524	-173.4762
2000.000000	93.669	-173.9243
2030.000000	93.843	-174.4953
2060.000000	94.012	-175.1050
2090.000000	94.180	-175.7631
2120.000000	94.348	-176.4690
2140.000000	94.459	-176.9673
2180.000000	94.675	-178.0209
2200.000000	94.778	-178.5784
2240.000000	94.976	-179.7563
2270.000000	95.116	179.3175
2300.000000	95.251	178.3568
2330.000000	95.378	177.3537
2360.000000	95.499	176.3133
2400.000000	95.647	174.8828
2430.000000	95.747	173.7773
2470.000000	95.867	172.2723
2500.000000	95.946	171.1283
2540.000000	96.038	169.5865
2580.000000	96.112	168.0431
2620.000000	96.169	166.5126
2650.000000	96.201	165.3841
2690.000000	96.229	163.9084
2720.000000	96.240	162.8251
2760.000000	96.242	161.4174
2800.000000	96.230	160.0704
2850.000000	96.199	158.4799
2900.000000	96.152	157.0016
2950.000000	96.092	155.6434
3000.000000	96.022	154.4081
3040.000000	95.961	153.5056
3070.000000	95.914	152.8781
3110.000000	95.848	152.1072
3150.000000	95.780	151.4103
3200.000000	95.694	150.6465
3250.000000	95.609	149.9827
3300.000000	95.527	149.4047
3350.000000	95.448	148.9208
3400.000000	95.374	148.5239
3450.000000	95.311	148.2040
3500.000000	95.260	147.9525
3550.000000	95.217	147.7536
3600.000000	95.182	147.6101
3650.000000	95.152	147.5198
3700.000000	95.129	147.4711
3750.000000	95.114	147.4519
3820.000000	95.104	147.4656
3870.000000	95.103	147.4971
3950.000000	95.111	147.5845
4000.000000	95.124	147.6497
4060.000000	95.150	147.7249
4120.000000	95.189	147.7844
4180.000000	95.239	147.8228
4250.000000	95.305	147.8221
4310.000000	95.368	147.7815
4370.000000	95.432	147.6906
4440.000000	95.506	147.5058
4500.000000	95.574	147.2717
4550.000000	95.633	147.0161
4620.000000	95.719	146.5560
4680.000000	95.795	146.0703
4750.000000	95.882	145.3976
4820.000000	95.962	144.5911
4870.000000	96.011	143.9302
4940.000000	96.064	142.8977
5000.000000	96.095	141.9258
5080.000000	96.114	140.5218
5150.000000	96.104	139.2266
5220.000000	96.068	137.9047
5300.000000	95.994	136.3959
5380.000000	95.885	134.9351
5450.000000	95.762	133.7275
5520.000000	95.614	132.6165
5600.000000	95.417	131.5167
5700.000000	95.142	130.4741
5800.000000	94.857	129.8204
5900.000000	94.585	129.4561
6000.000000	94.318	129.2228
6080.000000	94.096	129.1782
6150.000000	93.901	129.3026
6220.000000	93.713	129.5852
6300.000000	93.510	130.0762
6400.000000	93.281	130.8997
6500.000000	93.086	131.9179
6600.000000	92.926	133.0774
6700.000000	92.805	134.3462
6800.000000	92.731	135.6754
6900.000000	92.721	137.0251
7000.000000	92.777	138.3565
7100.000000	92.891	139.5995
7200.000000	93.057	140.6464
7300.000000	93.267	141.4089
7400.000000	93.512	141.8119
7500.000000	93.785	141.7875
7620.000000	94.144	141.0915
7750.000000	94.528	139.3813
7880.000000	94.789	136.6366
8000.000000	94.887	133.2707
8120.000000	94.823	129.3435
8250.000000	94.545	124.9187
8380.000000	94.053	120.8658
8500.000000	93.437	117.8520
8620.000000	92.704	115.7724
8750.000000	91.824	114.6746
8850.000000	91.126	114.6088
9000.000000	90.098	115.5946
9120.000000	89.314	117.1662
9250.000000	88.515	119.5173
9380.000000	87.777	122.4146
9500.000000	87.154	125.4792
9620.000000	86.588	128.8606
9750.000000	86.040	132.8180
9880.000000	85.562	137.0140
10000.000000	85.180	141.0609
10150.000000	84.782	146.3037
10300.000000	84.468	151.6890
10440.000000	84.250	156.8000
10600.000000	84.089	162.7096
10750.000000	84.028	168.2783
10900.000000	84.056	173.8204
11060.000000	84.184	179.6279
11200.000000	84.383	-175.4333
11380.000000	84.771	-169.3352
11500.000000	85.120	-165.5272
11720.000000	85.964	-159.3580
11800.000000	86.338	-157.4675
12060.000000	87.791	-153.4050
12200.000000	88.672	-153.1186
12410.000000	89.926	-156.3558
12500.000000	90.354	-159.2968
12650.000000	90.787	-166.0530
12800.000000	90.755	-174.0397
13150.000000	88.912	172.3023
13200.000000	88.517	171.5505
13400.000000	86.879	171.6810
13600.000000	85.430	175.7839
13800.000000	84.427	-177.9799
14000.000000	83.911	-171.5226
14300.000000	83.677	-163.9262
14500.000000	83.603	-160.2377
14750.000000	83.490	-156.1496
15000.000000	83.424	-152.0802
15250.000000	83.505	-148.2442
15500.000000	83.805	-145.2800
15750.000000	84.274	-143.9467
16000.000000	84.736	-144.8718
16250.000000	84.988	-148.1147
16500.000000	84.859	-152.7717
16750.000000	84.300	-157.2307
17000.000000	83.404	-160.1017
17250.000000	82.350	-160.9133
17500.000000	81.314	-159.9912
17750.000000	80.380	-157.9762
18000.000000	79.560	-155.5274
18250.000000	78.823	-153.2149
18500.000000	78.100	-151.3685
18750.000000	77.304	-149.9989
19000.000000	76.361	-148.7467
19250.000000	75.213	-146.9960
19500.000000	73.853	-144.1853
19750.000000	72.418	-140.3690
20000.000000	71.340	-137.1738
