* Measurement data measured by REW V5.20.13
* Source: EXCL: Mic in at rear panel (Pink)(Realtek(R) Audio), MICROPHONE (마스), L, volume: 1.000
* Format: 256k Log Swept Sine, 1 sweep at -12.0 dBFS with no timing reference
* Dated: 2022. 12. 28 오전 11:58:30
* REW Settings:
*  C-weighting compensation: Off
*  Target level: 75.0 dB
* Note: 
* Measurement: R_Harman
* Smoothing: 1/24 octave
* Frequency Step: 1/48 octave
* Start Frequency: 20.300 Hz
*
* Freq(Hz)	SPL(dB)	Phase(degrees)
20.299999	83.324	-137.0930
20.600000	83.371	-137.4402
20.900000	83.456	-138.0517
21.200001	83.516	-138.6009
21.400000	83.546	-138.9170
21.799999	83.600	-139.4803
22.000000	83.631	-139.7603
22.400000	83.700	-140.3890
22.700001	83.751	-140.9566
23.000000	83.790	-141.5927
23.299999	83.816	-142.2275
23.600000	83.831	-142.7938
24.000000	83.853	-143.3788
24.299999	83.886	-143.7121
24.700001	83.958	-144.1292
25.000000	84.028	-144.5090
25.400000	84.122	-145.1479
25.799999	84.198	-145.8585
26.200001	84.255	-146.4982
26.500000	84.292	-146.8800
26.900000	84.349	-147.2778
27.200001	84.398	-147.5511
27.600000	84.470	-147.9613
28.000000	84.536	-148.4519
28.500000	84.597	-149.1001
29.000000	84.641	-149.6708
29.500000	84.685	-150.1679
30.000000	84.734	-150.6967
30.400000	84.769	-151.1858
30.700001	84.790	-151.5810
31.100000	84.808	-152.1066
31.500000	84.818	-152.5941
32.000000	84.829	-153.1229
32.500000	84.847	-153.5797
33.000000	84.881	-154.0186
33.500000	84.927	-154.4932
34.000000	84.973	-155.0174
34.500000	85.011	-155.5414
35.000000	85.044	-156.0037
35.500000	85.081	-156.3998
36.000000	85.125	-156.7912
36.500000	85.172	-157.2306
37.000000	85.210	-157.7107
37.500000	85.238	-158.1889
38.200001	85.267	-158.8254
38.700001	85.284	-159.2824
39.500000	85.301	-160.0422
40.000000	85.304	-160.5001
40.599998	85.307	-161.0001
41.200001	85.317	-161.4706
41.799999	85.333	-161.9726
42.500000	85.345	-162.6019
43.099998	85.345	-163.0654
43.700001	85.352	-163.3945
44.400002	85.386	-163.7411
45.000000	85.423	-164.1333
45.500000	85.447	-164.4956
46.200001	85.476	-164.9787
46.799999	85.504	-165.4438
47.500000	85.515	-166.1166
48.200001	85.489	-166.6656
48.700001	85.471	-166.8509
49.400002	85.491	-167.0079
50.000000	85.537	-167.3416
50.799999	85.572	-168.1112
51.500000	85.558	-168.7599
52.200001	85.532	-169.1697
53.000000	85.529	-169.4221
53.799999	85.566	-169.7255
54.500000	85.608	-170.1917
55.200001	85.635	-170.8058
56.000000	85.640	-171.5343
57.000000	85.625	-172.2832
58.000000	85.624	-172.8389
59.000000	85.640	-173.4643
60.000000	85.632	-174.0259
60.799999	85.640	-174.2644
61.500000	85.674	-174.5040
62.200001	85.709	-174.8772
63.000000	85.731	-175.3423
64.000000	85.744	-175.9595
65.000000	85.706	-176.6108
66.000000	85.636	-176.8204
67.000000	85.623	-176.8674
68.000000	85.627	-177.3077
69.000000	85.600	-177.9103
70.000000	85.566	-178.5354
71.000000	85.530	-179.1809
72.000000	85.501	-179.7114
73.000000	85.496	179.8414
74.000000	85.501	179.4231
75.000000	85.496	179.0409
76.199997	85.446	178.7279
77.500000	85.346	178.6633
78.800003	85.182	178.9728
80.000000	85.105	179.8696
81.199997	85.161	179.9102
82.500000	85.144	178.9633
83.800003	85.001	178.3231
85.000000	84.890	178.9714
86.199997	84.957	179.9430
87.500000	85.107	-179.5974
88.500000	85.210	-179.4931
90.000000	85.374	-179.4895
91.199997	85.516	-179.9152
92.500000	85.657	179.0589
93.800003	85.684	177.3318
95.000000	85.568	176.0798
96.199997	85.442	175.5110
97.500000	85.376	175.2588
98.800003	85.393	174.8379
100.000000	85.409	174.1659
101.500000	85.394	173.4931
103.000000	85.376	173.1580
104.400002	85.364	172.9431
106.000000	85.342	172.5588
107.500000	85.304	172.1932
109.000000	85.295	171.7887
110.599998	85.276	171.1810
112.000000	85.243	170.7397
113.800003	85.206	170.1207
115.000000	85.190	169.6436
117.199997	85.256	168.6771
118.000000	85.313	168.1857
120.599998	85.289	166.4877
122.000000	85.166	166.8316
124.099998	85.062	167.5704
125.000000	85.016	167.6533
126.500000	84.940	167.5955
128.000000	84.893	167.4229
131.500000	84.884	167.1317
132.000000	84.881	167.1306
134.000000	84.844	167.0795
136.000000	84.767	166.8590
138.000000	84.711	166.5323
140.000000	84.704	166.1881
143.000000	84.710	166.0557
145.000000	84.693	166.0471
147.500000	84.642	165.6998
150.000000	84.594	164.9806
152.500000	84.571	164.4498
155.000000	84.564	164.2725
157.500000	84.531	164.1262
160.000000	84.478	163.7806
162.500000	84.444	163.3642
165.000000	84.430	162.9499
167.500000	84.409	162.6309
170.000000	84.379	162.3605
172.500000	84.348	162.0993
175.000000	84.311	161.7939
177.500000	84.257	161.5139
180.000000	84.209	161.2810
182.500000	84.173	160.9967
185.000000	84.131	160.6792
187.500000	84.081	160.4299
190.000000	84.036	160.2206
192.500000	83.992	159.9593
195.000000	83.939	159.7062
197.500000	83.892	159.5008
200.000000	83.851	159.2873
203.000000	83.795	159.0409
206.000000	83.731	158.8576
209.000000	83.678	158.6881
212.000000	83.640	158.5137
214.000000	83.615	158.4136
218.000000	83.544	158.2817
220.000000	83.508	158.1975
224.000000	83.437	157.9615
227.000000	83.387	157.8684
230.000000	83.351	157.7776
233.000000	83.318	157.5977
236.000000	83.278	157.4879
240.000000	83.226	157.4451
243.000000	83.175	157.3350
247.000000	83.088	157.1353
250.000000	82.988	157.0520
254.000000	82.890	157.1049
258.000000	82.906	156.8799
262.000000	82.895	156.7530
265.000000	82.850	156.6958
269.000000	82.779	156.6147
272.000000	82.732	156.5963
276.000000	82.675	156.5380
280.000000	82.629	156.4867
285.000000	82.574	156.4573
290.000000	82.512	156.4683
295.000000	82.453	156.4257
300.000000	82.396	156.3837
304.000000	82.342	156.3908
307.000000	82.305	156.3901
311.000000	82.260	156.3688
315.000000	82.219	156.3697
320.000000	82.169	156.3898
325.000000	82.113	156.4289
330.000000	82.057	156.5026
335.000000	82.009	156.6044
340.000000	81.963	156.6992
345.000000	81.904	156.7839
350.000000	81.847	156.8070
355.000000	81.802	156.8615
360.000000	81.760	156.9843
365.000000	81.709	157.0656
370.000000	81.652	157.1326
375.000000	81.600	157.2408
382.000000	81.531	157.4327
387.000000	81.485	157.5472
395.000000	81.412	157.7044
400.000000	81.366	157.8247
406.000000	81.312	157.9583
412.000000	81.258	158.1284
418.000000	81.205	158.3292
425.000000	81.147	158.5423
431.000000	81.103	158.7086
437.000000	81.055	158.9168
444.000000	81.001	159.1367
450.000000	80.955	159.3367
455.000000	80.920	159.5106
462.000000	80.882	159.7568
468.000000	80.847	159.9333
475.000000	80.801	160.1290
482.000000	80.762	160.4302
487.000000	80.737	160.6622
494.000000	80.699	160.9587
500.000000	80.667	161.1851
508.000000	80.623	161.4478
515.000000	80.587	161.6950
522.000000	80.548	161.9601
530.000000	80.511	162.3079
538.000000	80.478	162.6780
545.000000	80.447	162.9619
552.000000	80.419	163.2392
560.000000	80.390	163.6082
570.000000	80.356	164.0926
580.000000	80.320	164.4562
590.000000	80.281	164.8879
600.000000	80.249	165.3920
608.000000	80.228	165.7894
615.000000	80.208	166.1551
622.000000	80.185	166.5285
630.000000	80.161	166.8941
640.000000	80.133	167.2949
650.000000	80.114	167.7579
660.000000	80.094	168.2788
670.000000	80.075	168.8250
680.000000	80.056	169.3761
690.000000	80.034	169.9047
700.000000	80.015	170.4081
710.000000	80.006	170.8940
720.000000	80.000	171.4346
730.000000	79.994	172.0114
740.000000	79.988	172.5946
750.000000	79.988	173.1706
762.000000	79.989	173.8544
775.000000	79.996	174.5727
788.000000	80.018	175.2886
800.000000	80.033	175.9465
812.000000	80.053	176.6283
825.000000	80.075	177.3649
838.000000	80.105	178.1040
850.000000	80.149	178.7612
862.000000	80.193	179.4019
875.000000	80.239	-179.9166
885.000000	80.280	-179.4205
900.000000	80.352	-178.6281
912.000000	80.413	-178.0203
925.000000	80.486	-177.4098
938.000000	80.559	-176.8218
950.000000	80.630	-176.3192
962.000000	80.711	-175.8368
975.000000	80.803	-175.3432
988.000000	80.900	-174.9212
1000.000000	80.991	-174.5757
1015.000000	81.083	-174.1630
1030.000000	81.177	-173.7731
1044.000000	81.275	-173.4088
1060.000000	81.384	-173.1055
1075.000000	81.483	-172.9056
1090.000000	81.580	-172.7205
1106.000000	81.688	-172.5360
1120.000000	81.782	-172.3831
1138.000000	81.897	-172.1996
1150.000000	81.974	-172.0851
1172.000000	82.115	-171.8249
1180.000000	82.166	-171.7243
1206.000000	82.334	-171.4302
1220.000000	82.429	-171.2833
1241.000000	82.567	-171.0789
1250.000000	82.625	-171.0158
1265.000000	82.725	-170.9385
1280.000000	82.825	-170.8815
1315.000000	83.052	-170.7541
1320.000000	83.083	-170.7488
1340.000000	83.204	-170.7612
1360.000000	83.324	-170.7466
1380.000000	83.444	-170.7227
1400.000000	83.564	-170.7214
1430.000000	83.745	-170.7210
1450.000000	83.866	-170.7520
1475.000000	84.015	-170.8003
1500.000000	84.162	-170.8419
1525.000000	84.314	-170.8738
1550.000000	84.465	-170.9112
1575.000000	84.612	-170.9787
1600.000000	84.759	-171.0699
1625.000000	84.905	-171.1643
1650.000000	85.048	-171.2780
1675.000000	85.194	-171.3836
1700.000000	85.340	-171.4910
1725.000000	85.483	-171.6316
1750.000000	85.627	-171.7952
1775.000000	85.773	-171.9551
1800.000000	85.918	-172.1236
1825.000000	86.067	-172.3267
1850.000000	86.218	-172.5581
1875.000000	86.370	-172.8115
1900.000000	86.521	-173.0930
1925.000000	86.672	-173.4004
1950.000000	86.823	-173.7313
1975.000000	86.974	-174.0896
2000.000000	87.127	-174.4727
2030.000000	87.308	-174.9805
2060.000000	87.487	-175.5331
2090.000000	87.667	-176.1270
2120.000000	87.847	-176.7720
2140.000000	87.965	-177.2310
2180.000000	88.193	-178.2358
2200.000000	88.303	-178.7775
2240.000000	88.518	-179.9152
2270.000000	88.676	179.1857
2300.000000	88.827	178.2444
2330.000000	88.973	177.2578
2360.000000	89.112	176.2181
2400.000000	89.282	174.7457
2430.000000	89.399	173.5981
2470.000000	89.542	172.0209
2500.000000	89.639	170.8037
2540.000000	89.752	169.1484
2580.000000	89.846	167.4803
2620.000000	89.920	165.8053
2650.000000	89.962	164.5533
2690.000000	89.998	162.8986
2720.000000	90.013	161.6756
2760.000000	90.020	160.0889
2800.000000	90.008	158.5635
2850.000000	89.972	156.7515
2900.000000	89.917	155.0877
2950.000000	89.846	153.5633
3000.000000	89.764	152.1789
3040.000000	89.697	151.1414
3070.000000	89.646	150.4052
3110.000000	89.573	149.4784
3150.000000	89.493	148.5983
3200.000000	89.383	147.5882
3250.000000	89.267	146.7080
3300.000000	89.143	145.9637
3350.000000	89.017	145.3666
3400.000000	88.894	144.9155
3450.000000	88.781	144.5951
3500.000000	88.683	144.3881
3550.000000	88.594	144.2812
3600.000000	88.517	144.2780
3650.000000	88.450	144.3668
3700.000000	88.397	144.5262
3750.000000	88.359	144.7211
3820.000000	88.327	145.0106
3870.000000	88.312	145.2086
3950.000000	88.296	145.5345
4000.000000	88.293	145.7469
4060.000000	88.295	145.9991
4120.000000	88.306	146.2731
4180.000000	88.329	146.5836
4250.000000	88.366	146.9763
4310.000000	88.406	147.3228
4370.000000	88.453	147.6514
4440.000000	88.518	147.9871
4500.000000	88.586	148.2271
4550.000000	88.652	148.3855
4620.000000	88.755	148.5070
4680.000000	88.851	148.5262
4750.000000	88.971	148.4609
4820.000000	89.095	148.3055
4870.000000	89.186	148.1262
4940.000000	89.311	147.7621
5000.000000	89.418	147.3367
5080.000000	89.559	146.5992
5150.000000	89.673	145.7979
5220.000000	89.772	144.8604
5300.000000	89.862	143.6373
5380.000000	89.923	142.2965
5450.000000	89.949	141.0834
5520.000000	89.949	139.8719
5600.000000	89.921	138.5235
5700.000000	89.849	136.9323
5800.000000	89.740	135.5059
5900.000000	89.610	134.3069
6000.000000	89.469	133.2661
6080.000000	89.344	132.5072
6150.000000	89.223	131.9387
6220.000000	89.094	131.5007
6300.000000	88.944	131.1764
6400.000000	88.759	131.0325
6500.000000	88.591	131.1714
6600.000000	88.453	131.5547
6700.000000	88.352	132.1057
6800.000000	88.293	132.7582
6900.000000	88.293	133.4945
7000.000000	88.360	134.2908
7100.000000	88.494	135.0723
7200.000000	88.692	135.7327
7300.000000	88.957	136.1749
7400.000000	89.290	136.2721
7500.000000	89.696	135.8406
7620.000000	90.274	134.2800
7750.000000	90.926	130.7756
7880.000000	91.402	125.0533
8000.000000	91.561	118.0352
8120.000000	91.370	110.1771
8250.000000	90.746	102.0353
8380.000000	89.758	95.4930
8500.000000	88.641	91.3806
8620.000000	87.433	89.1060
8750.000000	86.111	88.4407
8850.000000	85.130	88.9503
9000.000000	83.756	90.9442
9120.000000	82.752	93.3472
9250.000000	81.756	96.5711
9380.000000	80.851	100.2743
9500.000000	80.092	104.0028
9620.000000	79.399	107.9865
9750.000000	78.722	112.5285
9880.000000	78.120	117.2619
10000.000000	77.625	121.8077
10150.000000	77.083	127.7029
10300.000000	76.624	133.7552
10440.000000	76.266	139.5128
10600.000000	75.935	146.1726
10750.000000	75.695	152.5256
10900.000000	75.524	158.9514
11060.000000	75.419	165.8542
11200.000000	75.398	171.9786
11380.000000	75.480	179.9237
11500.000000	75.604	-174.7921
11720.000000	75.978	-165.1662
11800.000000	76.163	-161.7036
12060.000000	76.985	-150.6413
12200.000000	77.568	-144.8647
12410.000000	78.654	-136.5938
12500.000000	79.222	-133.2785
12650.000000	80.354	-128.2305
12800.000000	81.770	-124.1245
13150.000000	86.084	-123.7124
13200.000000	86.702	-125.5842
13400.000000	88.558	-139.6078
13600.000000	88.862	-159.4047
13800.000000	87.732	-174.1555
14000.000000	86.106	179.5752
14300.000000	84.172	178.1135
14500.000000	83.246	179.0646
14750.000000	82.364	-178.3415
15000.000000	81.834	-174.7542
15250.000000	81.734	-171.3589
15500.000000	82.098	-169.6723
15750.000000	82.741	-171.5336
16000.000000	83.193	-178.2871
16250.000000	82.949	171.3901
16500.000000	81.799	161.9305
16750.000000	79.975	157.0491
17000.000000	77.928	157.1810
17250.000000	76.017	161.0288
17500.000000	74.418	167.2158
17750.000000	73.175	174.7380
18000.000000	72.273	-177.1413
18250.000000	71.693	-168.9669
18500.000000	71.411	-161.2664
18750.000000	71.397	-154.6792
19000.000000	71.577	-149.9443
19250.000000	71.779	-147.8509
19500.000000	71.766	-148.7563
19750.000000	71.385	-151.5544
20000.000000	70.861	-153.8731
