* Measurement data measured by REW V5.20.13
* Source: EXCL: Mic in at rear panel (Pink)(Realtek(R) Audio), MICROPHONE (마스), L, volume: 1.000
* Format: 256k Log Swept Sine, 1 sweep at -12.0 dBFS with no timing reference
* Dated: 2022. 12. 28 오후 1:34:19
* REW Settings:
*  C-weighting compensation: Off
*  Target level: 75.0 dB
* Note: 
* Measurement: L_Comply
* Smoothing: 1/24 octave
* Frequency Step: 1/48 octave
* Start Frequency: 20.300 Hz
*
* Freq(Hz)	SPL(dB)	Phase(degrees)
20.299999	90.390	-142.8546
20.600000	90.424	-143.0781
20.900000	90.489	-143.4694
21.200001	90.546	-143.8234
21.400000	90.580	-144.0475
21.799999	90.645	-144.5096
22.000000	90.676	-144.7616
22.400000	90.735	-145.3090
22.700001	90.776	-145.7493
23.000000	90.813	-146.2077
23.299999	90.848	-146.6775
23.600000	90.882	-147.1540
24.000000	90.926	-147.7908
24.299999	90.958	-148.2603
24.700001	91.001	-148.8620
25.000000	91.034	-149.2887
25.400000	91.081	-149.8266
25.799999	91.133	-150.3453
26.200001	91.187	-150.8673
26.500000	91.227	-151.2656
26.900000	91.273	-151.7937
27.200001	91.301	-152.1704
27.600000	91.332	-152.6270
28.000000	91.362	-153.0272
28.500000	91.403	-153.4796
29.000000	91.450	-153.9379
29.500000	91.494	-154.4376
30.000000	91.531	-154.9650
30.400000	91.555	-155.3793
30.700001	91.571	-155.6756
31.100000	91.594	-156.0557
31.500000	91.620	-156.4381
32.000000	91.655	-156.9555
32.500000	91.688	-157.5262
33.000000	91.715	-158.1095
33.500000	91.738	-158.6550
34.000000	91.762	-159.1455
34.500000	91.790	-159.6058
35.000000	91.823	-160.0695
35.500000	91.855	-160.5542
36.000000	91.882	-161.0494
36.500000	91.901	-161.5272
37.000000	91.914	-161.9573
37.500000	91.925	-162.3282
38.200001	91.947	-162.7836
38.700001	91.968	-163.1137
39.500000	92.003	-163.7172
40.000000	92.020	-164.1261
40.599998	92.034	-164.6107
41.200001	92.046	-165.0685
41.799999	92.058	-165.5039
42.500000	92.077	-166.0021
43.099998	92.096	-166.4414
43.700001	92.114	-166.8964
44.400002	92.128	-167.4117
45.000000	92.138	-167.8147
45.500000	92.148	-168.1395
46.200001	92.162	-168.6120
46.799999	92.167	-169.0199
47.500000	92.169	-169.4508
48.200001	92.178	-169.8508
48.700001	92.189	-170.1524
49.400002	92.201	-170.6013
50.000000	92.208	-170.9786
50.799999	92.217	-171.4609
51.500000	92.226	-171.8859
52.200001	92.233	-172.2996
53.000000	92.240	-172.7368
53.799999	92.249	-173.1734
54.500000	92.250	-173.5647
55.200001	92.246	-173.9281
56.000000	92.244	-174.2992
57.000000	92.251	-174.7761
58.000000	92.255	-175.2998
59.000000	92.256	-175.8270
60.000000	92.252	-176.3615
60.799999	92.242	-176.7590
61.500000	92.237	-177.0576
62.200001	92.238	-177.3450
63.000000	92.239	-177.7030
64.000000	92.233	-178.1612
65.000000	92.226	-178.5911
66.000000	92.217	-179.0021
67.000000	92.209	-179.3950
68.000000	92.203	-179.8039
69.000000	92.193	179.7784
70.000000	92.183	179.3834
71.000000	92.176	178.9869
72.000000	92.167	178.5800
73.000000	92.157	178.2011
74.000000	92.148	177.8417
75.000000	92.138	177.4666
76.199997	92.117	177.0235
77.500000	92.091	176.5922
78.800003	92.066	176.1719
80.000000	92.041	175.7870
81.199997	92.025	175.4188
82.500000	92.016	174.9475
83.800003	92.000	174.4840
85.000000	91.985	174.1172
86.199997	91.973	173.7841
87.500000	91.960	173.4438
88.500000	91.947	173.1750
90.000000	91.921	172.7799
91.199997	91.900	172.4471
92.500000	91.875	172.0774
93.800003	91.853	171.7200
95.000000	91.837	171.3772
96.199997	91.816	171.0392
97.500000	91.789	170.7326
98.800003	91.763	170.4707
100.000000	91.742	170.2285
101.500000	91.716	169.8997
103.000000	91.690	169.5427
104.400002	91.665	169.1945
106.000000	91.635	168.8115
107.500000	91.607	168.4941
109.000000	91.581	168.2008
110.599998	91.555	167.9091
112.000000	91.534	167.6359
113.800003	91.506	167.2365
115.000000	91.483	166.9870
117.199997	91.447	166.6066
118.000000	91.437	166.4756
120.599998	91.395	165.9980
122.000000	91.360	165.7514
124.099998	91.306	165.4316
125.000000	91.286	165.3001
126.500000	91.261	165.0656
128.000000	91.237	164.8114
131.500000	91.177	164.2392
132.000000	91.167	164.1634
134.000000	91.129	163.8729
136.000000	91.090	163.5821
138.000000	91.049	163.3080
140.000000	91.010	163.0654
143.000000	90.955	162.7182
145.000000	90.918	162.4792
147.500000	90.870	162.1875
150.000000	90.818	161.8742
152.500000	90.767	161.5992
155.000000	90.724	161.3595
157.500000	90.683	161.1357
160.000000	90.638	160.9031
162.500000	90.589	160.6467
165.000000	90.540	160.4017
167.500000	90.494	160.1824
170.000000	90.452	159.9713
172.500000	90.407	159.7511
175.000000	90.359	159.5544
177.500000	90.312	159.3893
180.000000	90.265	159.2498
182.500000	90.219	159.1066
185.000000	90.169	158.9608
187.500000	90.120	158.8138
190.000000	90.074	158.6541
192.500000	90.029	158.4954
195.000000	89.986	158.3472
197.500000	89.945	158.2115
200.000000	89.907	158.0884
203.000000	89.861	157.9657
206.000000	89.810	157.8633
209.000000	89.760	157.7490
212.000000	89.712	157.6386
214.000000	89.683	157.5702
218.000000	89.619	157.4364
220.000000	89.587	157.3704
224.000000	89.526	157.2457
227.000000	89.481	157.1761
230.000000	89.433	157.0999
233.000000	89.387	157.0181
236.000000	89.346	156.9406
240.000000	89.297	156.8693
243.000000	89.256	156.8349
247.000000	89.190	156.7896
250.000000	89.143	156.7693
254.000000	89.092	156.7748
258.000000	89.038	156.7413
262.000000	88.978	156.6750
265.000000	88.934	156.6448
269.000000	88.875	156.6030
272.000000	88.835	156.5906
276.000000	88.791	156.6236
280.000000	88.746	156.6403
285.000000	88.683	156.6495
290.000000	88.626	156.7073
295.000000	88.574	156.7617
300.000000	88.524	156.8072
304.000000	88.481	156.8318
307.000000	88.448	156.8525
311.000000	88.410	156.8966
315.000000	88.375	156.9513
320.000000	88.327	157.0157
325.000000	88.279	157.0992
330.000000	88.234	157.2024
335.000000	88.193	157.2838
340.000000	88.147	157.3838
345.000000	88.098	157.4994
350.000000	88.050	157.5909
355.000000	88.006	157.6842
360.000000	87.961	157.7998
365.000000	87.917	157.9189
370.000000	87.873	158.0354
375.000000	87.827	158.1522
382.000000	87.767	158.3436
387.000000	87.725	158.5100
395.000000	87.658	158.7581
400.000000	87.617	158.8961
406.000000	87.570	159.0728
412.000000	87.526	159.2491
418.000000	87.482	159.4200
425.000000	87.433	159.6261
431.000000	87.392	159.8256
437.000000	87.355	160.0137
444.000000	87.310	160.2303
450.000000	87.277	160.4379
455.000000	87.252	160.6159
462.000000	87.215	160.8714
468.000000	87.184	161.0791
475.000000	87.149	161.3323
482.000000	87.116	161.6023
487.000000	87.094	161.7925
494.000000	87.061	162.0412
500.000000	87.031	162.2609
508.000000	86.994	162.5869
515.000000	86.965	162.8846
522.000000	86.937	163.1696
530.000000	86.908	163.4756
538.000000	86.882	163.7794
545.000000	86.858	164.0527
552.000000	86.832	164.3458
560.000000	86.804	164.6788
570.000000	86.776	165.0725
580.000000	86.749	165.4714
590.000000	86.725	165.9104
600.000000	86.701	166.3733
608.000000	86.683	166.7166
615.000000	86.665	167.0065
622.000000	86.646	167.3151
630.000000	86.626	167.6931
640.000000	86.607	168.1826
650.000000	86.591	168.6946
660.000000	86.577	169.1780
670.000000	86.565	169.6297
680.000000	86.553	170.1003
690.000000	86.544	170.5876
700.000000	86.537	171.0797
710.000000	86.531	171.5720
720.000000	86.523	172.0621
730.000000	86.517	172.5611
740.000000	86.519	173.0728
750.000000	86.526	173.5829
762.000000	86.535	174.1936
775.000000	86.548	174.8658
788.000000	86.569	175.5530
800.000000	86.592	176.1698
812.000000	86.616	176.7587
825.000000	86.645	177.4076
838.000000	86.681	178.0685
850.000000	86.717	178.6854
862.000000	86.755	179.2953
875.000000	86.803	179.9324
885.000000	86.845	-179.5927
900.000000	86.913	-178.8998
912.000000	86.970	-178.3787
925.000000	87.035	-177.8490
938.000000	87.104	-177.3380
950.000000	87.170	-176.8877
962.000000	87.243	-176.4473
975.000000	87.324	-175.9879
988.000000	87.408	-175.5800
1000.000000	87.487	-175.2444
1015.000000	87.584	-174.8342
1030.000000	87.683	-174.4647
1044.000000	87.775	-174.1820
1060.000000	87.878	-173.9089
1075.000000	87.969	-173.6950
1090.000000	88.058	-173.5002
1106.000000	88.155	-173.2901
1120.000000	88.241	-173.0992
1138.000000	88.350	-172.8548
1150.000000	88.427	-172.6950
1172.000000	88.574	-172.3898
1180.000000	88.628	-172.2809
1206.000000	88.808	-171.9628
1220.000000	88.906	-171.8302
1241.000000	89.052	-171.6806
1250.000000	89.114	-171.6269
1265.000000	89.218	-171.5585
1280.000000	89.321	-171.5147
1315.000000	89.553	-171.4551
1320.000000	89.586	-171.4495
1340.000000	89.712	-171.4311
1360.000000	89.834	-171.4242
1380.000000	89.955	-171.4263
1400.000000	90.082	-171.4386
1430.000000	90.277	-171.4785
1450.000000	90.406	-171.5291
1475.000000	90.565	-171.6133
1500.000000	90.722	-171.7182
1525.000000	90.878	-171.8517
1550.000000	91.035	-172.0266
1575.000000	91.190	-172.2271
1600.000000	91.343	-172.4463
1625.000000	91.492	-172.6816
1650.000000	91.637	-172.9332
1675.000000	91.783	-173.2026
1700.000000	91.927	-173.4754
1725.000000	92.067	-173.7608
1750.000000	92.203	-174.0550
1775.000000	92.338	-174.3636
1800.000000	92.474	-174.6869
1825.000000	92.609	-175.0112
1850.000000	92.743	-175.3474
1875.000000	92.879	-175.7128
1900.000000	93.014	-176.1020
1925.000000	93.147	-176.5038
1950.000000	93.281	-176.9242
1975.000000	93.413	-177.3738
2000.000000	93.546	-177.8501
2030.000000	93.704	-178.4525
2060.000000	93.860	-179.0921
2090.000000	94.013	-179.7678
2120.000000	94.162	179.5123
2140.000000	94.260	179.0090
2180.000000	94.452	177.9570
2200.000000	94.544	177.3993
2240.000000	94.720	176.2223
2270.000000	94.846	175.3075
2300.000000	94.965	174.3661
2330.000000	95.078	173.3850
2360.000000	95.182	172.3685
2400.000000	95.310	170.9797
2430.000000	95.396	169.9153
2470.000000	95.499	168.4749
2500.000000	95.566	167.3880
2540.000000	95.642	165.9274
2580.000000	95.702	164.4622
2620.000000	95.747	163.0134
2650.000000	95.772	161.9445
2690.000000	95.791	160.5483
2720.000000	95.796	159.5248
2760.000000	95.791	158.2044
2800.000000	95.775	156.9466
2850.000000	95.739	155.4527
2900.000000	95.689	154.0587
2950.000000	95.629	152.7797
3000.000000	95.557	151.6083
3040.000000	95.495	150.7545
3070.000000	95.447	150.1619
3110.000000	95.381	149.4294
3150.000000	95.314	148.7645
3200.000000	95.229	148.0308
3250.000000	95.143	147.3930
3300.000000	95.058	146.8400
3350.000000	94.977	146.3750
3400.000000	94.901	145.9963
3450.000000	94.835	145.6862
3500.000000	94.780	145.4434
3550.000000	94.732	145.2663
3600.000000	94.690	145.1414
3650.000000	94.656	145.0607
3700.000000	94.627	145.0192
3750.000000	94.605	145.0139
3820.000000	94.584	145.0634
3870.000000	94.574	145.1348
3950.000000	94.568	145.2766
4000.000000	94.572	145.3790
4060.000000	94.586	145.5113
4120.000000	94.611	145.6495
4180.000000	94.646	145.7746
4250.000000	94.699	145.8888
4310.000000	94.750	145.9588
4370.000000	94.800	145.9934
4440.000000	94.861	145.9638
4500.000000	94.918	145.8838
4550.000000	94.968	145.7942
4620.000000	95.047	145.6220
4680.000000	95.124	145.3945
4750.000000	95.217	144.9945
4820.000000	95.305	144.4653
4870.000000	95.363	144.0207
4940.000000	95.436	143.3135
5000.000000	95.491	142.6244
5080.000000	95.552	141.5841
5150.000000	95.591	140.5728
5220.000000	95.611	139.4881
5300.000000	95.608	138.1727
5380.000000	95.575	136.8054
5450.000000	95.518	135.6115
5520.000000	95.436	134.4727
5600.000000	95.315	133.2741
5700.000000	95.131	131.9760
5800.000000	94.926	130.9021
5900.000000	94.698	130.0273
6000.000000	94.451	129.4212
6080.000000	94.248	129.1531
6150.000000	94.073	129.0707
6220.000000	93.903	129.1276
6300.000000	93.719	129.3574
6400.000000	93.510	129.8609
6500.000000	93.329	130.5525
6600.000000	93.177	131.3927
6700.000000	93.060	132.3445
6800.000000	92.988	133.3578
6900.000000	92.974	134.4028
7000.000000	93.023	135.4235
7100.000000	93.122	136.3611
7200.000000	93.266	137.1441
7300.000000	93.451	137.6805
7400.000000	93.668	137.9044
7500.000000	93.911	137.7561
7620.000000	94.237	136.9899
7750.000000	94.592	135.3009
7880.000000	94.839	132.6348
8000.000000	94.941	129.3497
8120.000000	94.900	125.4580
8250.000000	94.659	120.9428
8380.000000	94.202	116.6354
8500.000000	93.607	113.2765
8620.000000	92.881	110.7993
8750.000000	91.996	109.2627
8850.000000	91.282	108.8778
9000.000000	90.214	109.4329
9120.000000	89.389	110.6980
9250.000000	88.541	112.7714
9380.000000	87.750	115.4600
9500.000000	87.075	118.3782
9620.000000	86.457	121.6353
9750.000000	85.854	125.4883
9880.000000	85.317	129.6280
10000.000000	84.878	133.6449
10150.000000	84.402	138.8618
10300.000000	84.011	144.2797
10440.000000	83.719	149.4729
10600.000000	83.471	155.4969
10750.000000	83.323	161.2050
10900.000000	83.254	166.9301
11060.000000	83.264	173.0156
11200.000000	83.345	178.2855
11380.000000	83.554	-175.0425
11500.000000	83.760	-170.6685
11720.000000	84.292	-162.8831
11800.000000	84.542	-160.1567
12060.000000	85.612	-151.9340
12200.000000	86.359	-148.1953
12410.000000	87.709	-144.2999
12500.000000	88.362	-143.5703
12650.000000	89.488	-144.1367
12800.000000	90.524	-147.4472
13150.000000	91.538	-164.0568
13200.000000	91.466	-166.5965
13400.000000	90.764	-174.4957
13600.000000	89.788	-178.2607
13800.000000	88.905	-179.5385
14000.000000	88.136	-179.8105
14300.000000	87.039	-178.5295
14500.000000	86.379	-176.3886
14750.000000	85.738	-172.6721
15000.000000	85.366	-168.5821
15250.000000	85.277	-164.9913
15500.000000	85.455	-162.7683
15750.000000	85.775	-162.7061
16000.000000	85.999	-165.1836
16250.000000	85.886	-169.6406
16500.000000	85.304	-174.3954
16750.000000	84.306	-177.6049
17000.000000	83.071	-178.3266
17250.000000	81.810	-176.6678
17500.000000	80.682	-173.2591
17750.000000	79.750	-168.7804
18000.000000	79.019	-163.8907
18250.000000	78.463	-159.1586
18500.000000	78.035	-155.0715
18750.000000	77.672	-151.9616
19000.000000	77.272	-149.9990
19250.000000	76.703	-149.0124
19500.000000	75.870	-148.3937
19750.000000	74.836	-147.4165
20000.000000	73.975	-146.2735
