* Measurement data measured by REW V5.20.7
* Source: 마이크(Realtek High Definition Audi, MICROPHONE (마스), L, volume: 0.050
* Format: 128k Log Swept Sine, 1 sweep at -12.0 dBFS with no timing reference
* Dated: May 5, 2023 5:11:20 PM
* REW Settings:
*  C-weighting compensation: Off
*  Target level: 75.0 dB
* Note: ; 
* Measurement: Rhapsodio Enma R
* Smoothing: 1/48 octave
* Frequency Step: 1/96 octave
* Start Frequency: 20.145 Hz
*
* Freq(Hz)	SPL(dB)	Phase(degrees)
20.144928	90.597	15.9718
20.290907	90.576	15.8414
20.437943	90.555	15.6604
20.586044	90.531	15.4924
20.735220	90.504	15.3270
20.885475	90.477	15.1562
21.036821	90.450	14.9814
21.189262	90.424	14.7977
21.342808	90.399	14.5973
21.497467	90.377	14.3818
21.653246	90.354	14.1472
21.810154	90.331	13.8919
21.968201	90.308	13.6193
22.127390	90.284	13.3292
22.287735	90.259	13.0240
22.449242	90.235	12.7092
22.611917	90.210	12.3837
22.775772	90.186	12.0533
22.940815	90.162	11.7177
23.107054	90.141	11.3773
23.274498	90.122	11.0330
23.443153	90.105	10.6823
23.613033	90.092	10.3242
23.784142	90.081	9.9580
23.956491	90.074	9.5818
24.130091	90.071	9.1972
24.304947	90.068	8.8053
24.481071	90.068	8.4077
24.658470	90.068	8.0108
24.837156	90.069	7.6151
25.017136	90.070	7.2287
25.198421	90.073	6.8515
25.381020	90.076	6.4885
25.564941	90.081	6.1394
25.750195	90.087	5.8039
25.936790	90.095	5.4818
26.124741	90.105	5.1694
26.314051	90.115	4.8668
26.504732	90.126	4.5712
26.696796	90.136	4.2836
26.890253	90.144	4.0048
27.085112	90.150	3.7364
27.281382	90.154	3.4817
27.479073	90.158	3.2413
27.678198	90.161	3.0179
27.878765	90.164	2.8083
28.080786	90.166	2.6129
28.284271	90.169	2.4241
28.489231	90.172	2.2408
28.695675	90.175	2.0549
28.903616	90.177	1.8659
29.113064	90.178	1.6703
29.324028	90.177	1.4704
29.536524	90.175	1.2669
29.750557	90.170	1.0639
29.966141	90.164	0.8626
30.183289	90.157	0.6642
30.402010	90.150	0.4667
30.622314	90.144	0.2675
30.844217	90.137	0.0619
31.067726	90.130	-0.1523
31.292856	90.122	-0.3772
31.519617	90.113	-0.6102
31.748020	90.102	-0.8486
31.978081	90.089	-1.0849
32.209808	90.076	-1.3165
32.443211	90.062	-1.5383
32.678310	90.049	-1.7527
32.915108	90.037	-1.9606
33.153625	90.027	-2.1683
33.393871	90.019	-2.3773
33.635857	90.013	-2.5895
33.879597	90.007	-2.8014
34.125103	90.002	-3.0090
34.372387	89.998	-3.2086
34.621464	89.995	-3.3990
34.872345	89.994	-3.5865
35.125042	89.995	-3.7771
35.379574	89.999	-3.9845
35.635948	90.002	-4.2136
35.894180	90.004	-4.4656
36.154285	90.002	-4.7341
36.416275	89.996	-5.0019
36.680161	89.985	-5.2574
36.945961	89.972	-5.4888
37.213688	89.959	-5.6946
37.483353	89.948	-5.8858
37.754974	89.940	-6.0744
38.028561	89.934	-6.2762
38.304131	89.928	-6.5007
38.581699	89.920	-6.7444
38.861279	89.910	-7.0005
39.142883	89.897	-7.2573
39.426529	89.882	-7.5036
39.712231	89.868	-7.7378
40.000000	89.854	-7.9621
40.289856	89.843	-8.1814
40.581814	89.833	-8.4019
40.875885	89.825	-8.6264
41.172089	89.818	-8.8557
41.470440	89.812	-9.0898
41.770950	89.806	-9.3286
42.073643	89.800	-9.5715
42.378525	89.793	-9.8153
42.685616	89.784	-10.0550
42.994934	89.775	-10.2861
43.306492	89.766	-10.5069
43.620308	89.757	-10.7200
43.936401	89.749	-10.9313
44.254780	89.740	-11.1456
44.575470	89.730	-11.3610
44.898483	89.718	-11.5708
45.223835	89.705	-11.7701
45.551544	89.693	-11.9612
45.881630	89.682	-12.1548
46.214108	89.672	-12.3642
46.548996	89.661	-12.5947
46.886307	89.646	-12.8358
47.226067	89.628	-13.0659
47.568283	89.608	-13.2679
47.912983	89.593	-13.4455
48.260181	89.584	-13.6224
48.609894	89.579	-13.8260
48.962143	89.576	-14.0680
49.316940	89.569	-14.3362
49.674313	89.559	-14.6058
50.034271	89.547	-14.8599
50.396843	89.537	-15.1020
50.762039	89.528	-15.3488
51.129883	89.519	-15.6103
51.500389	89.506	-15.8758
51.873581	89.489	-16.1217
52.249481	89.471	-16.3326
52.628101	89.457	-16.5167
53.009464	89.447	-16.6988
53.393593	89.439	-16.8983
53.780506	89.430	-17.1144
54.170223	89.419	-17.3339
54.562763	89.407	-17.5517
54.958145	89.396	-17.7778
55.356396	89.384	-18.0233
55.757530	89.368	-18.2807
56.161572	89.349	-18.5245
56.568542	89.329	-18.7366
56.978462	89.314	-18.9304
57.391350	89.304	-19.1418
57.807232	89.294	-19.3915
58.226128	89.280	-19.6605
58.648056	89.260	-19.9084
59.073048	89.242	-20.1160
59.501114	89.229	-20.3076
59.932281	89.221	-20.5258
60.366577	89.211	-20.7833
60.804020	89.195	-21.0489
61.244629	89.175	-21.2847
61.688435	89.156	-21.4878
62.135452	89.142	-21.6923
62.585712	89.129	-21.9263
63.039234	89.111	-22.1766
63.496040	89.090	-22.4067
63.956161	89.070	-22.6014
64.419617	89.056	-22.7908
64.886421	89.046	-23.0162
65.356621	89.033	-23.2829
65.830215	89.014	-23.5535
66.307251	88.992	-23.7902
66.787743	88.973	-23.9964
67.271713	88.958	-24.2066
67.759193	88.945	-24.4414
68.250206	88.927	-24.6833
68.744774	88.908	-24.9040
69.242928	88.891	-25.1054
69.744690	88.878	-25.3175
70.250084	88.865	-25.5597
70.759148	88.847	-25.8145
71.271896	88.826	-26.0546
71.788361	88.805	-26.2766
72.308571	88.787	-26.5002
72.832550	88.769	-26.7345
73.360321	88.749	-26.9674
73.891922	88.730	-27.1893
74.427376	88.712	-27.4103
74.966705	88.696	-27.6426
75.509949	88.677	-27.8813
76.057121	88.658	-28.1149
76.608261	88.637	-28.3422
77.163399	88.617	-28.5685
77.722557	88.596	-28.7920
78.285767	88.576	-29.0107
78.853058	88.556	-29.2335
79.424461	88.536	-29.4676
80.000000	88.514	-29.7034
80.579712	88.492	-29.9294
81.163628	88.471	-30.1516
81.751770	88.451	-30.3830
82.344177	88.430	-30.6196
82.940880	88.408	-30.8476
83.541901	88.387	-31.0685
84.147285	88.367	-31.2942
84.757050	88.346	-31.5261
85.371231	88.324	-31.7559
85.989868	88.301	-31.9801
86.612984	88.279	-32.2020
87.240616	88.257	-32.4274
87.872803	88.235	-32.6640
88.509560	88.211	-32.9096
89.150940	88.184	-33.1434
89.796967	88.159	-33.3547
90.447670	88.138	-33.5680
91.103088	88.118	-33.8109
91.763260	88.093	-34.0636
92.428215	88.066	-34.2897
93.097992	88.043	-34.4970
93.772614	88.021	-34.7225
94.452133	87.997	-34.9651
95.136566	87.969	-35.1882
95.825966	87.945	-35.3911
96.520363	87.923	-35.6121
97.219788	87.899	-35.8589
97.924286	87.871	-36.0925
98.633881	87.844	-36.2968
99.348625	87.821	-36.5084
100.068542	87.798	-36.7507
100.793686	87.770	-36.9930
101.524078	87.742	-37.2112
102.259766	87.718	-37.4281
103.000778	87.693	-37.6630
103.747162	87.665	-37.8977
104.498962	87.637	-38.1157
105.256203	87.612	-38.3264
106.018929	87.588	-38.5482
106.787186	87.563	-38.7875
107.561012	87.534	-39.0245
108.340446	87.504	-39.2357
109.125526	87.478	-39.4388
109.916290	87.452	-39.6644
110.712791	87.423	-39.8988
111.515060	87.394	-40.1159
112.323143	87.367	-40.3295
113.137085	87.341	-40.5588
113.956924	87.313	-40.7949
114.782700	87.284	-41.0203
115.614464	87.257	-41.2330
116.452255	87.231	-41.4502
117.296112	87.203	-41.6788
118.146095	87.174	-41.9024
119.002228	87.144	-42.1167
119.864563	87.114	-42.3357
120.733154	87.082	-42.5543
121.608040	87.050	-42.7523
122.489258	87.023	-42.9450
123.376869	86.998	-43.1711
124.270905	86.969	-43.4166
125.171425	86.937	-43.6413
126.078468	86.907	-43.8505
126.992081	86.878	-44.0639
127.912323	86.849	-44.2826
128.839233	86.820	-44.4998
129.772842	86.790	-44.7107
130.713242	86.760	-44.9195
131.660431	86.730	-45.1302
132.614502	86.699	-45.3424
133.575485	86.668	-45.5574
134.543427	86.636	-45.7748
135.518387	86.603	-45.9913
136.500412	86.571	-46.2074
137.489548	86.538	-46.4213
138.485855	86.507	-46.6315
139.489380	86.476	-46.8424
140.500168	86.444	-47.0504
141.518295	86.413	-47.2510
142.543793	86.382	-47.4470
143.576721	86.351	-47.6433
144.617142	86.320	-47.8453
145.665100	86.288	-48.0577
146.720642	86.255	-48.2726
147.783844	86.221	-48.4826
148.854752	86.188	-48.6907
149.933411	86.155	-48.8980
151.019897	86.123	-49.1083
152.114243	86.090	-49.3225
153.216522	86.056	-49.5306
154.326797	86.021	-49.7321
155.445114	85.987	-49.9350
156.571533	85.952	-50.1376
157.706116	85.918	-50.3327
158.848923	85.885	-50.5260
160.000000	85.852	-50.7277
161.159424	85.819	-50.9309
162.327255	85.785	-51.1309
163.503540	85.751	-51.3326
164.688354	85.717	-51.5422
165.881760	85.681	-51.7487
167.083801	85.645	-51.9447
168.294571	85.611	-52.1407
169.514099	85.576	-52.3374
170.742462	85.542	-52.5309
171.979736	85.508	-52.7242
173.225967	85.474	-52.9190
174.481232	85.441	-53.1186
175.745605	85.408	-53.3247
177.019119	85.375	-53.5255
178.301880	85.341	-53.7103
179.593933	85.310	-53.8892
180.895340	85.279	-54.0743
182.206177	85.246	-54.2647
183.526520	85.211	-54.4495
184.856430	85.177	-54.6355
186.195984	85.143	-54.8251
187.545227	85.109	-55.0161
188.904266	85.076	-55.2123
190.273132	85.041	-55.4075
191.651932	85.006	-55.5981
193.040726	84.970	-55.7904
194.439575	84.935	-55.9855
195.848572	84.899	-56.1828
197.267761	84.863	-56.3674
198.697250	84.828	-56.5410
200.137085	84.794	-56.7202
201.587372	84.757	-56.9010
203.048157	84.720	-57.0745
204.519531	84.683	-57.2437
206.001556	84.648	-57.4196
207.494324	84.612	-57.6047
208.997925	84.576	-57.7875
210.512405	84.541	-57.9705
212.037857	84.505	-58.1523
213.574371	84.469	-58.3323
215.122025	84.432	-58.5075
216.680893	84.396	-58.6803
218.251053	84.358	-58.8511
219.832581	84.320	-59.0218
221.425583	84.282	-59.1971
223.030121	84.242	-59.3743
224.646286	84.203	-59.5515
226.274170	84.164	-59.7298
227.913849	84.125	-59.9069
229.565399	84.086	-60.0777
231.228928	84.047	-60.2393
232.904510	84.008	-60.3952
234.592224	83.968	-60.5575
236.292191	83.928	-60.7250
238.004456	83.888	-60.8957
239.729126	83.850	-61.0678
241.466309	83.813	-61.2416
243.216080	83.774	-61.4147
244.978516	83.734	-61.5807
246.753738	83.692	-61.7457
248.541809	83.649	-61.9064
250.342850	83.608	-62.0619
252.156937	83.567	-62.2166
253.984161	83.525	-62.3555
255.824646	83.484	-62.4832
257.678467	83.442	-62.6099
259.545685	83.396	-62.7125
261.426483	83.349	-62.7856
263.320862	83.300	-62.8418
265.229004	83.251	-62.8829
267.150970	83.203	-62.9101
269.086853	83.159	-62.9014
271.036774	83.120	-62.8400
273.000824	83.087	-62.7320
274.979095	83.061	-62.5957
276.971710	83.045	-62.4686
278.978760	83.041	-62.3688
281.000336	83.051	-62.2924
283.036591	83.074	-62.2656
285.087585	83.100	-62.3339
287.153442	83.122	-62.4998
289.234283	83.138	-62.7396
291.330200	83.149	-63.0317
293.441284	83.152	-63.3557
295.567688	83.145	-63.6911
297.709503	83.130	-64.0264
299.866821	83.109	-64.3529
302.039795	83.085	-64.6656
304.228485	83.057	-64.9670
306.433044	83.028	-65.2539
308.653595	82.999	-65.5197
310.890228	82.970	-65.7620
313.143066	82.942	-65.9913
315.412231	82.912	-66.2130
317.697845	82.881	-66.4295
320.000000	82.848	-66.6384
322.318848	82.817	-66.8473
324.654510	82.787	-67.0570
327.007080	82.757	-67.2572
329.376709	82.727	-67.4426
331.763519	82.697	-67.6216
334.167603	82.668	-67.8091
336.589142	82.638	-67.9984
339.028198	82.609	-68.1819
341.484924	82.580	-68.3648
343.959473	82.551	-68.5411
346.451935	82.522	-68.7120
348.962463	82.495	-68.8894
351.491211	82.468	-69.0723
354.038239	82.440	-69.2465
356.603760	82.412	-69.4088
359.187866	82.384	-69.5656
361.790680	82.356	-69.7243
364.412354	82.330	-69.8870
367.053040	82.304	-70.0584
369.712860	82.277	-70.2392
372.391968	82.251	-70.4197
375.090454	82.225	-70.5889
377.808533	82.199	-70.7483
380.546265	82.173	-70.9078
383.303864	82.149	-71.0708
386.081451	82.125	-71.2364
388.879150	82.102	-71.3940
391.697144	82.078	-71.5483
394.535522	82.054	-71.7154
397.394501	82.029	-71.8906
400.274170	82.005	-72.0589
403.174744	81.981	-72.2166
406.096313	81.957	-72.3718
409.039062	81.933	-72.5271
412.003113	81.911	-72.6825
414.988647	81.889	-72.8451
417.995850	81.867	-73.0119
421.024811	81.846	-73.1735
424.075714	81.824	-73.3328
427.148743	81.802	-73.4962
430.244049	81.781	-73.6693
433.361786	81.761	-73.8402
436.502106	81.741	-73.9925
439.665161	81.719	-74.1380
442.851166	81.698	-74.2947
446.060242	81.678	-74.4529
449.292572	81.659	-74.6007
452.548340	81.638	-74.7425
455.827698	81.619	-74.8891
459.130798	81.599	-75.0396
462.457855	81.580	-75.1868
465.809021	81.561	-75.3307
469.184448	81.544	-75.4762
472.584381	81.527	-75.6250
476.008911	81.508	-75.7720
479.458252	81.489	-75.9191
482.932617	81.470	-76.0704
486.432159	81.452	-76.2225
489.957031	81.433	-76.3684
493.507477	81.414	-76.5043
497.083618	81.397	-76.6367
500.685699	81.380	-76.7666
504.313873	81.363	-76.8930
507.968323	81.346	-77.0151
511.649292	81.329	-77.1326
515.356934	81.313	-77.2499
519.091370	81.295	-77.3650
522.852966	81.275	-77.4763
526.641724	81.257	-77.5821
530.458008	81.241	-77.6743
534.301941	81.226	-77.7528
538.173706	81.210	-77.8308
542.073547	81.193	-77.9138
546.001648	81.175	-77.9900
549.958191	81.157	-78.0583
553.943420	81.139	-78.1270
557.957520	81.122	-78.1860
562.000671	81.106	-78.2296
566.073181	81.091	-78.2677
570.175171	81.079	-78.2957
574.306885	81.068	-78.3063
578.468567	81.057	-78.3068
582.660400	81.049	-78.3041
586.882568	81.042	-78.2935
591.135376	81.034	-78.2640
595.419006	81.030	-78.2066
599.733643	81.030	-78.1332
604.079590	81.031	-78.0629
608.456970	81.034	-77.9872
612.866089	81.039	-77.8998
617.307190	81.049	-77.8061
621.780457	81.064	-77.7074
626.286133	81.084	-77.5919
630.824463	81.108	-77.4647
635.395691	81.139	-77.3484
640.000000	81.174	-77.2431
644.637695	81.213	-77.1464
649.309021	81.259	-77.0649
654.014160	81.313	-77.0059
658.753418	81.372	-76.9854
663.527039	81.430	-77.0103
668.335205	81.485	-77.0612
673.178284	81.538	-77.1040
678.056396	81.597	-77.1171
682.969849	81.670	-77.1313
687.918945	81.757	-77.2044
692.903870	81.851	-77.3658
697.924927	81.947	-77.6141
702.982422	82.042	-77.9445
708.076477	82.132	-78.3508
713.207520	82.217	-78.8238
718.375732	82.295	-79.3585
723.581360	82.364	-79.9469
728.824707	82.424	-80.5697
734.106079	82.474	-81.2016
739.425720	82.515	-81.8308
744.783936	82.546	-82.4514
750.180908	82.570	-83.0445
755.617065	82.592	-83.5897
761.092529	82.617	-84.0916
766.607727	82.649	-84.5805
772.162903	82.688	-85.1060
777.758301	82.729	-85.7171
783.394287	82.762	-86.4134
789.071045	82.782	-87.1570
794.789001	82.788	-87.9018
800.548340	82.783	-88.6251
806.349487	82.767	-89.3172
812.192627	82.746	-89.9694
818.078125	82.721	-90.5787
824.006226	82.693	-91.1395
829.977295	82.664	-91.6537
835.991699	82.634	-92.1355
842.049622	82.602	-92.5959
848.151428	82.570	-93.0328
854.297485	82.537	-93.4398
860.488098	82.503	-93.8255
866.723572	82.470	-94.1914
873.004211	82.437	-94.5307
879.330322	82.402	-94.8526
885.702332	82.367	-95.1656
892.120483	82.333	-95.4576
898.585144	82.297	-95.7211
905.096680	82.260	-95.9495
911.655396	82.222	-96.1276
918.261597	82.185	-96.2451
924.915710	82.155	-96.3195
931.618042	82.136	-96.3893
938.368896	82.123	-96.4665
945.168762	82.114	-96.5439
952.017822	82.108	-96.6207
958.916504	82.103	-96.6941
965.865234	82.099	-96.7632
972.864319	82.096	-96.8228
979.914062	82.097	-96.8757
987.014954	82.102	-96.9308
994.167236	82.111	-97.0015
1001.371399	82.122	-97.0974
1008.627747	82.131	-97.2143
1015.936646	82.137	-97.3454
1023.298584	82.145	-97.4785
1030.713867	82.153	-97.6034
1038.182739	82.163	-97.7172
1045.705933	82.174	-97.8260
1053.283447	82.187	-97.9363
1060.916016	82.202	-98.0485
1068.603882	82.217	-98.1587
1076.347412	82.230	-98.2627
1084.147095	82.241	-98.3728
1092.003296	82.255	-98.4969
1099.916382	82.272	-98.6235
1107.886841	82.291	-98.7518
1115.915039	82.312	-98.8840
1124.001343	82.334	-99.0163
1132.146362	82.357	-99.1485
1140.350342	82.381	-99.2820
1148.613770	82.406	-99.4210
1156.937134	82.431	-99.5716
1165.320801	82.455	-99.7317
1173.765137	82.481	-99.9001
1182.270752	82.509	-100.0732
1190.838013	82.537	-100.2517
1199.467285	82.565	-100.4404
1208.159180	82.597	-100.6317
1216.913940	82.633	-100.8294
1225.732178	82.673	-101.0282
1234.614380	82.715	-101.2259
1243.560913	82.758	-101.4338
1252.572266	82.801	-101.6521
1261.648926	82.843	-101.8732
1270.791382	82.887	-102.0958
1280.000000	82.930	-102.3157
1289.275391	82.973	-102.5422
1298.618042	83.017	-102.7810
1308.028320	83.061	-103.0193
1317.506836	83.106	-103.2563
1327.054077	83.150	-103.4942
1336.670410	83.195	-103.7346
1346.356567	83.240	-103.9850
1356.112793	83.287	-104.2402
1365.939697	83.337	-104.4998
1375.837891	83.389	-104.7642
1385.807739	83.442	-105.0302
1395.849854	83.494	-105.3037
1405.964844	83.546	-105.5793
1416.152954	83.599	-105.8583
1426.415039	83.654	-106.1493
1436.751465	83.708	-106.4412
1447.162720	83.762	-106.7303
1457.649414	83.816	-107.0299
1468.212158	83.869	-107.3402
1478.851440	83.924	-107.6501
1489.567871	83.979	-107.9522
1500.361816	84.035	-108.2574
1511.234131	84.091	-108.5746
1522.185059	84.146	-108.9013
1533.215454	84.198	-109.2290
1544.325806	84.248	-109.5634
1555.516602	84.297	-109.9017
1566.788574	84.346	-110.2388
1578.142090	84.397	-110.5836
1589.578003	84.449	-110.9401
1601.096680	84.501	-111.3048
1612.698975	84.552	-111.6727
1624.385254	84.603	-112.0415
1636.156250	84.654	-112.4185
1648.012451	84.705	-112.8089
1659.954590	84.757	-113.2082
1671.983398	84.810	-113.6087
1684.099243	84.863	-114.0141
1696.302856	84.916	-114.4297
1708.594971	84.968	-114.8549
1720.976196	85.022	-115.2841
1733.447144	85.077	-115.7206
1746.008423	85.132	-116.1693
1758.660645	85.187	-116.6289
1771.404663	85.242	-117.0901
1784.240967	85.298	-117.5554
1797.170288	85.353	-118.0342
1810.193359	85.409	-118.5221
1823.310791	85.464	-119.0177
1836.523193	85.518	-119.5207
1849.831421	85.573	-120.0274
1863.236084	85.627	-120.5370
1876.737793	85.681	-121.0548
1890.337524	85.734	-121.5875
1904.035645	85.787	-122.1329
1917.833008	85.840	-122.6882
1931.730469	85.892	-123.2638
1945.728638	85.944	-123.8563
1959.828125	85.995	-124.4617
1974.029907	86.045	-125.0884
1988.334473	86.095	-125.7306
2002.742798	86.143	-126.3815
2017.255493	86.191	-127.0472
2031.873291	86.237	-127.7367
2046.597168	86.282	-128.4413
2061.427734	86.326	-129.1595
2076.365479	86.367	-129.8917
2091.411865	86.405	-130.6420
2106.566895	86.441	-131.4076
2121.832031	86.475	-132.1902
2137.207764	86.506	-132.9898
2152.694824	86.534	-133.8009
2168.294189	86.559	-134.6273
2184.006592	86.581	-135.4691
2199.832764	86.598	-136.3204
2215.773682	86.612	-137.1855
2231.830078	86.621	-138.0632
2248.002686	86.626	-138.9511
2264.292725	86.628	-139.8526
2280.700684	86.624	-140.7584
2297.227539	86.616	-141.6670
2313.874268	86.603	-142.5859
2330.641602	86.587	-143.5115
2347.530273	86.565	-144.4377
2364.541504	86.537	-145.3675
2381.676025	86.505	-146.2944
2398.934570	86.467	-147.2221
2416.318359	86.425	-148.1533
2433.827881	86.377	-149.0750
2451.464355	86.324	-149.9802
2469.228760	86.266	-150.8778
2487.121826	86.203	-151.7670
2505.144531	86.135	-152.6399
2523.297852	86.061	-153.4928
2541.582764	85.981	-154.3269
2560.000000	85.896	-155.1431
2578.550781	85.806	-155.9405
2597.236084	85.713	-156.7157
2616.056641	85.615	-157.4643
2635.013672	85.513	-158.1803
2654.108154	85.406	-158.8591
2673.340820	85.296	-159.5033
2692.713135	85.181	-160.1177
2712.225586	85.065	-160.6989
2731.879395	84.946	-161.2392
2751.675781	84.824	-161.7403
2771.615479	84.700	-162.2059
2791.699707	84.575	-162.6382
2811.929688	84.448	-163.0307
2832.305908	84.320	-163.3803
2852.830078	84.189	-163.6925
2873.502930	84.057	-163.9712
2894.325439	83.924	-164.2197
2915.298828	83.790	-164.4380
2936.424316	83.655	-164.6168
2957.702881	83.517	-164.7446
2979.135742	83.377	-164.8330
3000.723633	83.234	-164.8869
3022.468262	83.090	-164.8942
3044.370117	82.946	-164.8520
3066.430908	82.799	-164.7533
3088.651611	82.652	-164.5961
3111.033203	82.506	-164.3829
3133.577148	82.359	-164.1153
3156.284180	82.213	-163.7958
3179.156006	82.066	-163.4162
3202.193359	81.921	-162.9643
3225.397949	81.777	-162.4318
3248.770508	81.636	-161.8230
3272.312500	81.497	-161.1369
3296.024902	81.362	-160.3615
3319.909180	81.236	-159.4899
3343.966797	81.117	-158.5276
3368.198486	81.009	-157.4743
3392.605713	80.913	-156.3233
3417.189941	80.833	-155.0788
3441.952393	80.775	-153.7513
3466.894287	80.741	-152.3660
3492.016846	80.734	-150.9599
3517.321289	80.758	-149.5720
3542.809326	80.812	-148.2316
3568.481934	80.894	-146.9790
3594.340576	81.002	-145.8682
3620.386719	81.132	-144.9437
3646.621582	81.275	-144.2405
3673.046387	81.425	-143.7827
3699.662842	81.575	-143.5989
3726.472168	81.711	-143.6999
