* Measurement data measured by REW V5.20.7
* Source: 마이크(Realtek High Definition Audi, MICROPHONE (마스), L, volume: 0.050
* Format: 128k Log Swept Sine, 1 sweep at -12.0 dBFS with no timing reference
* Dated: May 5, 2023 5:11:52 PM
* REW Settings:
*  C-weighting compensation: Off
*  Target level: 75.0 dB
* Note: ; 
* Measurement: Rhapsodio Enma L
* Smoothing: 1/48 octave
* Frequency Step: 1/96 octave
* Start Frequency: 20.145 Hz
*
* Freq(Hz)	SPL(dB)	Phase(degrees)
20.144928	90.403	16.3919
20.290907	90.386	16.2514
20.437943	90.369	16.0548
20.586044	90.350	15.8659
20.735220	90.326	15.6735
20.885475	90.301	15.4756
21.036821	90.274	15.2741
21.189262	90.247	15.0664
21.342808	90.221	14.8500
21.497467	90.196	14.6254
21.653246	90.171	14.3904
21.810154	90.145	14.1447
21.968201	90.120	13.8876
22.127390	90.096	13.6183
22.287735	90.072	13.3365
22.449242	90.049	13.0413
22.611917	90.027	12.7326
22.775772	90.007	12.4100
22.940815	89.988	12.0731
23.107054	89.970	11.7231
23.274498	89.954	11.3593
23.443153	89.939	10.9844
23.613033	89.925	10.5989
23.784142	89.913	10.2059
23.956491	89.904	9.8087
24.130091	89.896	9.4089
24.304947	89.889	9.0124
24.481071	89.883	8.6196
24.658470	89.878	8.2367
24.837156	89.875	7.8634
25.017136	89.874	7.5035
25.198421	89.875	7.1568
25.381020	89.878	6.8233
25.564941	89.883	6.5028
25.750195	89.891	6.1919
25.936790	89.901	5.8906
26.124741	89.913	5.5944
26.314051	89.926	5.3034
26.504732	89.940	5.0145
26.696796	89.953	4.7288
26.890253	89.964	4.4462
27.085112	89.972	4.1686
27.281382	89.979	3.8988
27.479073	89.985	3.6390
27.678198	89.988	3.3924
27.878765	89.990	3.1598
28.080786	89.991	2.9428
28.284271	89.991	2.7386
28.489231	89.990	2.5468
28.695675	89.990	2.3611
28.903616	89.989	2.1799
29.113064	89.987	1.9971
29.324028	89.986	1.8115
29.536524	89.983	1.6204
29.750557	89.978	1.4251
29.966141	89.972	1.2258
30.183289	89.966	1.0258
30.402010	89.958	0.8256
30.622314	89.949	0.6272
30.844217	89.941	0.4290
31.067726	89.932	0.2302
31.292856	89.924	0.0269
31.519617	89.916	-0.1826
31.748020	89.908	-0.4010
31.978081	89.900	-0.6279
32.209808	89.892	-0.8626
32.443211	89.883	-1.1020
32.678310	89.873	-1.3428
32.915108	89.863	-1.5829
33.153625	89.854	-1.8201
33.393871	89.846	-2.0550
33.635857	89.840	-2.2881
33.879597	89.835	-2.5215
34.125103	89.831	-2.7551
34.372387	89.826	-2.9889
34.621464	89.822	-3.2201
34.872345	89.817	-3.4461
35.125042	89.812	-3.6649
35.379574	89.807	-3.8748
35.635948	89.802	-4.0784
35.894180	89.799	-4.2781
36.154285	89.797	-4.4793
36.416275	89.795	-4.6866
36.680161	89.793	-4.9020
36.945961	89.790	-5.1265
37.213688	89.786	-5.3570
37.483353	89.780	-5.5896
37.754974	89.771	-5.8206
38.028561	89.762	-6.0464
38.304131	89.751	-6.2657
38.581699	89.739	-6.4800
38.861279	89.729	-6.6916
39.142883	89.719	-6.9039
39.426529	89.710	-7.1212
39.712231	89.702	-7.3460
40.000000	89.694	-7.5792
40.289856	89.686	-7.8205
40.581814	89.677	-8.0669
40.875885	89.667	-8.3134
41.172089	89.657	-8.5553
41.470440	89.646	-8.7891
41.770950	89.636	-9.0130
42.073643	89.627	-9.2286
42.378525	89.619	-9.4406
42.685616	89.613	-9.6538
42.994934	89.607	-9.8710
43.306492	89.601	-10.0925
43.620308	89.593	-10.3158
43.936401	89.585	-10.5369
44.254780	89.576	-10.7526
44.575470	89.566	-10.9634
44.898483	89.557	-11.1726
45.223835	89.548	-11.3843
45.551544	89.538	-11.6014
45.881630	89.527	-11.8236
46.214108	89.514	-12.0479
46.548996	89.501	-12.2710
46.886307	89.488	-12.4912
47.226067	89.474	-12.7107
47.568283	89.462	-12.9342
47.912983	89.451	-13.1650
48.260181	89.440	-13.4026
48.609894	89.428	-13.6420
48.962143	89.415	-13.8775
49.316940	89.403	-14.1061
49.674313	89.393	-14.3299
50.034271	89.383	-14.5549
50.396843	89.375	-14.7866
50.762039	89.366	-15.0254
51.129883	89.357	-15.2661
51.500389	89.345	-15.5012
51.873581	89.334	-15.7266
52.249481	89.322	-15.9440
52.628101	89.312	-16.1589
53.009464	89.301	-16.3764
53.393593	89.290	-16.5966
53.780506	89.278	-16.8159
54.170223	89.264	-17.0309
54.562763	89.250	-17.2423
54.958145	89.236	-17.4545
55.356396	89.223	-17.6722
55.757530	89.210	-17.8965
56.161572	89.196	-18.1252
56.568542	89.181	-18.3554
56.978462	89.166	-18.5859
57.391350	89.151	-18.8165
57.807232	89.136	-19.0466
58.226128	89.121	-19.2741
58.648056	89.106	-19.4979
59.073048	89.091	-19.7197
59.501114	89.078	-19.9430
59.932281	89.064	-20.1697
60.366577	89.050	-20.3977
60.804020	89.035	-20.6231
61.244629	89.021	-20.8448
61.688435	89.006	-21.0665
62.135452	88.992	-21.2940
62.585712	88.978	-21.5297
63.039234	88.962	-21.7706
63.496040	88.945	-22.0103
63.956161	88.927	-22.2441
64.419617	88.910	-22.4723
64.886421	88.894	-22.6977
65.356621	88.878	-22.9224
65.830215	88.862	-23.1458
66.307251	88.847	-23.3671
66.787743	88.833	-23.5889
67.271713	88.820	-23.8164
67.759193	88.806	-24.0527
68.250206	88.791	-24.2942
68.744774	88.774	-24.5327
69.242928	88.756	-24.7631
69.744690	88.737	-24.9866
70.250084	88.718	-25.2081
70.759148	88.700	-25.4300
71.271896	88.681	-25.6527
71.788361	88.663	-25.8786
72.308571	88.646	-26.1117
72.832550	88.628	-26.3518
73.360321	88.608	-26.5909
73.891922	88.589	-26.8217
74.427376	88.571	-27.0452
74.966705	88.554	-27.2695
75.509949	88.537	-27.5010
76.057121	88.520	-27.7372
76.608261	88.500	-27.9707
77.163399	88.480	-28.1965
77.722557	88.460	-28.4159
78.285767	88.440	-28.6353
78.853058	88.421	-28.8614
79.424461	88.400	-29.0944
80.000000	88.378	-29.3264
80.579712	88.356	-29.5527
81.163628	88.335	-29.7785
81.751770	88.315	-30.0108
82.344177	88.293	-30.2461
82.940880	88.272	-30.4763
83.541901	88.252	-30.7047
84.147285	88.232	-30.9406
84.757050	88.211	-31.1812
85.371231	88.188	-31.4155
85.989868	88.165	-31.6417
86.612984	88.143	-31.8666
87.240616	88.120	-32.0914
87.872803	88.098	-32.3156
88.509560	88.076	-32.5445
89.150940	88.053	-32.7781
89.796967	88.030	-33.0084
90.447670	88.007	-33.2353
91.103088	87.984	-33.4676
91.763260	87.961	-33.7017
92.428215	87.937	-33.9279
93.097992	87.914	-34.1501
93.772614	87.891	-34.3781
94.452133	87.867	-34.6086
95.136566	87.842	-34.8356
95.825966	87.818	-35.0611
96.520363	87.793	-35.2851
97.219788	87.769	-35.5056
97.924286	87.745	-35.7253
98.633881	87.720	-35.9461
99.348625	87.696	-36.1676
100.068542	87.672	-36.3928
100.793686	87.647	-36.6222
101.524078	87.621	-36.8502
102.259766	87.595	-37.0770
103.000778	87.570	-37.3094
103.747162	87.543	-37.5456
104.498962	87.516	-37.7772
105.256203	87.490	-38.0019
106.018929	87.465	-38.2263
106.787186	87.441	-38.4562
107.561012	87.415	-38.6871
108.340446	87.388	-38.9107
109.125526	87.361	-39.1254
109.916290	87.335	-39.3379
110.712791	87.309	-39.5584
111.515060	87.282	-39.7876
112.323143	87.253	-40.0158
113.137085	87.224	-40.2410
113.956924	87.195	-40.4672
114.782700	87.166	-40.6901
115.614464	87.138	-40.9098
116.452255	87.110	-41.1305
117.296112	87.083	-41.3479
118.146095	87.056	-41.5645
119.002228	87.029	-41.7899
119.864563	87.000	-42.0178
120.733154	86.970	-42.2399
121.608040	86.941	-42.4599
122.489258	86.911	-42.6777
123.376869	86.882	-42.8921
124.270905	86.854	-43.1079
125.171425	86.825	-43.3278
126.078468	86.796	-43.5513
126.992081	86.765	-43.7743
127.912323	86.734	-43.9913
128.839233	86.704	-44.2018
129.772842	86.674	-44.4100
130.713242	86.646	-44.6230
131.660431	86.617	-44.8431
132.614502	86.587	-45.0626
133.575485	86.556	-45.2740
134.543427	86.526	-45.4804
135.518387	86.497	-45.6896
136.500412	86.467	-45.9036
137.489548	86.436	-46.1203
138.485855	86.404	-46.3369
139.489380	86.372	-46.5517
140.500168	86.340	-46.7656
141.518295	86.308	-46.9793
142.543793	86.276	-47.1883
143.576721	86.244	-47.3915
144.617142	86.213	-47.5981
145.665100	86.181	-47.8119
146.720642	86.148	-48.0259
147.783844	86.115	-48.2373
148.854752	86.081	-48.4504
149.933411	86.048	-48.6637
151.019897	86.014	-48.8763
152.114243	85.981	-49.0852
153.216522	85.947	-49.2913
154.326797	85.914	-49.4955
155.445114	85.880	-49.6931
156.571533	85.847	-49.8913
157.706116	85.813	-50.0977
158.848923	85.777	-50.3052
160.000000	85.741	-50.5079
161.159424	85.705	-50.7072
162.327255	85.672	-50.9130
163.503540	85.638	-51.1272
164.688354	85.604	-51.3347
165.881760	85.569	-51.5366
167.083801	85.534	-51.7403
168.294571	85.498	-51.9414
169.514099	85.463	-52.1406
170.742462	85.428	-52.3438
171.979736	85.393	-52.5423
173.225967	85.360	-52.7333
174.481232	85.327	-52.9230
175.745605	85.295	-53.1171
177.019119	85.262	-53.3125
178.301880	85.228	-53.5080
179.593933	85.193	-53.7022
180.895340	85.157	-53.8889
182.206177	85.122	-54.0770
183.526520	85.087	-54.2702
184.856430	85.052	-54.4672
186.195984	85.016	-54.6666
187.545227	84.980	-54.8666
188.904266	84.944	-55.0690
190.273132	84.908	-55.2632
191.651932	84.872	-55.4485
193.040726	84.835	-55.6300
194.439575	84.797	-55.8114
195.848572	84.758	-55.9934
197.267761	84.719	-56.1755
198.697250	84.681	-56.3674
200.137085	84.641	-56.5608
201.587372	84.601	-56.7374
203.048157	84.562	-56.9026
204.519531	84.522	-57.0644
206.001556	84.480	-57.2264
207.494324	84.437	-57.3888
208.997925	84.395	-57.5463
210.512405	84.355	-57.7062
212.037857	84.315	-57.8671
213.574371	84.274	-58.0172
215.122025	84.232	-58.1538
216.680893	84.188	-58.2765
218.251053	84.143	-58.3925
219.832581	84.097	-58.4968
221.425583	84.053	-58.5855
223.030121	84.009	-58.6616
224.646286	83.967	-58.7263
226.274170	83.926	-58.7790
227.913849	83.888	-58.8215
229.565399	83.853	-58.8572
231.228928	83.822	-58.8830
232.904510	83.795	-58.9067
234.592224	83.773	-58.9466
236.292191	83.751	-59.0150
238.004456	83.729	-59.1098
239.729126	83.708	-59.2140
241.466309	83.687	-59.3193
243.216080	83.668	-59.4100
244.978516	83.650	-59.4821
246.753738	83.634	-59.5439
248.541809	83.623	-59.6141
250.342850	83.616	-59.7159
252.156937	83.612	-59.8539
253.984161	83.610	-60.0244
255.824646	83.608	-60.2250
257.678467	83.605	-60.4614
259.545685	83.597	-60.7372
261.426483	83.582	-61.0315
263.320862	83.562	-61.3264
265.229004	83.539	-61.6257
267.150970	83.513	-61.9247
269.086853	83.485	-62.2141
271.036774	83.455	-62.4891
273.000824	83.424	-62.7485
274.979095	83.392	-62.9948
276.971710	83.360	-63.2327
278.978760	83.327	-63.4667
281.000336	83.292	-63.6912
283.036591	83.258	-63.9076
285.087585	83.226	-64.1234
287.153442	83.193	-64.3333
289.234283	83.161	-64.5351
291.330200	83.127	-64.7329
293.441284	83.094	-64.9304
295.567688	83.060	-65.1289
297.709503	83.028	-65.3256
299.866821	82.996	-65.5154
302.039795	82.963	-65.6927
304.228485	82.930	-65.8631
306.433044	82.897	-66.0337
308.653595	82.863	-66.2039
310.890228	82.830	-66.3737
313.143066	82.799	-66.5420
315.412231	82.769	-66.7065
317.697845	82.739	-66.8725
320.000000	82.708	-67.0386
322.318848	82.677	-67.2023
324.654510	82.648	-67.3671
327.007080	82.618	-67.5271
329.376709	82.587	-67.6770
331.763519	82.557	-67.8218
334.167603	82.528	-67.9730
336.589142	82.498	-68.1274
339.028198	82.470	-68.2812
341.484924	82.442	-68.4370
343.959473	82.414	-68.5897
346.451935	82.387	-68.7363
348.962463	82.359	-68.8825
351.491211	82.332	-69.0300
354.038239	82.304	-69.1828
356.603760	82.277	-69.3418
359.187866	82.249	-69.4996
361.790680	82.221	-69.6552
364.412354	82.193	-69.8071
367.053040	82.166	-69.9570
369.712860	82.140	-70.1087
372.391968	82.113	-70.2616
375.090454	82.086	-70.4099
377.808533	82.059	-70.5599
380.546265	82.032	-70.7158
383.303864	82.005	-70.8683
386.081451	81.978	-71.0161
388.879150	81.951	-71.1591
391.697144	81.925	-71.3001
394.535522	81.899	-71.4416
397.394501	81.873	-71.5814
400.274170	81.848	-71.7204
403.174744	81.822	-71.8574
406.096313	81.797	-71.9931
409.039062	81.773	-72.1292
412.003113	81.748	-72.2655
414.988647	81.724	-72.3991
417.995850	81.701	-72.5277
421.024811	81.676	-72.6527
424.075714	81.651	-72.7776
427.148743	81.628	-72.9016
430.244049	81.605	-73.0281
433.361786	81.582	-73.1547
436.502106	81.559	-73.2703
439.665161	81.536	-73.3779
442.851166	81.514	-73.4922
446.060242	81.492	-73.6097
449.292572	81.470	-73.7141
452.548340	81.448	-73.8088
455.827698	81.425	-73.9051
459.130798	81.403	-74.0043
462.457855	81.382	-74.1033
465.809021	81.361	-74.1967
469.184448	81.340	-74.2838
472.584381	81.319	-74.3639
476.008911	81.299	-74.4364
479.458252	81.279	-74.5038
482.932617	81.258	-74.5705
486.432159	81.237	-74.6367
489.957031	81.218	-74.6918
493.507477	81.200	-74.7326
497.083618	81.180	-74.7685
500.685699	81.161	-74.7980
504.313873	81.144	-74.8150
507.968323	81.129	-74.8256
511.649292	81.115	-74.8322
515.356934	81.102	-74.8314
519.091370	81.089	-74.8181
522.852966	81.075	-74.7888
526.641724	81.063	-74.7494
530.458008	81.053	-74.7009
534.301941	81.046	-74.6460
538.173706	81.039	-74.5832
542.073547	81.034	-74.5060
546.001648	81.031	-74.4170
549.958191	81.030	-74.3208
553.943420	81.030	-74.2102
557.957520	81.033	-74.0842
562.000671	81.040	-73.9470
566.073181	81.051	-73.8095
570.175171	81.066	-73.6783
574.306885	81.083	-73.5444
578.468567	81.105	-73.4010
582.660400	81.133	-73.2483
586.882568	81.166	-73.0949
591.135376	81.202	-72.9550
595.419006	81.241	-72.8168
599.733643	81.286	-72.6666
604.079590	81.338	-72.5244
608.456970	81.398	-72.4078
612.866089	81.466	-72.3153
617.307190	81.540	-72.2670
621.780457	81.618	-72.2715
626.286133	81.697	-72.3111
630.824463	81.779	-72.3847
635.395691	81.864	-72.5078
640.000000	81.949	-72.6812
644.637695	82.035	-72.8936
649.309021	82.124	-73.1433
654.014160	82.214	-73.4390
658.753418	82.303	-73.7878
663.527039	82.390	-74.1869
668.335205	82.475	-74.6306
673.178284	82.557	-75.1200
678.056396	82.635	-75.6629
682.969849	82.706	-76.2629
687.918945	82.770	-76.9093
692.903870	82.823	-77.5759
697.924927	82.868	-78.2313
702.982422	82.909	-78.8653
708.076477	82.949	-79.4958
713.207520	82.987	-80.1466
718.375732	83.020	-80.8175
723.581360	83.046	-81.4948
728.824707	83.066	-82.1701
734.106079	83.081	-82.8372
739.425720	83.091	-83.4891
744.783936	83.096	-84.1250
750.180908	83.100	-84.7449
755.617065	83.102	-85.3551
761.092529	83.099	-85.9528
766.607727	83.093	-86.5396
772.162903	83.086	-87.1157
777.758301	83.075	-87.6825
783.394287	83.062	-88.2345
789.071045	83.047	-88.7696
794.789001	83.029	-89.2874
800.548340	83.009	-89.7828
806.349487	82.988	-90.2570
812.192627	82.965	-90.7091
818.078125	82.941	-91.1408
824.006226	82.917	-91.5598
829.977295	82.894	-91.9620
835.991699	82.870	-92.3420
842.049622	82.846	-92.7097
848.151428	82.822	-93.0634
854.297485	82.798	-93.3975
860.488098	82.773	-93.7110
866.723572	82.747	-94.0123
873.004211	82.722	-94.3044
879.330322	82.698	-94.5786
885.702332	82.674	-94.8375
892.120483	82.651	-95.0810
898.585144	82.628	-95.3149
905.096680	82.605	-95.5349
911.655396	82.585	-95.7338
918.261597	82.566	-95.9173
924.915710	82.548	-96.0904
931.618042	82.531	-96.2476
938.368896	82.518	-96.3857
945.168762	82.510	-96.5060
952.017822	82.505	-96.6185
958.916504	82.505	-96.7426
965.865234	82.507	-96.8955
972.864319	82.510	-97.0798
979.914062	82.509	-97.2784
987.014954	82.504	-97.4657
994.167236	82.498	-97.6303
1001.371399	82.491	-97.7634
1008.627747	82.488	-97.8704
1015.936646	82.487	-97.9668
1023.298584	82.488	-98.0570
1030.713867	82.493	-98.1405
1038.182739	82.499	-98.2117
1045.705933	82.511	-98.2702
1053.283447	82.529	-98.3270
1060.916016	82.549	-98.4036
1068.603882	82.572	-98.5206
1076.347412	82.590	-98.6809
1084.147095	82.603	-98.8682
1092.003296	82.615	-99.0610
1099.916382	82.627	-99.2462
1107.886841	82.639	-99.4136
1115.915039	82.652	-99.5684
1124.001343	82.667	-99.7212
1132.146362	82.683	-99.8742
1140.350342	82.701	-100.0336
1148.613770	82.720	-100.1993
1156.937134	82.738	-100.3760
1165.320801	82.758	-100.5642
1173.765137	82.778	-100.7476
1182.270752	82.799	-100.9268
1190.838013	82.821	-101.1144
1199.467285	82.844	-101.3106
1208.159180	82.869	-101.5114
1216.913940	82.900	-101.7160
1225.732178	82.935	-101.9280
1234.614380	82.971	-102.1484
1243.560913	83.008	-102.3680
1252.572266	83.044	-102.5858
1261.648926	83.081	-102.8102
1270.791382	83.118	-103.0378
1280.000000	83.156	-103.2704
1289.275391	83.193	-103.5116
1298.618042	83.230	-103.7553
1308.028320	83.267	-103.9992
1317.506836	83.305	-104.2406
1327.054077	83.343	-104.4795
1336.670410	83.380	-104.7229
1346.356567	83.417	-104.9746
1356.112793	83.456	-105.2269
1365.939697	83.498	-105.4776
1375.837891	83.543	-105.7282
1385.807739	83.588	-105.9738
1395.849854	83.633	-106.2172
1405.964844	83.679	-106.4654
1416.152954	83.724	-106.7158
1426.415039	83.771	-106.9648
1436.751465	83.818	-107.2191
1447.162720	83.866	-107.4822
1457.649414	83.915	-107.7523
1468.212158	83.963	-108.0288
1478.851440	84.011	-108.3025
1489.567871	84.059	-108.5749
1500.361816	84.108	-108.8484
1511.234131	84.157	-109.1236
1522.185059	84.205	-109.4035
1533.215454	84.251	-109.6864
1544.325806	84.294	-109.9739
1555.516602	84.336	-110.2675
1566.788574	84.378	-110.5648
1578.142090	84.421	-110.8658
1589.578003	84.464	-111.1722
1601.096680	84.508	-111.4809
1612.698975	84.552	-111.7908
1624.385254	84.596	-112.1066
1636.156250	84.642	-112.4324
1648.012451	84.688	-112.7633
1659.954590	84.734	-113.0953
1671.983398	84.780	-113.4305
1684.099243	84.825	-113.7749
1696.302856	84.872	-114.1296
1708.594971	84.919	-114.4837
1720.976196	84.968	-114.8379
1733.447144	85.018	-115.2002
1746.008423	85.069	-115.5728
1758.660645	85.120	-115.9589
1771.404663	85.170	-116.3587
1784.240967	85.221	-116.7642
1797.170288	85.272	-117.1750
1810.193359	85.322	-117.5931
1823.310791	85.374	-118.0153
1836.523193	85.425	-118.4472
1849.831421	85.475	-118.8902
1863.236084	85.526	-119.3369
1876.737793	85.577	-119.7892
1890.337524	85.626	-120.2584
1904.035645	85.675	-120.7431
1917.833008	85.725	-121.2361
1931.730469	85.774	-121.7383
1945.728638	85.823	-122.2511
1959.828125	85.871	-122.7769
1974.029907	85.918	-123.3162
1988.334473	85.965	-123.8716
2002.742798	86.012	-124.4406
2017.255493	86.058	-125.0213
2031.873291	86.103	-125.6177
2046.597168	86.147	-126.2265
2061.427734	86.190	-126.8458
2076.365479	86.233	-127.4805
2091.411865	86.274	-128.1308
2106.566895	86.314	-128.8019
2121.832031	86.354	-129.4940
2137.207764	86.391	-130.2043
2152.694824	86.426	-130.9330
2168.294189	86.457	-131.6812
2184.006592	86.485	-132.4484
2199.832764	86.510	-133.2319
2215.773682	86.532	-134.0283
2231.830078	86.550	-134.8400
2248.002686	86.564	-135.6666
2264.292725	86.573	-136.5031
2280.700684	86.578	-137.3537
2297.227539	86.580	-138.2136
2313.874268	86.577	-139.0824
2330.641602	86.569	-139.9611
2347.530273	86.556	-140.8483
2364.541504	86.539	-141.7379
2381.676025	86.516	-142.6316
2398.934570	86.489	-143.5332
2416.318359	86.456	-144.4355
2433.827881	86.417	-145.3316
2451.464355	86.374	-146.2187
2469.228760	86.325	-147.1020
2487.121826	86.272	-147.9789
2505.144531	86.212	-148.8420
2523.297852	86.146	-149.6969
2541.582764	86.075	-150.5404
2560.000000	85.999	-151.3664
2578.550781	85.917	-152.1729
2597.236084	85.830	-152.9578
2616.056641	85.738	-153.7238
2635.013672	85.642	-154.4646
2654.108154	85.541	-155.1768
2673.340820	85.435	-155.8613
2692.713135	85.324	-156.5063
2712.225586	85.208	-157.1174
2731.879395	85.087	-157.6967
2751.675781	84.963	-158.2385
2771.615479	84.837	-158.7426
2791.699707	84.709	-159.2105
2811.929688	84.578	-159.6407
2832.305908	84.443	-160.0257
2852.830078	84.307	-160.3626
2873.502930	84.168	-160.6677
2894.325439	84.026	-160.9360
2915.298828	83.882	-161.1623
2936.424316	83.736	-161.3492
2957.702881	83.588	-161.4917
2979.135742	83.437	-161.5924
3000.723633	83.283	-161.6482
3022.468262	83.125	-161.6534
3044.370117	82.962	-161.6024
3066.430908	82.798	-161.4952
3088.651611	82.632	-161.3272
3111.033203	82.463	-161.0965
3133.577148	82.290	-160.7969
3156.284180	82.114	-160.4149
3179.156006	81.936	-159.9474
3202.193359	81.756	-159.3877
3225.397949	81.575	-158.7250
3248.770508	81.394	-157.9541
3272.312500	81.213	-157.0683
3296.024902	81.034	-156.0486
3319.909180	80.858	-154.8850
3343.966797	80.689	-153.5762
3368.198486	80.532	-152.1089
3392.605713	80.387	-150.4730
3417.189941	80.260	-148.6769
3441.952393	80.153	-146.7335
3466.894287	80.071	-144.6456
3492.016846	80.016	-142.4091
3517.321289	79.995	-140.0315
3542.809326	80.016	-137.5357
3568.481934	80.084	-134.9722
3594.340576	80.204	-132.3797
3620.386719	80.378	-129.8027
3646.621582	80.608	-127.3230
3673.046387	80.892	-125.0227
3699.662842	81.226	-122.9577
3726.472168	81.602	-121.1799
