* Measurement data measured by REW V5.20.7
* Source: Mic in at rear panel (Pink)(Realtek(R) Audio), MICROPHONE (마스), L, volume: 1.000
* Format: 128k Log Swept Sine, 1 sweep at -12.0 dBFS with no timing reference
* Dated: 2022. 5. 13 오후 11:06:57
* REW Settings:
*  C-weighting compensation: Off
*  Target level: 75.0 dB
* Note: 
* Measurement: L
* Smoothing: 1/24 octave
* Frequency Step: 1/48 octave
* Start Frequency: 20.300 Hz
*
* Freq(Hz)	SPL(dB)	Phase(degrees)
20.299999	79.415	-89.0301
20.600000	79.475	-89.7042
20.900000	79.592	-90.8913
21.200001	79.695	-91.9759
21.400000	79.756	-92.6464
21.799999	79.870	-93.9402
22.000000	79.925	-94.5874
22.400000	80.034	-95.8795
22.700001	80.121	-96.8493
23.000000	80.215	-97.8314
23.299999	80.310	-98.8292
23.600000	80.403	-99.8426
24.000000	80.523	-101.2114
24.299999	80.611	-102.2398
24.700001	80.724	-103.5936
25.000000	80.804	-104.5811
25.400000	80.905	-105.8454
25.799999	81.008	-107.0435
26.200001	81.113	-108.1841
26.500000	81.192	-109.0141
26.900000	81.293	-110.1033
27.200001	81.363	-110.9150
27.600000	81.448	-111.9925
28.000000	81.520	-113.0557
28.500000	81.588	-114.3422
29.000000	81.642	-115.5583
29.500000	81.689	-116.6951
30.000000	81.733	-117.7654
30.400000	81.768	-118.5945
30.700001	81.799	-119.2128
31.100000	81.846	-120.0442
31.500000	81.897	-120.8876
32.000000	81.960	-121.9567
32.500000	82.027	-123.0410
33.000000	82.093	-124.1456
33.500000	82.152	-125.2617
34.000000	82.200	-126.3482
34.500000	82.244	-127.3622
35.000000	82.294	-128.3119
35.500000	82.350	-129.2596
36.000000	82.402	-130.2468
36.500000	82.438	-131.2320
37.000000	82.460	-132.1266
37.500000	82.481	-132.9102
38.200001	82.534	-134.0041
38.700001	82.576	-134.9015
39.500000	82.595	-136.3478
40.000000	82.589	-137.0822
40.599998	82.599	-137.8578
41.200001	82.623	-138.7673
41.799999	82.627	-139.8436
42.500000	82.601	-141.0142
43.099998	82.587	-141.7984
43.700001	82.601	-142.5096
44.400002	82.634	-143.3748
45.000000	82.658	-144.0999
45.500000	82.678	-144.6700
46.200001	82.706	-145.4658
46.799999	82.722	-146.1453
47.500000	82.738	-146.8761
48.200001	82.763	-147.5980
48.700001	82.776	-148.1651
49.400002	82.769	-148.9940
50.000000	82.739	-149.6494
50.799999	82.692	-150.4247
51.500000	82.651	-151.0562
52.200001	82.620	-151.6399
53.000000	82.610	-152.2857
53.799999	82.619	-153.0105
54.500000	82.621	-153.6824
55.200001	82.616	-154.2939
56.000000	82.613	-154.9115
57.000000	82.611	-155.6827
58.000000	82.587	-156.4413
59.000000	82.552	-157.1485
60.000000	82.518	-157.9026
60.799999	82.485	-158.5048
61.500000	82.457	-158.9525
62.200001	82.441	-159.3414
63.000000	82.436	-159.8203
64.000000	82.426	-160.4895
65.000000	82.414	-161.0381
66.000000	82.425	-161.5320
67.000000	82.433	-162.1940
68.000000	82.399	-162.8862
69.000000	82.338	-163.3899
70.000000	82.283	-163.7911
71.000000	82.245	-164.2310
72.000000	82.215	-164.6762
73.000000	82.198	-165.1013
74.000000	82.196	-165.5471
75.000000	82.198	-166.0327
76.199997	82.185	-166.5862
77.500000	82.153	-167.0658
78.800003	82.110	-167.5170
80.000000	82.058	-167.9335
81.199997	81.999	-168.3269
82.500000	81.953	-168.6863
83.800003	81.943	-169.0783
85.000000	81.941	-169.4165
86.199997	81.944	-169.6842
87.500000	81.936	-170.0568
88.500000	81.907	-170.3482
90.000000	81.848	-170.7258
91.199997	81.794	-171.0384
92.500000	81.744	-171.3103
93.800003	81.726	-171.6014
95.000000	81.720	-171.9511
96.199997	81.711	-172.2825
97.500000	81.698	-172.5819
98.800003	81.677	-172.8618
100.000000	81.644	-173.1063
101.500000	81.593	-173.3169
103.000000	81.558	-173.4958
104.400002	81.538	-173.7140
106.000000	81.522	-173.9744
107.500000	81.511	-174.2530
109.000000	81.484	-174.5374
110.599998	81.435	-174.7340
112.000000	81.385	-174.8111
113.800003	81.332	-174.8387
115.000000	81.328	-174.9039
117.199997	81.356	-175.6734
118.000000	81.349	-176.1056
120.599998	81.236	-176.8848
122.000000	81.207	-176.6715
124.099998	81.222	-176.4271
125.000000	81.223	-176.4031
126.500000	81.216	-176.4509
128.000000	81.197	-176.6523
131.500000	81.104	-177.2794
132.000000	81.093	-177.3221
134.000000	81.080	-177.4290
136.000000	81.088	-177.5356
138.000000	81.085	-177.6261
140.000000	81.062	-177.7612
143.000000	81.013	-178.0459
145.000000	81.005	-178.2879
147.500000	80.990	-178.6553
150.000000	80.944	-178.7502
152.500000	80.921	-178.8098
155.000000	80.905	-178.9452
157.500000	80.905	-179.0412
160.000000	80.888	-179.3045
162.500000	80.845	-179.5765
165.000000	80.829	-179.7284
167.500000	80.840	-179.8769
170.000000	80.827	179.9880
172.500000	80.798	179.8833
175.000000	80.792	179.7444
177.500000	80.797	179.5221
180.000000	80.768	179.2627
182.500000	80.700	179.0432
185.000000	80.634	178.8179
187.500000	80.586	178.5844
190.000000	80.552	178.3843
192.500000	80.524	178.1769
195.000000	80.512	178.0063
197.500000	80.523	177.8914
200.000000	80.530	177.7558
203.000000	80.497	177.5815
206.000000	80.456	177.4055
209.000000	80.435	177.1890
212.000000	80.426	176.9053
214.000000	80.405	176.6621
218.000000	80.325	176.2634
220.000000	80.298	176.1442
224.000000	80.280	175.7804
227.000000	80.242	175.5404
230.000000	80.189	175.3141
233.000000	80.138	175.0345
236.000000	80.118	174.7562
240.000000	80.094	174.1920
243.000000	80.029	173.8651
247.000000	79.957	173.6564
250.000000	79.900	173.4034
254.000000	79.793	173.0813
258.000000	79.695	172.9958
262.000000	79.638	172.9328
265.000000	79.628	172.7469
269.000000	79.601	172.4518
272.000000	79.525	172.2579
276.000000	79.401	171.9028
280.000000	79.313	171.6068
285.000000	79.209	171.4813
290.000000	79.112	171.1886
295.000000	78.973	171.0533
300.000000	78.804	170.9193
304.000000	78.677	170.8419
307.000000	78.585	170.7993
311.000000	78.464	170.7010
315.000000	78.349	170.5830
320.000000	78.228	170.6242
325.000000	78.100	170.8326
330.000000	77.945	170.9801
335.000000	77.796	171.1635
340.000000	77.659	171.5292
345.000000	77.516	171.9041
350.000000	77.386	172.1962
355.000000	77.249	172.4929
360.000000	77.104	172.9070
365.000000	76.984	173.4671
370.000000	76.894	174.2182
375.000000	76.817	174.6746
382.000000	76.677	174.9654
387.000000	76.576	175.2105
395.000000	76.415	175.6860
400.000000	76.286	175.9331
406.000000	76.128	176.3293
412.000000	75.957	176.8395
418.000000	75.779	177.4300
425.000000	75.593	178.0810
431.000000	75.445	178.8770
437.000000	75.286	179.7294
444.000000	75.086	-179.2967
450.000000	74.933	-178.3099
455.000000	74.816	-177.5339
462.000000	74.663	-176.4505
468.000000	74.514	-175.3760
475.000000	74.319	-173.9474
482.000000	74.148	-172.3683
487.000000	74.054	-171.3004
494.000000	73.944	-169.7910
500.000000	73.836	-168.3178
508.000000	73.685	-166.2288
515.000000	73.575	-164.3019
522.000000	73.473	-162.2927
530.000000	73.382	-159.9593
538.000000	73.333	-157.6675
545.000000	73.310	-155.6601
552.000000	73.316	-153.5790
560.000000	73.377	-151.1611
570.000000	73.487	-148.2457
580.000000	73.584	-145.5925
590.000000	73.719	-143.0407
600.000000	73.883	-140.5817
608.000000	74.039	-138.7067
615.000000	74.188	-137.0684
622.000000	74.347	-135.6091
630.000000	74.543	-134.2083
640.000000	74.790	-132.6503
650.000000	75.024	-131.2618
660.000000	75.239	-130.0883
670.000000	75.441	-128.9229
680.000000	75.665	-127.6218
690.000000	75.901	-126.3538
700.000000	76.128	-125.3674
710.000000	76.353	-124.4861
720.000000	76.576	-123.7304
730.000000	76.804	-123.0901
740.000000	77.033	-122.5108
750.000000	77.249	-122.0455
762.000000	77.490	-121.6267
775.000000	77.738	-121.1985
788.000000	77.976	-120.8253
800.000000	78.188	-120.5552
812.000000	78.388	-120.2962
825.000000	78.594	-120.0951
838.000000	78.795	-119.9800
850.000000	78.971	-119.9265
862.000000	79.143	-119.9173
875.000000	79.324	-119.8757
885.000000	79.451	-119.8379
900.000000	79.625	-119.8198
912.000000	79.764	-119.8517
925.000000	79.921	-119.9270
938.000000	80.074	-120.0132
950.000000	80.206	-120.1134
962.000000	80.330	-120.2234
975.000000	80.448	-120.3736
988.000000	80.544	-120.5894
1000.000000	80.641	-120.7819
1015.000000	80.799	-120.8767
1030.000000	80.933	-120.9966
1044.000000	81.042	-121.1752
1060.000000	81.159	-121.3613
1075.000000	81.261	-121.5491
1090.000000	81.359	-121.7558
1106.000000	81.464	-121.9363
1120.000000	81.560	-122.0779
1138.000000	81.677	-122.2781
1150.000000	81.746	-122.3961
1172.000000	81.868	-122.5832
1180.000000	81.910	-122.6492
1206.000000	82.031	-122.8476
1220.000000	82.086	-122.9585
1241.000000	82.163	-123.1273
1250.000000	82.202	-123.1704
1265.000000	82.286	-123.2088
1280.000000	82.396	-123.2568
1315.000000	82.744	-123.4719
1320.000000	82.799	-123.5048
1340.000000	83.021	-123.6269
1360.000000	83.229	-123.7599
1380.000000	83.414	-123.9772
1400.000000	83.578	-124.2421
1430.000000	83.814	-124.7557
1450.000000	83.970	-125.2465
1475.000000	84.169	-125.9466
1500.000000	84.374	-126.8224
1525.000000	84.566	-127.8987
1550.000000	84.736	-129.1271
1575.000000	84.891	-130.4925
1600.000000	85.023	-131.9770
1625.000000	85.131	-133.5412
1650.000000	85.210	-135.1807
1675.000000	85.255	-136.8548
1700.000000	85.273	-138.5286
1725.000000	85.266	-140.1427
1750.000000	85.234	-141.6931
1775.000000	85.176	-143.1803
1800.000000	85.095	-144.5631
1825.000000	84.999	-145.8372
1850.000000	84.892	-146.9981
1875.000000	84.774	-148.0290
1900.000000	84.647	-148.9413
1925.000000	84.514	-149.7567
1950.000000	84.375	-150.4820
1975.000000	84.231	-151.1059
2000.000000	84.087	-151.6198
2030.000000	83.918	-152.1103
2060.000000	83.752	-152.5161
2090.000000	83.587	-152.8249
2120.000000	83.422	-152.9916
2140.000000	83.312	-153.0559
2180.000000	83.099	-153.0882
2200.000000	82.998	-153.0494
2240.000000	82.803	-152.8603
2270.000000	82.661	-152.6142
2300.000000	82.528	-152.2979
2330.000000	82.403	-151.9015
2360.000000	82.289	-151.4861
2400.000000	82.157	-150.9114
2430.000000	82.074	-150.4518
2470.000000	81.975	-149.8705
2500.000000	81.906	-149.4302
2540.000000	81.825	-148.8704
2580.000000	81.743	-148.3515
2620.000000	81.659	-147.8096
2650.000000	81.601	-147.3495
2690.000000	81.534	-146.7182
2720.000000	81.483	-146.2471
2760.000000	81.420	-145.5799
2800.000000	81.369	-144.8786
2850.000000	81.321	-144.0089
2900.000000	81.283	-143.1542
2950.000000	81.259	-142.3312
3000.000000	81.250	-141.4875
3040.000000	81.258	-140.7961
3070.000000	81.269	-140.2828
3110.000000	81.293	-139.6132
3150.000000	81.325	-138.9638
3200.000000	81.380	-138.2200
3250.000000	81.450	-137.5225
3300.000000	81.533	-136.9044
3350.000000	81.645	-136.4182
3400.000000	81.789	-136.0921
3450.000000	81.956	-135.9454
3500.000000	82.135	-136.1122
3550.000000	82.319	-136.8333
3600.000000	82.460	-138.2671
3650.000000	82.456	-140.2746
3700.000000	82.250	-141.8407
3750.000000	81.982	-141.9954
3820.000000	81.816	-141.5081
3870.000000	81.667	-141.8249
3950.000000	81.168	-139.7688
4000.000000	81.152	-136.4127
4060.000000	81.535	-133.5012
4120.000000	81.993	-132.7267
4180.000000	82.358	-133.1666
4250.000000	82.665	-134.3467
4310.000000	82.857	-135.6221
4370.000000	83.010	-137.0361
4440.000000	83.165	-138.8452
4500.000000	83.293	-140.5398
4550.000000	83.395	-142.1053
4620.000000	83.510	-144.5632
4680.000000	83.564	-146.9013
4750.000000	83.560	-149.8254
4820.000000	83.465	-152.8374
4870.000000	83.337	-154.9623
4940.000000	83.089	-157.7613
5000.000000	82.828	-159.9018
5080.000000	82.413	-162.3178
5150.000000	82.008	-163.9996
5220.000000	81.583	-165.2660
5300.000000	81.087	-166.2495
5380.000000	80.584	-166.7917
5450.000000	80.151	-166.9555
5520.000000	79.736	-166.8702
5600.000000	79.282	-166.5211
5700.000000	78.738	-165.7111
5800.000000	78.219	-164.5298
5900.000000	77.754	-162.9788
6000.000000	77.344	-161.0976
6080.000000	77.061	-159.4252
6150.000000	76.859	-157.8389
6220.000000	76.700	-156.1375
6300.000000	76.570	-154.1363
6400.000000	76.484	-151.7022
6500.000000	76.470	-149.3887
6600.000000	76.507	-147.3746
6700.000000	76.585	-145.6786
6800.000000	76.670	-144.1893
6900.000000	76.754	-142.7922
7000.000000	76.849	-141.3240
7100.000000	76.973	-139.5036
7200.000000	77.168	-137.2123
7300.000000	77.525	-134.4712
7400.000000	78.157	-131.6189
7500.000000	79.106	-129.5924
7620.000000	80.542	-129.8073
7750.000000	82.094	-134.7614
7880.000000	83.186	-144.8257
8000.000000	83.527	-157.0834
8120.000000	83.195	-169.5339
8250.000000	82.259	179.2632
8380.000000	81.002	171.2738
8500.000000	79.774	166.3932
8620.000000	78.581	163.3223
8750.000000	77.347	161.5308
8850.000000	76.462	161.0432
9000.000000	75.287	161.4868
9120.000000	74.469	162.5803
9250.000000	73.725	164.2646
9380.000000	73.124	166.2258
9500.000000	72.648	168.1650
9620.000000	72.241	170.0938
9750.000000	71.877	172.1246
9880.000000	71.572	174.2362
10000.000000	71.345	176.3135
10150.000000	71.169	178.8752
10300.000000	71.142	-178.8372
10440.000000	71.236	-176.9390
10600.000000	71.414	-175.2190
10750.000000	71.613	-174.1971
10900.000000	71.853	-173.5844
11060.000000	72.167	-173.2497
11200.000000	72.505	-173.1849
11380.000000	73.060	-173.4443
11500.000000	73.525	-174.0603
11720.000000	74.580	-176.9350
11800.000000	75.003	-178.7526
12060.000000	76.302	171.7925
12200.000000	76.820	164.4074
12410.000000	77.198	151.2802
12500.000000	77.188	145.4058
12650.000000	76.951	135.9543
12800.000000	76.499	127.4190
13150.000000	75.032	112.2319
13200.000000	74.800	110.5756
13400.000000	73.876	104.9543
13600.000000	73.010	100.5339
13800.000000	72.263	96.8331
14000.000000	71.676	93.5960
14300.000000	71.192	89.1355
14500.000000	71.135	86.1581
14750.000000	71.352	81.7136
15000.000000	71.867	75.6034
15250.000000	72.610	66.7994
15500.000000	73.420	53.6383
15750.000000	73.952	34.9866
16000.000000	73.801	12.2727
16250.000000	72.782	-10.0675
16500.000000	71.085	-28.1814
16750.000000	69.153	-41.2605
17000.000000	67.382	-50.6965
17250.000000	65.992	-58.0684
17500.000000	65.047	-64.5831
17750.000000	64.546	-71.1993
18000.000000	64.415	-79.1009
18250.000000	64.613	-88.6604
18500.000000	65.115	-100.0444
18750.000000	65.992	-114.3296
19000.000000	67.186	-133.3076
19250.000000	68.295	-159.2690
19500.000000	68.662	167.6088
19750.000000	67.909	134.4329
20000.000000	66.846	115.2614
