* Measurement data measured by REW V5.20.5
* Source: Input device not selected, no input selected, L, volume: no control
* Format: 128k Log Swept Sine, 4 sweeps at -11.0 dBFS with no timing reference
* Dated: 2022. 5. 17 ¿ÀÈÄ 10:15:25
* REW Settings:
*  C-weighting compensation: Off
*  Target level: 75.0 dB
* Note: ; 
* Measurement: FrostTri_EtyRed_R
* Smoothing: 1/24 octave
* Frequency Step: 1/48 octave
* Start Frequency: 20.300 Hz
*
* Freq(Hz)	SPL(dB)	Phase(degrees)
20.299999	78.298	-160.3998
20.600000	78.310	-160.4906
20.900000	78.332	-160.6459
21.200001	78.348	-160.7783
21.400000	78.356	-160.8608
21.799999	78.368	-161.0366
22.000000	78.373	-161.1379
22.400000	78.381	-161.3682
22.700001	78.386	-161.5596
23.000000	78.390	-161.7629
23.299999	78.396	-161.9765
23.600000	78.403	-162.2006
24.000000	78.416	-162.5165
24.299999	78.428	-162.7644
24.700001	78.445	-163.0999
25.000000	78.458	-163.3442
25.400000	78.477	-163.6458
25.799999	78.497	-163.9112
26.200001	78.522	-164.1458
26.500000	78.542	-164.3098
26.900000	78.569	-164.5206
27.200001	78.588	-164.6739
27.600000	78.610	-164.8666
28.000000	78.628	-165.0367
28.500000	78.647	-165.2127
29.000000	78.663	-165.3637
29.500000	78.678	-165.5131
30.000000	78.690	-165.6739
30.400000	78.697	-165.8106
30.700001	78.702	-165.9167
31.100000	78.708	-166.0635
31.500000	78.713	-166.2170
32.000000	78.719	-166.4167
32.500000	78.725	-166.6199
33.000000	78.733	-166.8264
33.500000	78.743	-167.0427
34.000000	78.754	-167.2701
34.500000	78.766	-167.4935
35.000000	78.777	-167.6936
35.500000	78.789	-167.8634
36.000000	78.804	-168.0130
36.500000	78.819	-168.1534
37.000000	78.832	-168.2845
37.500000	78.844	-168.4017
38.200001	78.858	-168.5499
38.700001	78.866	-168.6576
39.500000	78.877	-168.8458
40.000000	78.882	-168.9731
40.599998	78.887	-169.1374
41.200001	78.889	-169.3081
41.799999	78.891	-169.4698
42.500000	78.894	-169.6388
43.099998	78.900	-169.7778
43.700001	78.908	-169.9158
44.400002	78.918	-170.0662
45.000000	78.928	-170.1841
45.500000	78.937	-170.2817
46.200001	78.947	-170.4218
46.799999	78.953	-170.5372
47.500000	78.958	-170.6591
48.200001	78.962	-170.7763
48.700001	78.964	-170.8617
49.400002	78.966	-170.9818
50.000000	78.968	-171.0860
50.799999	78.973	-171.2321
51.500000	78.977	-171.3611
52.200001	78.982	-171.4839
53.000000	78.991	-171.6181
53.799999	78.999	-171.7401
54.500000	79.007	-171.8347
55.200001	79.013	-171.9164
56.000000	79.018	-171.9655
57.000000	79.038	-172.0099
58.000000	79.059	-172.2299
59.000000	79.045	-172.4834
60.000000	79.025	-172.5698
60.799999	79.021	-172.6238
61.500000	79.022	-172.7005
62.200001	79.022	-172.7860
63.000000	79.024	-172.8873
64.000000	79.027	-173.0127
65.000000	79.031	-173.1154
66.000000	79.036	-173.2099
67.000000	79.041	-173.3095
68.000000	79.043	-173.4004
69.000000	79.044	-173.4884
70.000000	79.043	-173.5736
71.000000	79.043	-173.6485
72.000000	79.045	-173.7305
73.000000	79.048	-173.8219
74.000000	79.051	-173.9163
75.000000	79.053	-174.0088
76.199997	79.056	-174.1011
77.500000	79.059	-174.1935
78.800003	79.061	-174.2877
80.000000	79.061	-174.3751
81.199997	79.060	-174.4522
82.500000	79.060	-174.5233
83.800003	79.063	-174.6040
85.000000	79.065	-174.6855
86.199997	79.066	-174.7649
87.500000	79.066	-174.8449
88.500000	79.066	-174.9018
90.000000	79.066	-174.9823
91.199997	79.066	-175.0475
92.500000	79.065	-175.1167
93.800003	79.065	-175.1809
95.000000	79.064	-175.2390
96.199997	79.064	-175.2941
97.500000	79.064	-175.3502
98.800003	79.063	-175.4063
100.000000	79.063	-175.4597
101.500000	79.062	-175.5257
103.000000	79.062	-175.5901
104.400002	79.062	-175.6474
106.000000	79.063	-175.7076
107.500000	79.062	-175.7598
109.000000	79.061	-175.8089
110.599998	79.059	-175.8598
112.000000	79.057	-175.9055
113.800003	79.055	-175.9643
115.000000	79.054	-175.9991
117.199997	79.052	-176.0552
118.000000	79.052	-176.0748
120.599998	79.050	-176.1381
122.000000	79.049	-176.1713
124.099998	79.047	-176.2188
125.000000	79.046	-176.2381
126.500000	79.046	-176.2686
128.000000	79.045	-176.2972
131.500000	79.042	-176.3601
132.000000	79.042	-176.3684
134.000000	79.040	-176.4006
136.000000	79.038	-176.4326
138.000000	79.036	-176.4642
140.000000	79.034	-176.4954
143.000000	79.029	-176.5393
145.000000	79.027	-176.5667
147.500000	79.023	-176.6011
150.000000	79.020	-176.6320
152.500000	79.016	-176.6564
155.000000	79.012	-176.6802
157.500000	79.007	-176.7056
160.000000	79.003	-176.7312
162.500000	78.999	-176.7495
165.000000	78.994	-176.7596
167.500000	78.990	-176.7660
170.000000	78.986	-176.7720
172.500000	78.982	-176.7770
175.000000	78.977	-176.7771
177.500000	78.972	-176.7769
180.000000	78.967	-176.7799
182.500000	78.962	-176.7796
185.000000	78.956	-176.7766
187.500000	78.950	-176.7743
190.000000	78.945	-176.7720
192.500000	78.940	-176.7687
195.000000	78.936	-176.7645
197.500000	78.932	-176.7603
200.000000	78.928	-176.7558
203.000000	78.923	-176.7473
206.000000	78.917	-176.7320
209.000000	78.912	-176.7115
212.000000	78.907	-176.6918
214.000000	78.904	-176.6786
218.000000	78.898	-176.6425
220.000000	78.895	-176.6223
224.000000	78.890	-176.5835
227.000000	78.887	-176.5523
230.000000	78.883	-176.5196
233.000000	78.879	-176.4863
236.000000	78.874	-176.4528
240.000000	78.870	-176.4104
243.000000	78.867	-176.3786
247.000000	78.865	-176.3332
250.000000	78.863	-176.2978
254.000000	78.859	-176.2498
258.000000	78.856	-176.2022
262.000000	78.852	-176.1489
265.000000	78.848	-176.1048
269.000000	78.844	-176.0427
272.000000	78.840	-175.9936
276.000000	78.835	-175.9214
280.000000	78.829	-175.8421
285.000000	78.822	-175.7397
290.000000	78.814	-175.6283
295.000000	78.806	-175.5050
300.000000	78.797	-175.3701
304.000000	78.789	-175.2490
307.000000	78.783	-175.1564
311.000000	78.776	-175.0383
315.000000	78.769	-174.9108
320.000000	78.761	-174.7256
325.000000	78.756	-174.5150
330.000000	78.758	-174.2929
335.000000	78.768	-174.0837
340.000000	78.784	-173.9059
345.000000	78.805	-173.7794
350.000000	78.825	-173.7112
355.000000	78.840	-173.6922
360.000000	78.848	-173.6976
365.000000	78.850	-173.6996
370.000000	78.847	-173.6844
375.000000	78.842	-173.6507
382.000000	78.832	-173.5818
387.000000	78.824	-173.5170
395.000000	78.812	-173.3902
400.000000	78.804	-173.2984
406.000000	78.795	-173.1798
412.000000	78.786	-173.0575
418.000000	78.778	-172.9285
425.000000	78.770	-172.7659
431.000000	78.764	-172.6238
437.000000	78.757	-172.4771
444.000000	78.750	-172.2997
450.000000	78.744	-172.1408
455.000000	78.740	-172.0028
462.000000	78.736	-171.8050
468.000000	78.732	-171.6317
475.000000	78.728	-171.4251
482.000000	78.724	-171.2144
487.000000	78.722	-171.0594
494.000000	78.720	-170.8371
500.000000	78.719	-170.6447
508.000000	78.718	-170.3871
515.000000	78.717	-170.1622
522.000000	78.716	-169.9350
530.000000	78.714	-169.6734
538.000000	78.713	-169.4109
545.000000	78.711	-169.1794
552.000000	78.708	-168.9445
560.000000	78.705	-168.6711
570.000000	78.702	-168.3214
580.000000	78.701	-167.9584
590.000000	78.701	-167.5871
600.000000	78.702	-167.2132
608.000000	78.704	-166.9034
615.000000	78.707	-166.6265
622.000000	78.709	-166.3485
630.000000	78.713	-166.0276
640.000000	78.719	-165.6198
650.000000	78.727	-165.2040
660.000000	78.736	-164.7845
670.000000	78.747	-164.3676
680.000000	78.759	-163.9478
690.000000	78.772	-163.5204
700.000000	78.787	-163.0882
710.000000	78.804	-162.6518
720.000000	78.823	-162.2090
730.000000	78.844	-161.7617
740.000000	78.867	-161.3116
750.000000	78.891	-160.8507
762.000000	78.924	-160.2870
775.000000	78.962	-159.6676
788.000000	79.004	-159.0416
800.000000	79.045	-158.4601
812.000000	79.090	-157.8838
825.000000	79.144	-157.2622
838.000000	79.202	-156.6443
850.000000	79.260	-156.0845
862.000000	79.322	-155.5397
875.000000	79.392	-154.9699
885.000000	79.448	-154.5469
900.000000	79.539	-153.9343
912.000000	79.616	-153.4631
925.000000	79.704	-152.9760
938.000000	79.796	-152.5172
950.000000	79.885	-152.1201
962.000000	79.976	-151.7463
975.000000	80.079	-151.3668
988.000000	80.186	-151.0179
1000.000000	80.286	-150.7226
1015.000000	80.415	-150.3947
1030.000000	80.544	-150.1194
1044.000000	80.665	-149.9104
1060.000000	80.802	-149.7296
1075.000000	80.929	-149.6164
1090.000000	81.051	-149.5577
1106.000000	81.173	-149.5539
1120.000000	81.274	-149.5882
1138.000000	81.393	-149.6491
1150.000000	81.468	-149.6762
1172.000000	81.612	-149.6787
1180.000000	81.667	-149.6797
1206.000000	81.863	-149.7870
1220.000000	81.974	-149.9259
1241.000000	82.138	-150.2067
1250.000000	82.205	-150.3404
1265.000000	82.313	-150.5665
1280.000000	82.415	-150.7883
1315.000000	82.637	-151.2791
1320.000000	82.668	-151.3455
1340.000000	82.787	-151.6006
1360.000000	82.906	-151.8481
1380.000000	83.032	-152.1083
1400.000000	83.162	-152.4016
1430.000000	83.350	-152.9351
1450.000000	83.465	-153.3327
1475.000000	83.597	-153.8360
1500.000000	83.720	-154.3216
1525.000000	83.832	-154.7734
1550.000000	83.933	-155.1974
1575.000000	84.026	-155.5970
1600.000000	84.117	-155.9774
1625.000000	84.207	-156.3391
1650.000000	84.297	-156.6748
1675.000000	84.387	-156.9872
1700.000000	84.477	-157.2883
1725.000000	84.568	-157.5865
1750.000000	84.659	-157.8831
1775.000000	84.751	-158.1779
1800.000000	84.844	-158.4768
1825.000000	84.938	-158.7838
1850.000000	85.033	-159.1051
1875.000000	85.128	-159.4479
1900.000000	85.223	-159.8105
1925.000000	85.318	-160.1881
1950.000000	85.413	-160.5753
1975.000000	85.507	-160.9717
2000.000000	85.602	-161.3784
2030.000000	85.717	-161.8821
2060.000000	85.832	-162.4068
2090.000000	85.946	-162.9506
2120.000000	86.061	-163.5051
2140.000000	86.138	-163.8785
2180.000000	86.291	-164.6439
2200.000000	86.367	-165.0449
2240.000000	86.516	-165.8920
2270.000000	86.626	-166.5654
2300.000000	86.735	-167.2722
2330.000000	86.842	-168.0132
2360.000000	86.947	-168.7892
2400.000000	87.082	-169.8907
2430.000000	87.180	-170.7747
2470.000000	87.305	-172.0221
2500.000000	87.394	-172.9970
2540.000000	87.506	-174.3423
2580.000000	87.611	-175.7372
2620.000000	87.707	-177.1759
2650.000000	87.772	-178.2837
2690.000000	87.850	-179.7961
2720.000000	87.900	179.0543
2760.000000	87.957	177.5146
2800.000000	88.004	175.9692
2850.000000	88.044	174.0164
2900.000000	88.066	172.0400
2950.000000	88.067	170.0541
3000.000000	88.050	168.0743
3040.000000	88.024	166.5009
3070.000000	87.997	165.3265
3110.000000	87.952	163.7628
3150.000000	87.895	162.2011
3200.000000	87.809	160.2719
3250.000000	87.708	158.3973
3300.000000	87.594	156.5923
3350.000000	87.466	154.8610
3400.000000	87.328	153.2073
3450.000000	87.180	151.6335
3500.000000	87.023	150.1491
3550.000000	86.859	148.7702
3600.000000	86.690	147.4978
3650.000000	86.514	146.3141
3700.000000	86.334	145.2035
3750.000000	86.151	144.1597
3820.000000	85.888	142.8062
3870.000000	85.695	141.9131
3950.000000	85.381	140.6000
4000.000000	85.182	139.8291
4060.000000	84.940	138.9333
4120.000000	84.697	138.0832
4180.000000	84.453	137.3074
4250.000000	84.170	136.5016
4310.000000	83.930	135.8881
4370.000000	83.693	135.3409
4440.000000	83.421	134.7746
4500.000000	83.190	134.3542
4550.000000	82.999	134.0602
4620.000000	82.735	133.7388
4680.000000	82.511	133.5278
4750.000000	82.250	133.3358
4820.000000	81.990	133.1947
4870.000000	81.804	133.1251
4940.000000	81.542	133.0720
5000.000000	81.318	133.0695
5080.000000	81.020	133.1299
5150.000000	80.763	133.2296
5220.000000	80.508	133.3500
5300.000000	80.220	133.5164
5380.000000	79.938	133.7417
5450.000000	79.694	133.9949
5520.000000	79.452	134.2994
5600.000000	79.179	134.7035
5700.000000	78.848	135.2879
5800.000000	78.526	135.9711
5900.000000	78.214	136.7946
6000.000000	77.914	137.7729
6080.000000	77.684	138.6307
6150.000000	77.494	139.4139
6220.000000	77.313	140.2213
6300.000000	77.116	141.1649
6400.000000	76.881	142.3643
6500.000000	76.658	143.5852
6600.000000	76.445	144.8235
6700.000000	76.241	146.0716
6800.000000	76.040	147.3405
6900.000000	75.844	148.6413
7000.000000	75.653	149.9847
7100.000000	75.472	151.3634
7200.000000	75.306	152.7423
7300.000000	75.148	154.1069
7400.000000	74.996	155.4789
7500.000000	74.850	156.8734
7620.000000	74.686	158.5473
7750.000000	74.512	160.3347
7880.000000	74.345	162.1387
8000.000000	74.209	163.8416
8120.000000	74.095	165.5771
8250.000000	74.001	167.4779
8380.000000	73.937	169.3940
8500.000000	73.905	171.1483
8620.000000	73.899	172.8678
8750.000000	73.918	174.6705
8850.000000	73.955	175.9885
9000.000000	74.051	177.8032
9120.000000	74.158	179.0657
9250.000000	74.304	-179.8163
9380.000000	74.473	-179.0172
9500.000000	74.643	-178.6139
9620.000000	74.820	-178.5699
9750.000000	75.009	-178.9412
9880.000000	75.175	-179.7161
10000.000000	75.285	179.2370
10150.000000	75.334	177.5044
10300.000000	75.250	175.4469
10440.000000	75.034	173.5103
10600.000000	74.624	171.7076
10750.000000	74.105	170.8158
10900.000000	73.502	170.9701
11060.000000	72.831	172.4148
11200.000000	72.271	174.7508
11380.000000	71.653	179.0205
11500.000000	71.334	-177.5193
11720.000000	70.984	-170.3492
11800.000000	70.936	-167.5930
12060.000000	71.078	-158.6033
12200.000000	71.328	-153.9778
12410.000000	71.903	-147.6097
12500.000000	72.218	-145.1540
12650.000000	72.825	-141.5252
12800.000000	73.526	-138.5827
13150.000000	75.472	-134.7668
13200.000000	75.778	-134.6105
13400.000000	77.048	-135.1425
13600.000000	78.325	-137.7760
13800.000000	79.497	-142.7285
14000.000000	80.434	-149.8213
14300.000000	81.200	-162.7357
14500.000000	81.276	-171.2354
14750.000000	81.026	179.9088
15000.000000	80.651	173.4987
15250.000000	80.400	168.9187
15500.000000	80.466	164.9953
15750.000000	80.924	160.2307
16000.000000	81.667	152.6572
16250.000000	82.355	140.1158
16500.000000	82.423	122.3254
16750.000000	81.425	103.2840
17000.000000	79.404	88.5742
17250.000000	76.823	80.2290
17500.000000	74.189	76.9661
17750.000000	71.770	76.9740
18000.000000	69.614	79.0271
18250.000000	67.694	82.3865
18500.000000	65.971	86.6470
18750.000000	64.400	91.6011
19000.000000	62.948	97.1100
19250.000000	61.571	103.1376
19500.000000	60.249	109.6702
19750.000000	59.146	116.0000
20000.000000	58.591	119.8188
