* Measurement data measured by REW V5.20.5
* Source: Input device not selected, no input selected, L, volume: no control
* Format: 128k Log Swept Sine, 4 sweeps at -11.0 dBFS with no timing reference
* Dated: 2022. 5. 17 ¿ÀÈÄ 10:23:23
* REW Settings:
*  C-weighting compensation: Off
*  Target level: 75.0 dB
* Note: ; 
* Measurement: WestoneStar_EtyRed_R
* Smoothing: 1/24 octave
* Frequency Step: 1/48 octave
* Start Frequency: 20.300 Hz
*
* Freq(Hz)	SPL(dB)	Phase(degrees)
20.299999	77.380	-160.8223
20.600000	77.394	-160.9053
20.900000	77.419	-161.0541
21.200001	77.439	-161.1989
21.400000	77.448	-161.2972
21.799999	77.459	-161.5069
22.000000	77.462	-161.6189
22.400000	77.466	-161.8475
22.700001	77.468	-162.0200
23.000000	77.473	-162.1988
23.299999	77.482	-162.3938
23.600000	77.492	-162.6113
24.000000	77.509	-162.9359
24.299999	77.522	-163.1942
24.700001	77.537	-163.5342
25.000000	77.548	-163.7701
25.400000	77.565	-164.0494
25.799999	77.586	-164.2941
26.200001	77.611	-164.5167
26.500000	77.630	-164.6722
26.900000	77.654	-164.8619
27.200001	77.672	-164.9892
27.600000	77.696	-165.1448
28.000000	77.720	-165.3022
28.500000	77.745	-165.5279
29.000000	77.758	-165.7734
29.500000	77.756	-165.9799
30.000000	77.750	-166.1004
30.400000	77.751	-166.1535
30.700001	77.758	-166.1965
31.100000	77.773	-166.2953
31.500000	77.789	-166.4563
32.000000	77.803	-166.7195
32.500000	77.807	-166.9875
33.000000	77.809	-167.2131
33.500000	77.815	-167.4034
34.000000	77.827	-167.5917
34.500000	77.844	-167.7958
35.000000	77.859	-168.0032
35.500000	77.872	-168.1865
36.000000	77.884	-168.3317
36.500000	77.898	-168.4473
37.000000	77.914	-168.5548
37.500000	77.929	-168.6687
38.200001	77.944	-168.8420
38.700001	77.951	-168.9746
39.500000	77.955	-169.2035
40.000000	77.953	-169.3408
40.599998	77.947	-169.4760
41.200001	77.946	-169.5894
41.799999	77.950	-169.7176
42.500000	77.956	-169.8940
43.099998	77.961	-170.0346
43.700001	77.970	-170.1618
44.400002	77.985	-170.3300
45.000000	77.996	-170.4937
45.500000	78.001	-170.6189
46.200001	78.007	-170.7597
46.799999	78.013	-170.8636
47.500000	78.020	-170.9846
48.200001	78.025	-171.1014
48.700001	78.028	-171.1828
49.400002	78.032	-171.3030
50.000000	78.033	-171.4099
50.799999	78.033	-171.5394
51.500000	78.035	-171.6408
52.200001	78.040	-171.7489
53.000000	78.045	-171.8827
53.799999	78.050	-172.0079
54.500000	78.056	-172.1107
55.200001	78.063	-172.2183
56.000000	78.069	-172.3427
57.000000	78.075	-172.4664
58.000000	78.087	-172.5738
59.000000	78.099	-172.7468
60.000000	78.095	-172.9385
60.799999	78.087	-173.0284
61.500000	78.082	-173.0733
62.200001	78.081	-173.1196
63.000000	78.081	-173.1834
64.000000	78.083	-173.2719
65.000000	78.085	-173.3793
66.000000	78.086	-173.4957
67.000000	78.086	-173.5973
68.000000	78.089	-173.6874
69.000000	78.092	-173.7799
70.000000	78.094	-173.8708
71.000000	78.095	-173.9601
72.000000	78.094	-174.0436
73.000000	78.093	-174.1184
74.000000	78.092	-174.1872
75.000000	78.094	-174.2501
76.199997	78.097	-174.3495
77.500000	78.096	-174.4545
78.800003	78.095	-174.5369
80.000000	78.093	-174.6081
81.199997	78.092	-174.6598
82.500000	78.095	-174.7344
83.800003	78.096	-174.8290
85.000000	78.096	-174.9097
86.199997	78.096	-174.9819
87.500000	78.097	-175.0544
88.500000	78.096	-175.1067
90.000000	78.095	-175.1839
91.199997	78.093	-175.2455
92.500000	78.092	-175.3100
93.800003	78.090	-175.3724
95.000000	78.090	-175.4273
96.199997	78.089	-175.4790
97.500000	78.088	-175.5290
98.800003	78.086	-175.5756
100.000000	78.085	-175.6186
101.500000	78.083	-175.6746
103.000000	78.081	-175.7316
104.400002	78.080	-175.7813
106.000000	78.080	-175.8344
107.500000	78.079	-175.8821
109.000000	78.076	-175.9263
110.599998	78.072	-175.9698
112.000000	78.069	-176.0090
113.800003	78.066	-176.0604
115.000000	78.064	-176.0924
117.199997	78.061	-176.1490
118.000000	78.060	-176.1670
120.599998	78.055	-176.2173
122.000000	78.053	-176.2457
124.099998	78.050	-176.2892
125.000000	78.048	-176.3062
126.500000	78.046	-176.3323
128.000000	78.043	-176.3549
131.500000	78.039	-176.4029
132.000000	78.039	-176.4106
134.000000	78.035	-176.4391
136.000000	78.031	-176.4622
138.000000	78.027	-176.4861
140.000000	78.022	-176.5120
143.000000	78.014	-176.5418
145.000000	78.008	-176.5507
147.500000	78.001	-176.5606
150.000000	77.993	-176.5753
152.500000	77.986	-176.6036
155.000000	77.978	-176.6246
157.500000	77.971	-176.6297
160.000000	77.963	-176.6308
162.500000	77.952	-176.6311
165.000000	77.943	-176.6250
167.500000	77.933	-176.6164
170.000000	77.922	-176.6046
172.500000	77.912	-176.5858
175.000000	77.902	-176.5622
177.500000	77.892	-176.5356
180.000000	77.879	-176.5085
182.500000	77.865	-176.4757
185.000000	77.852	-176.4256
187.500000	77.838	-176.3500
190.000000	77.823	-176.2656
192.500000	77.807	-176.1998
195.000000	77.787	-176.1212
197.500000	77.763	-176.0028
200.000000	77.735	-175.8563
203.000000	77.706	-175.6176
206.000000	77.694	-175.2696
209.000000	77.698	-174.8082
212.000000	77.723	-174.2983
214.000000	77.756	-173.9781
218.000000	77.858	-173.4970
220.000000	77.921	-173.4119
224.000000	78.040	-173.6421
227.000000	78.102	-174.0033
230.000000	78.132	-174.3392
233.000000	78.137	-174.6113
236.000000	78.131	-174.8535
240.000000	78.121	-175.1030
243.000000	78.112	-175.2199
247.000000	78.095	-175.3387
250.000000	78.081	-175.3962
254.000000	78.067	-175.4466
258.000000	78.054	-175.4715
262.000000	78.039	-175.4886
265.000000	78.031	-175.5110
269.000000	78.023	-175.5062
272.000000	78.016	-175.4466
276.000000	78.005	-175.3628
280.000000	77.995	-175.2895
285.000000	77.984	-175.1923
290.000000	77.975	-175.1228
295.000000	77.967	-175.0505
300.000000	77.957	-174.9654
304.000000	77.949	-174.8958
307.000000	77.942	-174.8385
311.000000	77.935	-174.7551
315.000000	77.928	-174.6713
320.000000	77.919	-174.5690
325.000000	77.910	-174.4668
330.000000	77.901	-174.3693
335.000000	77.890	-174.2725
340.000000	77.881	-174.1670
345.000000	77.874	-174.0502
350.000000	77.866	-173.9289
355.000000	77.858	-173.8110
360.000000	77.851	-173.6933
365.000000	77.844	-173.5694
370.000000	77.838	-173.4404
375.000000	77.832	-173.3100
382.000000	77.822	-173.1271
387.000000	77.816	-172.9898
395.000000	77.809	-172.7659
400.000000	77.804	-172.6305
406.000000	77.798	-172.4698
412.000000	77.793	-172.3038
418.000000	77.787	-172.1342
425.000000	77.781	-171.9420
431.000000	77.777	-171.7767
437.000000	77.773	-171.6040
444.000000	77.768	-171.3966
450.000000	77.765	-171.2159
455.000000	77.763	-171.0618
462.000000	77.760	-170.8402
468.000000	77.758	-170.6462
475.000000	77.756	-170.4181
482.000000	77.754	-170.1865
487.000000	77.753	-170.0170
494.000000	77.752	-169.7733
500.000000	77.752	-169.5658
508.000000	77.753	-169.2919
515.000000	77.753	-169.0528
522.000000	77.755	-168.8119
530.000000	77.756	-168.5371
538.000000	77.756	-168.2622
545.000000	77.755	-168.0168
552.000000	77.754	-167.7682
560.000000	77.752	-167.4799
570.000000	77.751	-167.1086
580.000000	77.752	-166.7279
590.000000	77.753	-166.3374
600.000000	77.756	-165.9369
608.000000	77.759	-165.6127
615.000000	77.763	-165.3253
622.000000	77.768	-165.0346
630.000000	77.773	-164.6987
640.000000	77.781	-164.2730
650.000000	77.791	-163.8402
660.000000	77.802	-163.4065
670.000000	77.815	-162.9778
680.000000	77.828	-162.5482
690.000000	77.844	-162.1118
700.000000	77.861	-161.6723
710.000000	77.880	-161.2268
720.000000	77.900	-160.7764
730.000000	77.923	-160.3275
740.000000	77.947	-159.8757
750.000000	77.973	-159.4137
762.000000	78.007	-158.8510
775.000000	78.046	-158.2361
788.000000	78.088	-157.6145
800.000000	78.130	-157.0387
812.000000	78.175	-156.4660
825.000000	78.229	-155.8531
838.000000	78.288	-155.2475
850.000000	78.346	-154.7001
862.000000	78.407	-154.1683
875.000000	78.475	-153.6124
885.000000	78.530	-153.1985
900.000000	78.617	-152.6014
912.000000	78.691	-152.1453
925.000000	78.775	-151.6751
938.000000	78.863	-151.2326
950.000000	78.947	-150.8468
962.000000	79.034	-150.4823
975.000000	79.131	-150.1155
988.000000	79.231	-149.7760
1000.000000	79.326	-149.4848
1015.000000	79.446	-149.1590
1030.000000	79.566	-148.8829
1044.000000	79.677	-148.6703
1060.000000	79.804	-148.4801
1075.000000	79.920	-148.3518
1090.000000	80.031	-148.2741
1106.000000	80.142	-148.2436
1120.000000	80.232	-148.2489
1138.000000	80.338	-148.2695
1150.000000	80.404	-148.2665
1172.000000	80.528	-148.2008
1180.000000	80.577	-148.1712
1206.000000	80.753	-148.1660
1220.000000	80.854	-148.2396
1241.000000	81.004	-148.4160
1250.000000	81.065	-148.5027
1265.000000	81.164	-148.6483
1280.000000	81.257	-148.7875
1315.000000	81.461	-149.0700
1320.000000	81.488	-149.1049
1340.000000	81.599	-149.2324
1360.000000	81.712	-149.3474
1380.000000	81.833	-149.4768
1400.000000	81.961	-149.6493
1430.000000	82.147	-150.0040
1450.000000	82.260	-150.2880
1475.000000	82.390	-150.6541
1500.000000	82.511	-151.0015
1525.000000	82.623	-151.3135
1550.000000	82.723	-151.5941
1575.000000	82.817	-151.8527
1600.000000	82.908	-152.0983
1625.000000	83.000	-152.3240
1650.000000	83.092	-152.5240
1675.000000	83.185	-152.7034
1700.000000	83.278	-152.8723
1725.000000	83.373	-153.0408
1750.000000	83.468	-153.2120
1775.000000	83.565	-153.3913
1800.000000	83.662	-153.5789
1825.000000	83.760	-153.7731
1850.000000	83.860	-153.9818
1875.000000	83.959	-154.2130
1900.000000	84.058	-154.4666
1925.000000	84.157	-154.7402
1950.000000	84.256	-155.0262
1975.000000	84.354	-155.3241
2000.000000	84.452	-155.6345
2030.000000	84.571	-156.0247
2060.000000	84.690	-156.4374
2090.000000	84.808	-156.8702
2120.000000	84.927	-157.3131
2140.000000	85.007	-157.6118
2180.000000	85.166	-158.2304
2200.000000	85.245	-158.5604
2240.000000	85.400	-159.2702
2270.000000	85.515	-159.8447
2300.000000	85.627	-160.4555
2330.000000	85.737	-161.0997
2360.000000	85.845	-161.7787
2400.000000	85.984	-162.7495
2430.000000	86.083	-163.5332
2470.000000	86.209	-164.6466
2500.000000	86.299	-165.5217
2540.000000	86.412	-166.7319
2580.000000	86.516	-167.9861
2620.000000	86.611	-169.2829
2650.000000	86.675	-170.2798
2690.000000	86.750	-171.6363
2720.000000	86.797	-172.6647
2760.000000	86.851	-174.0343
2800.000000	86.891	-175.3992
2850.000000	86.923	-177.1101
2900.000000	86.932	-178.8215
2950.000000	86.918	179.4904
3000.000000	86.882	177.8607
3040.000000	86.838	176.6243
3070.000000	86.799	175.7453
3110.000000	86.742	174.6436
3150.000000	86.684	173.6256
3200.000000	86.623	172.4457
3250.000000	86.582	171.2797
3300.000000	86.554	170.0051
3350.000000	86.519	168.5783
3400.000000	86.461	167.0549
3450.000000	86.374	165.5266
3500.000000	86.262	164.0742
3550.000000	86.133	162.7524
3600.000000	85.992	161.5757
3650.000000	85.843	160.5190
3700.000000	85.691	159.5493
3750.000000	85.534	158.6518
3820.000000	85.307	157.5157
3870.000000	85.139	156.7927
3950.000000	84.863	155.7750
4000.000000	84.690	155.2043
4060.000000	84.481	154.5595
4120.000000	84.272	153.9655
4180.000000	84.065	153.4453
4250.000000	83.827	152.9354
4310.000000	83.624	152.5789
4370.000000	83.424	152.2974
4440.000000	83.194	152.0616
4500.000000	83.000	151.9440
4550.000000	82.842	151.9181
4620.000000	82.629	152.0027
4680.000000	82.455	152.1674
4750.000000	82.262	152.4181
4820.000000	82.079	152.6945
4870.000000	81.954	152.8926
4940.000000	81.782	153.1609
5000.000000	81.636	153.3868
5080.000000	81.441	153.6945
5150.000000	81.273	153.9742
5220.000000	81.105	154.2521
5300.000000	80.917	154.5733
5380.000000	80.735	154.9282
5450.000000	80.579	155.2725
5520.000000	80.426	155.6400
5600.000000	80.255	156.0909
5700.000000	80.049	156.7048
5800.000000	79.852	157.3686
5900.000000	79.663	158.1073
6000.000000	79.484	158.9355
6080.000000	79.346	159.6133
6150.000000	79.230	160.1974
6220.000000	79.113	160.7811
6300.000000	78.973	161.4724
6400.000000	78.786	162.4430
6500.000000	78.590	163.6464
6600.000000	78.409	165.1374
6700.000000	78.263	166.8224
6800.000000	78.159	168.5613
6900.000000	78.084	170.2427
7000.000000	78.022	171.8265
7100.000000	77.959	173.3569
7200.000000	77.891	174.9442
7300.000000	77.825	176.7032
7400.000000	77.781	178.6688
7500.000000	77.775	-179.2145
7620.000000	77.824	-176.6358
7750.000000	77.937	-173.9478
7880.000000	78.106	-171.3886
8000.000000	78.316	-169.1262
8120.000000	78.580	-166.9691
8250.000000	78.928	-164.7806
8380.000000	79.349	-162.7914
8500.000000	79.805	-161.1712
8620.000000	80.334	-159.8233
8750.000000	80.998	-158.7811
8850.000000	81.580	-158.3735
9000.000000	82.587	-158.6641
9120.000000	83.511	-160.0009
9250.000000	84.609	-163.0663
9380.000000	85.733	-168.4859
9500.000000	86.659	-176.1572
9620.000000	87.297	173.5023
9750.000000	87.478	160.2770
9880.000000	87.044	147.1320
10000.000000	86.167	136.9580
10150.000000	84.669	128.0183
10300.000000	83.018	122.9275
10440.000000	81.525	120.7459
10600.000000	79.970	120.2893
10750.000000	78.678	121.1552
10900.000000	77.537	122.8394
11060.000000	76.469	125.2433
11200.000000	75.643	127.7192
11380.000000	74.707	131.2709
11500.000000	74.152	133.8060
11720.000000	73.262	138.7074
11800.000000	72.975	140.5523
12060.000000	72.165	146.7030
12200.000000	71.800	150.0927
12410.000000	71.332	155.2428
12500.000000	71.160	157.4562
12650.000000	70.910	161.1269
12800.000000	70.708	164.7443
13150.000000	70.419	173.0997
13200.000000	70.400	174.2999
13400.000000	70.385	179.1219
13600.000000	70.474	-176.0662
13800.000000	70.676	-171.3259
14000.000000	71.001	-166.7005
14300.000000	71.738	-160.0973
14500.000000	72.426	-156.0408
14750.000000	73.562	-151.6546
15000.000000	75.089	-148.5393
15250.000000	77.132	-147.8185
15500.000000	79.674	-151.9971
15750.000000	82.078	-165.3089
16000.000000	83.219	170.9812
16250.000000	82.485	146.1991
16500.000000	80.372	130.9815
16750.000000	77.925	125.4855
17000.000000	75.843	125.4086
17250.000000	74.298	127.7714
17500.000000	73.244	131.1235
17750.000000	72.590	134.7477
18000.000000	72.270	138.1048
18250.000000	72.258	140.5588
18500.000000	72.510	141.2327
18750.000000	72.905	138.9117
19000.000000	73.164	132.4877
19250.000000	72.898	122.2762
19500.000000	71.823	111.1622
19750.000000	70.121	102.9996
20000.000000	68.801	99.5021
