* Measurement data measured by REW V5.20.5
* Source: Input device not selected, no input selected, L, volume: no control
* Format: 128k Log Swept Sine, 4 sweeps at -11.0 dBFS with no timing reference
* Dated: 2022. 5. 17 ¿ÀÈÄ 10:24:55
* REW Settings:
*  C-weighting compensation: Off
*  Target level: 75.0 dB
* Note: ; 
* Measurement: Westonestar_EtyRed_L
* Smoothing: 1/24 octave
* Frequency Step: 1/48 octave
* Start Frequency: 20.300 Hz
*
* Freq(Hz)	SPL(dB)	Phase(degrees)
20.299999	76.727	-157.7538
20.600000	76.743	-157.8486
20.900000	76.773	-158.0193
21.200001	76.799	-158.1886
21.400000	76.813	-158.3086
21.799999	76.833	-158.5792
22.000000	76.840	-158.7299
22.400000	76.846	-159.0436
22.700001	76.847	-159.2741
23.000000	76.848	-159.4941
23.299999	76.852	-159.7084
23.600000	76.859	-159.9254
24.000000	76.876	-160.2325
24.299999	76.891	-160.4818
24.700001	76.914	-160.8352
25.000000	76.932	-161.1058
25.400000	76.955	-161.4577
25.799999	76.977	-161.7847
26.200001	77.001	-162.0814
26.500000	77.019	-162.2859
26.900000	77.043	-162.5397
27.200001	77.060	-162.7188
27.600000	77.080	-162.9435
28.000000	77.098	-163.1482
28.500000	77.115	-163.3690
29.000000	77.129	-163.5546
29.500000	77.144	-163.7263
30.000000	77.158	-163.9101
30.400000	77.168	-164.0711
30.700001	77.174	-164.1960
31.100000	77.180	-164.3605
31.500000	77.185	-164.5204
32.000000	77.195	-164.7237
32.500000	77.206	-164.9473
33.000000	77.216	-165.1935
33.500000	77.224	-165.4437
34.000000	77.231	-165.6774
34.500000	77.242	-165.8921
35.000000	77.255	-166.0965
35.500000	77.269	-166.2939
36.000000	77.283	-166.4773
36.500000	77.296	-166.6413
37.000000	77.310	-166.7908
37.500000	77.323	-166.9353
38.200001	77.338	-167.1377
38.700001	77.347	-167.2836
39.500000	77.357	-167.5269
40.000000	77.360	-167.6818
40.599998	77.361	-167.8543
41.200001	77.362	-168.0023
41.799999	77.367	-168.1409
42.500000	77.377	-168.3194
43.099998	77.385	-168.4878
43.700001	77.392	-168.6524
44.400002	77.400	-168.8273
45.000000	77.408	-168.9672
45.500000	77.414	-169.0821
46.200001	77.421	-169.2390
46.799999	77.426	-169.3641
47.500000	77.432	-169.5008
48.200001	77.438	-169.6401
48.700001	77.442	-169.7432
49.400002	77.445	-169.8865
50.000000	77.448	-170.0061
50.799999	77.452	-170.1626
51.500000	77.455	-170.2928
52.200001	77.458	-170.4163
53.000000	77.463	-170.5555
53.799999	77.467	-170.6899
54.500000	77.471	-170.8029
55.200001	77.473	-170.9148
56.000000	77.476	-171.0356
57.000000	77.482	-171.1976
58.000000	77.483	-171.3918
59.000000	77.478	-171.5384
60.000000	77.479	-171.6470
60.799999	77.482	-171.7390
61.500000	77.485	-171.8144
62.200001	77.488	-171.8882
63.000000	77.492	-171.9751
64.000000	77.494	-172.0726
65.000000	77.496	-172.1582
66.000000	77.499	-172.2431
67.000000	77.504	-172.3424
68.000000	77.509	-172.4604
69.000000	77.511	-172.5904
70.000000	77.510	-172.7144
71.000000	77.508	-172.8125
72.000000	77.507	-172.8952
73.000000	77.507	-172.9696
74.000000	77.508	-173.0457
75.000000	77.509	-173.1228
76.199997	77.510	-173.1993
77.500000	77.515	-173.2884
78.800003	77.518	-173.3846
80.000000	77.522	-173.4649
81.199997	77.525	-173.5832
82.500000	77.516	-173.7089
83.800003	77.508	-173.7830
85.000000	77.504	-173.8550
86.199997	77.500	-173.9302
87.500000	77.499	-174.0033
88.500000	77.499	-174.0609
90.000000	77.499	-174.1446
91.199997	77.499	-174.2176
92.500000	77.495	-174.2990
93.800003	77.490	-174.3650
95.000000	77.487	-174.4199
96.199997	77.485	-174.4821
97.500000	77.483	-174.5544
98.800003	77.479	-174.6129
100.000000	77.476	-174.6508
101.500000	77.474	-174.6958
103.000000	77.471	-174.7513
104.400002	77.466	-174.8023
106.000000	77.460	-174.8557
107.500000	77.454	-174.9032
109.000000	77.447	-174.9430
110.599998	77.440	-174.9821
112.000000	77.433	-175.0158
113.800003	77.424	-175.0544
115.000000	77.419	-175.0757
117.199997	77.410	-175.1189
118.000000	77.406	-175.1382
120.599998	77.394	-175.1938
122.000000	77.387	-175.2172
124.099998	77.377	-175.2440
125.000000	77.372	-175.2507
126.500000	77.363	-175.2602
128.000000	77.353	-175.2737
131.500000	77.326	-175.3133
132.000000	77.323	-175.3171
134.000000	77.310	-175.3295
136.000000	77.294	-175.3305
138.000000	77.273	-175.3138
140.000000	77.245	-175.2803
143.000000	77.197	-175.1911
145.000000	77.159	-175.0985
147.500000	77.101	-174.9311
150.000000	77.024	-174.6639
152.500000	76.941	-174.1640
155.000000	76.867	-173.3487
157.500000	76.819	-172.0634
160.000000	76.855	-170.2823
162.500000	77.061	-168.4975
165.000000	77.419	-167.6728
167.500000	77.772	-168.2798
170.000000	77.987	-169.7577
172.500000	78.059	-171.2594
175.000000	78.049	-172.3832
177.500000	78.007	-173.1576
180.000000	77.957	-173.6882
182.500000	77.910	-174.0237
185.000000	77.870	-174.2034
187.500000	77.835	-174.2860
190.000000	77.807	-174.4056
192.500000	77.781	-174.5801
195.000000	77.757	-174.7175
197.500000	77.739	-174.8169
200.000000	77.722	-174.9068
203.000000	77.701	-174.9825
206.000000	77.682	-174.9698
209.000000	77.668	-174.9551
212.000000	77.653	-174.9738
214.000000	77.643	-174.9870
218.000000	77.623	-174.9897
220.000000	77.615	-174.9832
224.000000	77.603	-174.9527
227.000000	77.595	-174.9121
230.000000	77.585	-174.8737
233.000000	77.575	-174.8416
236.000000	77.568	-174.8087
240.000000	77.562	-174.7513
243.000000	77.559	-174.7053
247.000000	77.554	-174.6421
250.000000	77.549	-174.6024
254.000000	77.543	-174.5534
258.000000	77.538	-174.5107
262.000000	77.532	-174.4252
265.000000	77.528	-174.3055
269.000000	77.525	-174.1941
272.000000	77.523	-174.2021
276.000000	77.519	-174.2076
280.000000	77.513	-174.1553
285.000000	77.505	-174.0635
290.000000	77.500	-173.9735
295.000000	77.493	-173.8766
300.000000	77.486	-173.7758
304.000000	77.480	-173.6898
307.000000	77.475	-173.6212
311.000000	77.468	-173.5287
315.000000	77.461	-173.4361
320.000000	77.452	-173.3159
325.000000	77.444	-173.1869
330.000000	77.436	-173.0708
335.000000	77.426	-172.9655
340.000000	77.418	-172.8484
345.000000	77.411	-172.7204
350.000000	77.405	-172.5841
355.000000	77.398	-172.4481
360.000000	77.391	-172.3131
365.000000	77.385	-172.1750
370.000000	77.380	-172.0329
375.000000	77.374	-171.8849
382.000000	77.366	-171.6785
387.000000	77.361	-171.5325
395.000000	77.355	-171.2901
400.000000	77.351	-171.1384
406.000000	77.346	-170.9586
412.000000	77.342	-170.7770
418.000000	77.337	-170.5919
425.000000	77.333	-170.3779
431.000000	77.330	-170.1968
437.000000	77.327	-170.0103
444.000000	77.323	-169.7852
450.000000	77.321	-169.5902
455.000000	77.319	-169.4244
462.000000	77.318	-169.1816
468.000000	77.317	-168.9657
475.000000	77.315	-168.7154
482.000000	77.314	-168.4639
487.000000	77.314	-168.2819
494.000000	77.316	-168.0252
500.000000	77.317	-167.8047
508.000000	77.319	-167.5110
515.000000	77.321	-167.2525
522.000000	77.324	-166.9898
530.000000	77.326	-166.6905
538.000000	77.329	-166.3911
545.000000	77.329	-166.1243
552.000000	77.329	-165.8556
560.000000	77.329	-165.5452
570.000000	77.330	-165.1478
580.000000	77.332	-164.7434
590.000000	77.336	-164.3283
600.000000	77.342	-163.9015
608.000000	77.347	-163.5527
615.000000	77.352	-163.2437
622.000000	77.358	-162.9320
630.000000	77.364	-162.5721
640.000000	77.375	-162.1185
650.000000	77.388	-161.6595
660.000000	77.402	-161.1975
670.000000	77.417	-160.7369
680.000000	77.433	-160.2778
690.000000	77.450	-159.8131
700.000000	77.471	-159.3470
710.000000	77.492	-158.8745
720.000000	77.516	-158.3959
730.000000	77.541	-157.9191
740.000000	77.568	-157.4411
750.000000	77.598	-156.9541
762.000000	77.634	-156.3596
775.000000	77.677	-155.7055
788.000000	77.722	-155.0438
800.000000	77.768	-154.4318
812.000000	77.817	-153.8228
825.000000	77.875	-153.1703
838.000000	77.939	-152.5258
850.000000	78.001	-151.9442
862.000000	78.066	-151.3764
875.000000	78.139	-150.7790
885.000000	78.198	-150.3351
900.000000	78.291	-149.6965
912.000000	78.370	-149.2041
925.000000	78.460	-148.6932
938.000000	78.554	-148.2101
950.000000	78.644	-147.7865
962.000000	78.737	-147.3848
975.000000	78.841	-146.9767
988.000000	78.948	-146.5934
1000.000000	79.049	-146.2619
1015.000000	79.177	-145.8850
1030.000000	79.306	-145.5562
1044.000000	79.427	-145.2923
1060.000000	79.565	-145.0374
1075.000000	79.693	-144.8427
1090.000000	79.819	-144.6929
1106.000000	79.949	-144.5853
1120.000000	80.061	-144.5320
1138.000000	80.202	-144.5178
1150.000000	80.294	-144.5377
1172.000000	80.457	-144.6200
1180.000000	80.515	-144.6626
1206.000000	80.703	-144.8443
1220.000000	80.808	-144.9669
1241.000000	80.968	-145.1748
1250.000000	81.036	-145.2701
1265.000000	81.148	-145.4345
1280.000000	81.259	-145.6030
1315.000000	81.509	-146.0247
1320.000000	81.544	-146.0908
1340.000000	81.681	-146.3737
1360.000000	81.818	-146.6852
1380.000000	81.957	-147.0332
1400.000000	82.100	-147.4288
1430.000000	82.307	-148.1317
1450.000000	82.437	-148.6799
1475.000000	82.592	-149.4599
1500.000000	82.737	-150.4221
1525.000000	82.843	-151.6504
1550.000000	82.861	-153.0005
1575.000000	82.786	-154.0856
1600.000000	82.658	-154.5589
1625.000000	82.542	-154.3687
1650.000000	82.485	-153.7460
1675.000000	82.492	-152.9834
1700.000000	82.549	-152.2749
1725.000000	82.638	-151.6975
1750.000000	82.745	-151.2559
1775.000000	82.862	-150.9327
1800.000000	82.984	-150.7032
1825.000000	83.109	-150.5465
1850.000000	83.235	-150.4601
1875.000000	83.361	-150.4440
1900.000000	83.486	-150.4865
1925.000000	83.610	-150.5748
1950.000000	83.732	-150.6976
1975.000000	83.852	-150.8474
2000.000000	83.972	-151.0245
2030.000000	84.116	-151.2730
2060.000000	84.258	-151.5591
2090.000000	84.398	-151.8774
2120.000000	84.538	-152.2173
2140.000000	84.631	-152.4531
2180.000000	84.815	-152.9572
2200.000000	84.906	-153.2339
2240.000000	85.083	-153.8409
2270.000000	85.213	-154.3383
2300.000000	85.341	-154.8759
2330.000000	85.466	-155.4532
2360.000000	85.587	-156.0695
2400.000000	85.742	-156.9640
2430.000000	85.852	-157.6940
2470.000000	85.990	-158.7380
2500.000000	86.085	-159.5598
2540.000000	86.202	-160.6895
2580.000000	86.303	-161.8385
2620.000000	86.388	-162.9810
2650.000000	86.440	-163.8073
2690.000000	86.497	-164.8148
2720.000000	86.536	-165.4561
2760.000000	86.600	-166.1248
2800.000000	86.702	-166.6659
2850.000000	86.896	-167.5600
2900.000000	87.111	-169.0882
2950.000000	87.270	-171.1531
3000.000000	87.354	-173.3924
3040.000000	87.378	-175.1483
3070.000000	87.379	-176.4185
3110.000000	87.361	-178.0537
3150.000000	87.326	-179.6285
3200.000000	87.264	178.4914
3250.000000	87.187	176.7199
3300.000000	87.096	175.0559
3350.000000	86.993	173.4943
3400.000000	86.881	172.0326
3450.000000	86.761	170.6663
3500.000000	86.633	169.4025
3550.000000	86.499	168.2576
3600.000000	86.361	167.2305
3650.000000	86.219	166.3006
3700.000000	86.073	165.4532
3750.000000	85.926	164.6856
3820.000000	85.716	163.7413
3870.000000	85.564	163.1579
3950.000000	85.325	162.3640
4000.000000	85.181	161.9145
4060.000000	85.012	161.3710
4120.000000	84.843	160.8243
4180.000000	84.672	160.3192
4250.000000	84.469	159.8292
4310.000000	84.295	159.5142
4370.000000	84.126	159.3043
4440.000000	83.939	159.1874
4500.000000	83.792	159.1883
4550.000000	83.684	159.2464
4620.000000	83.556	159.3570
4680.000000	83.461	159.4059
4750.000000	83.353	159.3657
4820.000000	83.238	159.2610
4870.000000	83.150	159.1771
4940.000000	83.023	159.0669
5000.000000	82.913	158.9786
5080.000000	82.767	158.8541
5150.000000	82.641	158.7134
5220.000000	82.514	158.5009
5300.000000	82.367	158.1467
5380.000000	82.210	157.6782
5450.000000	82.054	157.1751
5520.000000	81.864	156.6151
5600.000000	81.591	156.0393
5700.000000	81.165	155.8178
5800.000000	80.705	156.5643
5900.000000	80.314	158.2168
6000.000000	80.042	160.2824
6080.000000	79.898	161.9004
6150.000000	79.808	163.1954
6220.000000	79.739	164.3742
6300.000000	79.675	165.6021
6400.000000	79.605	167.0034
6500.000000	79.541	168.2944
6600.000000	79.478	169.5066
6700.000000	79.411	170.6786
6800.000000	79.337	171.8537
6900.000000	79.250	173.1003
7000.000000	79.157	174.5156
7100.000000	79.079	176.1559
7200.000000	79.036	177.9614
7300.000000	79.032	179.8149
7400.000000	79.062	-178.3511
7500.000000	79.120	-176.5564
7620.000000	79.222	-174.4985
7750.000000	79.359	-172.3992
7880.000000	79.533	-170.3504
8000.000000	79.746	-168.4985
8120.000000	80.020	-166.7994
8250.000000	80.367	-165.2369
8380.000000	80.754	-163.8716
8500.000000	81.160	-162.7284
8620.000000	81.627	-161.7530
8750.000000	82.217	-160.9928
8850.000000	82.740	-160.7171
9000.000000	83.653	-161.0506
9120.000000	84.502	-162.2618
9250.000000	85.530	-164.9938
9380.000000	86.613	-169.8396
9500.000000	87.549	-176.7990
9620.000000	88.258	173.5720
9750.000000	88.570	160.7619
9880.000000	88.287	147.3889
10000.000000	87.523	136.5178
10150.000000	86.099	126.4860
10300.000000	84.455	120.4261
10440.000000	82.931	117.5324
10600.000000	81.324	116.4413
10750.000000	79.976	116.8357
10900.000000	78.777	118.1453
11060.000000	77.648	120.2370
11200.000000	76.769	122.4897
11380.000000	75.766	125.7916
11500.000000	75.166	128.1805
11720.000000	74.189	132.8680
11800.000000	73.869	134.6548
12060.000000	72.943	140.7313
12200.000000	72.515	144.1696
12410.000000	71.962	149.4949
12500.000000	71.758	151.8112
12650.000000	71.463	155.6692
12800.000000	71.223	159.4740
13150.000000	70.869	168.1778
13200.000000	70.842	169.4146
13400.000000	70.789	174.3498
13600.000000	70.829	179.2372
13800.000000	70.967	-175.9512
14000.000000	71.209	-171.2374
14300.000000	71.776	-164.4038
14500.000000	72.314	-160.0737
14750.000000	73.203	-155.0930
15000.000000	74.391	-150.8868
15250.000000	75.984	-148.0208
15500.000000	78.113	-147.6855
15750.000000	80.660	-152.4434
16000.000000	82.943	-166.2450
16250.000000	83.944	170.4951
16500.000000	83.172	147.0942
16750.000000	81.145	132.8575
17000.000000	78.823	127.5472
17250.000000	76.859	127.3298
17500.000000	75.438	129.4453
17750.000000	74.496	132.4866
18000.000000	73.940	135.6600
18250.000000	73.715	138.2947
18500.000000	73.773	139.6199
18750.000000	74.024	138.6749
19000.000000	74.267	134.4509
19250.000000	74.180	126.6512
19500.000000	73.476	116.8365
19750.000000	72.231	108.3593
20000.000000	71.243	104.1666
