* Measurement data measured by REW V5.20.13
* Source: Input device not selected, no input selected, L, volume: no control
* Format: 256k Log Swept Sine, 1 sweep at -12.0 dBFS with no timing reference
* Dated: 2022. 10. 1 ¿ÀÈÄ 7:26:49
* REW Settings:
*  C-weighting compensation: Off
*  Target level: 75.0 dB
* Note: 
* Measurement: R
* Smoothing: 1/24 octave
* Frequency Step: 1/48 octave
* Start Frequency: 20.300 Hz
*
* Freq(Hz)	SPL(dB)	Phase(degrees)
20.299999	74.107	-146.0192
20.600000	74.127	-146.1842
20.900000	74.164	-146.4836
21.200001	74.189	-146.7777
21.400000	74.199	-146.9628
21.799999	74.212	-147.3094
22.000000	74.217	-147.4744
22.400000	74.234	-147.8007
22.700001	74.252	-148.0691
23.000000	74.275	-148.3865
23.299999	74.300	-148.7653
23.600000	74.323	-149.2013
24.000000	74.345	-149.8408
24.299999	74.354	-150.3215
24.700001	74.356	-150.9025
25.000000	74.356	-151.2621
25.400000	74.362	-151.6337
25.799999	74.385	-151.9270
26.200001	74.424	-152.2187
26.500000	74.459	-152.4718
26.900000	74.504	-152.8613
27.200001	74.531	-153.1688
27.600000	74.557	-153.5530
28.000000	74.577	-153.8720
28.500000	74.603	-154.1975
29.000000	74.633	-154.5261
29.500000	74.659	-154.9043
30.000000	74.671	-155.2882
30.400000	74.675	-155.5549
30.700001	74.678	-155.7278
31.100000	74.688	-155.9480
31.500000	74.704	-156.1909
32.000000	74.724	-156.5533
32.500000	74.739	-156.9545
33.000000	74.748	-157.3397
33.500000	74.755	-157.6802
34.000000	74.764	-157.9751
34.500000	74.777	-158.2306
35.000000	74.796	-158.4579
35.500000	74.819	-158.6875
36.000000	74.844	-158.9512
36.500000	74.860	-159.2438
37.000000	74.865	-159.5141
37.500000	74.863	-159.7155
38.200001	74.869	-159.9104
38.700001	74.883	-160.0709
39.500000	74.905	-160.4688
40.000000	74.910	-160.7692
40.599998	74.906	-161.1097
41.200001	74.900	-161.3824
41.799999	74.902	-161.5951
42.500000	74.918	-161.8387
43.099998	74.934	-162.0781
43.700001	74.945	-162.2818
44.400002	74.963	-162.4135
45.000000	74.993	-162.5392
45.500000	75.016	-162.7451
46.200001	75.011	-163.0766
46.799999	74.981	-163.1536
47.500000	74.972	-162.9796
48.200001	75.012	-162.9298
48.700001	75.043	-163.1218
49.400002	75.053	-163.5524
50.000000	75.039	-163.8577
50.799999	75.027	-164.1447
51.500000	75.029	-164.4102
52.200001	75.031	-164.6883
53.000000	75.038	-164.9563
53.799999	75.053	-165.2004
54.500000	75.068	-165.4149
55.200001	75.080	-165.6118
56.000000	75.089	-165.8145
57.000000	75.092	-166.0241
58.000000	75.093	-166.1755
59.000000	75.098	-166.3576
60.000000	75.103	-166.5771
60.799999	75.111	-166.7974
61.500000	75.116	-167.0491
62.200001	75.111	-167.3033
63.000000	75.099	-167.5014
64.000000	75.096	-167.6208
65.000000	75.108	-167.7356
66.000000	75.121	-167.8836
67.000000	75.125	-168.0354
68.000000	75.125	-168.1261
69.000000	75.132	-168.2196
70.000000	75.135	-168.3643
71.000000	75.136	-168.4659
72.000000	75.144	-168.5609
73.000000	75.155	-168.6833
74.000000	75.166	-168.8601
75.000000	75.162	-169.0648
76.199997	75.148	-169.2071
77.500000	75.142	-169.3064
78.800003	75.146	-169.4473
80.000000	75.151	-169.6418
81.199997	75.153	-169.8450
82.500000	75.154	-170.0493
83.800003	75.153	-170.2191
85.000000	75.151	-170.3335
86.199997	75.150	-170.4295
87.500000	75.148	-170.5020
88.500000	75.149	-170.5429
90.000000	75.155	-170.6272
91.199997	75.159	-170.7286
92.500000	75.158	-170.8303
93.800003	75.160	-170.9266
95.000000	75.160	-171.0489
96.199997	75.156	-171.1680
97.500000	75.149	-171.2734
98.800003	75.144	-171.3305
100.000000	75.147	-171.3618
101.500000	75.158	-171.4237
103.000000	75.169	-171.5241
104.400002	75.173	-171.6387
106.000000	75.169	-171.7360
107.500000	75.162	-171.7965
109.000000	75.155	-171.8391
110.599998	75.150	-171.9182
112.000000	75.144	-172.0010
113.800003	75.141	-172.0983
115.000000	75.142	-172.1752
117.199997	75.144	-172.2524
118.000000	75.147	-172.2722
120.599998	75.154	-172.4244
122.000000	75.143	-172.5222
124.099998	75.127	-172.6061
125.000000	75.123	-172.6361
126.500000	75.118	-172.6914
128.000000	75.113	-172.7201
131.500000	75.111	-172.8056
132.000000	75.109	-172.8344
134.000000	75.098	-172.9342
136.000000	75.097	-173.0016
138.000000	75.103	-173.0771
140.000000	75.101	-173.1252
143.000000	75.093	-173.1412
145.000000	75.093	-173.1992
147.500000	75.093	-173.3062
150.000000	75.091	-173.2890
152.500000	75.086	-173.2698
155.000000	75.070	-173.2967
157.500000	75.065	-173.3414
160.000000	75.067	-173.4191
162.500000	75.071	-173.4684
165.000000	75.068	-173.5147
167.500000	75.056	-173.5197
170.000000	75.042	-173.4966
172.500000	75.032	-173.5034
175.000000	75.027	-173.5460
177.500000	75.024	-173.5547
180.000000	75.021	-173.5506
182.500000	75.014	-173.5764
185.000000	75.007	-173.5999
187.500000	75.000	-173.6354
190.000000	74.987	-173.6496
192.500000	74.978	-173.6174
195.000000	74.978	-173.5924
197.500000	74.981	-173.5818
200.000000	74.981	-173.5690
203.000000	74.978	-173.5419
206.000000	74.970	-173.4983
209.000000	74.963	-173.5106
212.000000	74.955	-173.5537
214.000000	74.953	-173.5573
218.000000	74.948	-173.5386
220.000000	74.941	-173.5151
224.000000	74.930	-173.4647
227.000000	74.924	-173.4246
230.000000	74.922	-173.3621
233.000000	74.921	-173.3067
236.000000	74.915	-173.3015
240.000000	74.900	-173.3137
243.000000	74.892	-173.2835
247.000000	74.884	-173.1950
250.000000	74.878	-173.1420
254.000000	74.871	-173.1273
258.000000	74.858	-173.0861
262.000000	74.848	-173.0185
265.000000	74.844	-172.9546
269.000000	74.845	-172.8492
272.000000	74.845	-172.7863
276.000000	74.835	-172.7347
280.000000	74.822	-172.6851
285.000000	74.816	-172.6445
290.000000	74.812	-172.5515
295.000000	74.804	-172.4265
300.000000	74.794	-172.3041
304.000000	74.787	-172.2396
307.000000	74.782	-172.1966
311.000000	74.771	-172.1113
315.000000	74.763	-172.0110
320.000000	74.754	-171.8968
325.000000	74.745	-171.7887
330.000000	74.738	-171.6683
335.000000	74.725	-171.5481
340.000000	74.716	-171.4516
345.000000	74.709	-171.3403
350.000000	74.701	-171.2462
355.000000	74.695	-171.1560
360.000000	74.687	-171.0379
365.000000	74.679	-170.8882
370.000000	74.673	-170.7247
375.000000	74.670	-170.5485
382.000000	74.659	-170.3356
387.000000	74.646	-170.2345
395.000000	74.631	-170.0831
400.000000	74.625	-169.9262
406.000000	74.618	-169.7283
412.000000	74.609	-169.5372
418.000000	74.604	-169.3501
425.000000	74.604	-169.1241
431.000000	74.599	-168.9208
437.000000	74.591	-168.7556
444.000000	74.582	-168.5739
450.000000	74.575	-168.3713
455.000000	74.568	-168.2165
462.000000	74.558	-168.0332
468.000000	74.549	-167.8469
475.000000	74.540	-167.5840
482.000000	74.534	-167.3117
487.000000	74.529	-167.1307
494.000000	74.523	-166.8908
500.000000	74.523	-166.6758
508.000000	74.518	-166.3696
515.000000	74.507	-166.0929
522.000000	74.502	-165.8397
530.000000	74.502	-165.5460
538.000000	74.500	-165.2404
545.000000	74.498	-164.9683
552.000000	74.497	-164.6750
560.000000	74.499	-164.3343
570.000000	74.495	-163.9322
580.000000	74.485	-163.5267
590.000000	74.481	-163.1465
600.000000	74.481	-162.7231
608.000000	74.483	-162.3761
615.000000	74.485	-162.0856
622.000000	74.487	-161.7915
630.000000	74.492	-161.4368
640.000000	74.496	-160.9721
650.000000	74.499	-160.5099
660.000000	74.501	-160.0527
670.000000	74.505	-159.5649
680.000000	74.520	-159.0642
690.000000	74.540	-158.5589
700.000000	74.557	-158.0614
710.000000	74.572	-157.5756
720.000000	74.587	-157.0633
730.000000	74.607	-156.5270
740.000000	74.630	-155.9901
750.000000	74.656	-155.4499
762.000000	74.692	-154.8022
775.000000	74.734	-154.1440
788.000000	74.779	-153.4172
800.000000	74.826	-152.7531
812.000000	74.878	-152.0913
825.000000	74.935	-151.3904
838.000000	74.998	-150.7100
850.000000	75.061	-150.0778
862.000000	75.128	-149.4551
875.000000	75.208	-148.7912
885.000000	75.273	-148.2739
900.000000	75.375	-147.5291
912.000000	75.459	-146.9544
925.000000	75.557	-146.3477
938.000000	75.664	-145.7844
950.000000	75.765	-145.3071
962.000000	75.870	-144.8458
975.000000	75.988	-144.3470
988.000000	76.104	-143.8476
1000.000000	76.214	-143.4444
1015.000000	76.361	-143.0777
1030.000000	76.507	-142.7523
1044.000000	76.644	-142.4671
1060.000000	76.803	-142.1922
1075.000000	76.951	-141.9758
1090.000000	77.098	-141.8289
1106.000000	77.256	-141.7506
1120.000000	77.390	-141.7279
1138.000000	77.555	-141.7200
1150.000000	77.665	-141.7334
1172.000000	77.863	-141.8548
1180.000000	77.933	-141.9208
1206.000000	78.149	-142.1809
1220.000000	78.263	-142.3529
1241.000000	78.425	-142.6405
1250.000000	78.491	-142.7750
1265.000000	78.598	-143.0138
1280.000000	78.703	-143.2767
1315.000000	78.937	-143.9491
1320.000000	78.970	-144.0480
1340.000000	79.099	-144.4558
1360.000000	79.224	-144.8951
1380.000000	79.347	-145.3957
1400.000000	79.467	-145.9543
1430.000000	79.630	-146.8933
1450.000000	79.728	-147.5954
1475.000000	79.840	-148.5989
1500.000000	79.925	-149.8380
1525.000000	79.933	-151.2853
1550.000000	79.836	-152.4825
1575.000000	79.681	-152.9622
1600.000000	79.554	-152.6988
1625.000000	79.502	-152.0525
1650.000000	79.522	-151.3859
1675.000000	79.586	-150.8364
1700.000000	79.671	-150.4307
1725.000000	79.770	-150.1543
1750.000000	79.874	-149.9718
1775.000000	79.979	-149.8703
1800.000000	80.085	-149.8594
1825.000000	80.190	-149.9001
1850.000000	80.296	-149.9527
1875.000000	80.401	-150.0251
1900.000000	80.505	-150.1252
1925.000000	80.609	-150.2543
1950.000000	80.712	-150.4088
1975.000000	80.815	-150.5874
2000.000000	80.919	-150.7861
2030.000000	81.045	-151.0653
2060.000000	81.170	-151.3702
2090.000000	81.296	-151.6903
2120.000000	81.424	-152.0332
2140.000000	81.509	-152.2779
2180.000000	81.677	-152.8172
2200.000000	81.762	-153.1118
2240.000000	81.930	-153.7535
2270.000000	82.056	-154.2702
2300.000000	82.180	-154.8235
2330.000000	82.304	-155.4235
2360.000000	82.426	-156.0582
2400.000000	82.587	-156.9538
2430.000000	82.705	-157.6765
2470.000000	82.859	-158.7049
2500.000000	82.972	-159.5183
2540.000000	83.116	-160.6691
2580.000000	83.253	-161.8872
2620.000000	83.380	-163.1745
2650.000000	83.470	-164.1869
2690.000000	83.583	-165.5882
2720.000000	83.659	-166.6693
2760.000000	83.751	-168.1553
2800.000000	83.830	-169.6927
2850.000000	83.910	-171.6744
2900.000000	83.971	-173.7132
2950.000000	84.011	-175.7798
3000.000000	84.028	-177.8699
3040.000000	84.022	-179.5335
3070.000000	84.010	179.2241
3110.000000	83.981	177.5737
3150.000000	83.939	175.9420
3200.000000	83.869	173.9370
3250.000000	83.779	171.9851
3300.000000	83.669	170.1049
3350.000000	83.544	168.2986
3400.000000	83.405	166.5694
3450.000000	83.253	164.9286
3500.000000	83.091	163.3832
3550.000000	82.919	161.9289
3600.000000	82.738	160.5579
3650.000000	82.550	159.2711
3700.000000	82.358	158.0649
3750.000000	82.161	156.9534
3820.000000	81.880	155.5429
3870.000000	81.677	154.6263
3950.000000	81.348	153.3101
4000.000000	81.142	152.5816
4060.000000	80.896	151.7882
4120.000000	80.652	151.0801
4180.000000	80.409	150.4602
4250.000000	80.129	149.8315
4310.000000	79.892	149.3635
4370.000000	79.656	148.9669
4440.000000	79.385	148.5843
4500.000000	79.157	148.3156
4550.000000	78.968	148.1388
4620.000000	78.710	147.9576
4680.000000	78.493	147.8461
4750.000000	78.243	147.7638
4820.000000	77.998	147.7397
4870.000000	77.827	147.7512
4940.000000	77.592	147.8034
5000.000000	77.392	147.8909
5080.000000	77.130	148.0551
5150.000000	76.907	148.2502
5220.000000	76.689	148.5021
5300.000000	76.447	148.8264
5380.000000	76.211	149.1876
5450.000000	76.008	149.5352
5520.000000	75.807	149.9052
5600.000000	75.582	150.3674
5700.000000	75.312	151.0173
5800.000000	75.051	151.7244
5900.000000	74.799	152.4788
6000.000000	74.552	153.2872
6080.000000	74.364	153.9558
6150.000000	74.201	154.5605
6220.000000	74.039	155.1864
6300.000000	73.861	155.9242
6400.000000	73.646	156.8940
6500.000000	73.436	157.9019
6600.000000	73.232	158.9413
6700.000000	73.036	160.0338
6800.000000	72.846	161.1360
6900.000000	72.662	162.2888
7000.000000	72.489	163.5036
7100.000000	72.327	164.7704
7200.000000	72.182	166.0893
7300.000000	72.051	167.4234
7400.000000	71.923	168.7178
7500.000000	71.796	170.0018
7620.000000	71.648	171.6155
7750.000000	71.504	173.5394
7880.000000	71.390	175.5559
8000.000000	71.323	177.4443
8120.000000	71.283	179.2692
8250.000000	71.249	-178.9057
8380.000000	71.216	-177.1384
8500.000000	71.194	-175.4703
8620.000000	71.189	-173.7605
8750.000000	71.203	-171.8561
8850.000000	71.228	-170.3583
9000.000000	71.292	-168.1258
9120.000000	71.366	-166.3393
9250.000000	71.474	-164.4262
9380.000000	71.611	-162.5505
9500.000000	71.767	-160.8394
9620.000000	71.954	-159.1748
9750.000000	72.192	-157.4398
9880.000000	72.470	-155.7943
10000.000000	72.768	-154.3875
10150.000000	73.196	-152.7849
10300.000000	73.693	-151.4065
10440.000000	74.228	-150.4070
10600.000000	74.935	-149.7538
10750.000000	75.699	-149.7915
10900.000000	76.571	-150.7130
11060.000000	77.606	-153.0512
11200.000000	78.568	-156.6910
11380.000000	79.755	-164.3493
11500.000000	80.394	-171.6109
11720.000000	80.903	171.3246
11800.000000	80.814	164.5976
12060.000000	79.546	145.2263
12200.000000	78.430	137.8224
12410.000000	76.560	130.8289
12500.000000	75.759	129.0507
12650.000000	74.479	127.2804
12800.000000	73.292	126.6248
13150.000000	70.898	127.8263
13200.000000	70.596	128.2095
13400.000000	69.474	130.0940
13600.000000	68.467	132.4302
13800.000000	67.563	135.0643
14000.000000	66.745	137.8348
14300.000000	65.671	142.2772
14500.000000	65.044	145.3420
14750.000000	64.355	149.3173
15000.000000	63.726	153.2975
15250.000000	63.154	157.2499
15500.000000	62.660	161.0729
15750.000000	62.208	164.9993
16000.000000	61.814	168.8364
16250.000000	61.487	172.4826
16500.000000	61.223	175.9833
16750.000000	60.983	179.2736
17000.000000	60.757	-177.5785
17250.000000	60.572	-174.5443
17500.000000	60.431	-171.7112
17750.000000	60.306	-169.0092
18000.000000	60.189	-166.5740
18250.000000	60.103	-164.3167
18500.000000	60.057	-162.2696
18750.000000	60.024	-160.5048
19000.000000	60.006	-159.0656
19250.000000	60.002	-158.0085
19500.000000	59.980	-157.3027
19750.000000	59.951	-157.0057
20000.000000	59.938	-157.0498
