* Measurement data measured by REW V5.20.5
* Source: Input device not selected, no input selected, L, volume: no control
* Format: 128k Log Swept Sine, 2 sweeps at -12.0 dBFS with no timing reference
* Dated: Jul 21, 2022 9:16:16 AM
* REW Settings:
*  C-weighting compensation: Off
*  Target level: 75.0 dB
* Note: 
* Measurement: ER3XR R
* Smoothing: 1/24 octave
* Frequency Step: 1/48 octave
* Start Frequency: 20.300 Hz
*
* Freq(Hz)	SPL(dB)	Phase(degrees)
20.299999	86.944	-144.8826
20.600000	86.959	-145.0528
20.900000	86.989	-145.3861
21.200001	87.012	-145.7106
21.400000	87.024	-145.9161
21.799999	87.042	-146.3169
22.000000	87.049	-146.5117
22.400000	87.062	-146.8918
22.700001	87.074	-147.1821
23.000000	87.088	-147.4938
23.299999	87.104	-147.8374
23.600000	87.121	-148.2139
24.000000	87.143	-148.7480
24.299999	87.158	-149.1515
24.700001	87.178	-149.6691
25.000000	87.195	-150.0373
25.400000	87.220	-150.5085
25.799999	87.248	-150.9677
26.200001	87.277	-151.4139
26.500000	87.297	-151.7337
26.900000	87.322	-152.1346
27.200001	87.340	-152.4185
27.600000	87.363	-152.7876
28.000000	87.385	-153.1578
28.500000	87.406	-153.6216
29.000000	87.419	-154.0619
29.500000	87.429	-154.4643
30.000000	87.439	-154.8486
30.400000	87.448	-155.1629
30.700001	87.454	-155.4065
31.100000	87.461	-155.7369
31.500000	87.465	-156.0634
32.000000	87.469	-156.4581
32.500000	87.474	-156.8426
33.000000	87.482	-157.2211
33.500000	87.492	-157.5851
34.000000	87.508	-157.9290
34.500000	87.531	-158.2672
35.000000	87.555	-158.6241
35.500000	87.574	-158.9976
36.000000	87.585	-159.3444
36.500000	87.592	-159.6184
37.000000	87.603	-159.8225
37.500000	87.623	-160.0139
38.200001	87.657	-160.3675
38.700001	87.673	-160.6810
39.500000	87.682	-161.1719
40.000000	87.685	-161.4442
40.599998	87.692	-161.7628
41.200001	87.701	-162.0944
41.799999	87.711	-162.4397
42.500000	87.721	-162.8566
43.099998	87.726	-163.2062
43.700001	87.730	-163.5121
44.400002	87.739	-163.8161
45.000000	87.751	-164.0761
45.500000	87.760	-164.2986
46.200001	87.771	-164.5870
46.799999	87.781	-164.8230
47.500000	87.792	-165.1390
48.200001	87.790	-165.4425
48.700001	87.787	-165.5874
49.400002	87.799	-165.7507
50.000000	87.821	-165.9984
50.799999	87.829	-166.4882
51.500000	87.809	-166.8345
52.200001	87.794	-167.0289
53.000000	87.796	-167.2429
53.799999	87.799	-167.5081
54.500000	87.798	-167.7146
55.200001	87.803	-167.9051
56.000000	87.811	-168.1476
57.000000	87.819	-168.4750
58.000000	87.823	-168.7892
59.000000	87.828	-169.0904
60.000000	87.832	-169.4135
60.799999	87.832	-169.6531
61.500000	87.834	-169.8437
62.200001	87.838	-170.0518
63.000000	87.839	-170.3160
64.000000	87.836	-170.6289
65.000000	87.831	-170.9148
66.000000	87.826	-171.1706
67.000000	87.827	-171.4045
68.000000	87.830	-171.6819
69.000000	87.825	-171.9465
70.000000	87.824	-172.1595
71.000000	87.827	-172.4008
72.000000	87.825	-172.6454
73.000000	87.823	-172.8604
74.000000	87.821	-173.0679
75.000000	87.820	-173.2518
76.199997	87.822	-173.4764
77.500000	87.819	-173.7178
78.800003	87.814	-173.9598
80.000000	87.806	-174.1832
81.199997	87.799	-174.3799
82.500000	87.799	-174.6300
83.800003	87.793	-174.9168
85.000000	87.785	-175.1307
86.199997	87.783	-175.3299
87.500000	87.777	-175.5716
88.500000	87.766	-175.7418
90.000000	87.751	-175.9252
91.199997	87.746	-176.0852
92.500000	87.739	-176.2993
93.800003	87.732	-176.5006
95.000000	87.729	-176.7087
96.199997	87.722	-176.9225
97.500000	87.713	-177.1144
98.800003	87.709	-177.2762
100.000000	87.708	-177.4350
101.500000	87.703	-177.6427
103.000000	87.693	-177.8489
104.400002	87.679	-178.0351
106.000000	87.663	-178.1991
107.500000	87.655	-178.3480
109.000000	87.648	-178.5267
110.599998	87.639	-178.6990
112.000000	87.632	-178.8609
113.800003	87.617	-179.0695
115.000000	87.608	-179.2127
117.199997	87.586	-179.5023
118.000000	87.578	-179.5906
120.599998	87.559	-179.8096
122.000000	87.554	-179.9216
124.099998	87.545	179.8844
125.000000	87.539	179.8000
126.500000	87.527	179.6564
128.000000	87.514	179.4930
131.500000	87.479	179.1950
132.000000	87.475	179.1555
134.000000	87.460	178.9935
136.000000	87.440	178.8595
138.000000	87.424	178.7403
140.000000	87.411	178.5938
143.000000	87.394	178.3469
145.000000	87.379	178.2480
147.500000	87.359	178.1308
150.000000	87.329	177.9519
152.500000	87.305	177.7709
155.000000	87.295	177.5971
157.500000	87.279	177.4325
160.000000	87.248	177.3208
162.500000	87.221	177.1989
165.000000	87.199	177.0353
167.500000	87.176	176.9062
170.000000	87.152	176.8187
172.500000	87.132	176.7472
175.000000	87.113	176.6965
177.500000	87.096	176.6514
180.000000	87.077	176.5541
182.500000	87.056	176.4068
185.000000	87.037	176.2832
187.500000	87.021	176.2346
190.000000	87.004	176.2087
192.500000	86.980	176.1558
195.000000	86.954	176.0663
197.500000	86.929	175.9635
200.000000	86.904	175.8893
203.000000	86.877	175.8211
206.000000	86.851	175.7364
209.000000	86.823	175.6687
212.000000	86.798	175.6172
214.000000	86.781	175.5844
218.000000	86.743	175.5282
220.000000	86.724	175.4895
224.000000	86.686	175.3806
227.000000	86.656	175.3376
230.000000	86.628	175.3472
233.000000	86.602	175.3786
236.000000	86.572	175.4230
240.000000	86.535	175.4246
243.000000	86.512	175.3666
247.000000	86.478	175.3127
250.000000	86.447	175.3074
254.000000	86.408	175.3013
258.000000	86.378	175.2806
262.000000	86.350	175.2775
265.000000	86.330	175.3023
269.000000	86.300	175.3470
272.000000	86.276	175.3851
276.000000	86.245	175.4110
280.000000	86.212	175.4030
285.000000	86.173	175.4360
290.000000	86.140	175.5326
295.000000	86.106	175.6024
300.000000	86.070	175.6739
304.000000	86.045	175.7586
307.000000	86.028	175.8264
311.000000	86.000	175.8985
315.000000	85.968	175.9642
320.000000	85.927	176.0682
325.000000	85.895	176.1453
330.000000	85.873	176.2367
335.000000	85.845	176.3394
340.000000	85.811	176.4501
345.000000	85.779	176.5953
350.000000	85.744	176.7135
355.000000	85.713	176.8430
360.000000	85.680	176.9608
365.000000	85.647	177.0651
370.000000	85.618	177.2075
375.000000	85.591	177.3719
382.000000	85.553	177.5852
387.000000	85.520	177.7122
395.000000	85.473	177.9527
400.000000	85.450	178.1237
406.000000	85.419	178.3157
412.000000	85.387	178.4938
418.000000	85.354	178.7146
425.000000	85.313	179.0118
431.000000	85.284	179.2692
437.000000	85.260	179.4678
444.000000	85.233	179.7191
450.000000	85.210	179.9512
455.000000	85.190	-179.8593
462.000000	85.158	-179.6069
468.000000	85.128	-179.3878
475.000000	85.101	-179.0926
482.000000	85.079	-178.7746
487.000000	85.060	-178.5573
494.000000	85.034	-178.2741
500.000000	85.014	-178.0397
508.000000	84.990	-177.7067
515.000000	84.970	-177.3725
522.000000	84.947	-177.0136
530.000000	84.922	-176.6012
538.000000	84.898	-176.2084
545.000000	84.879	-175.8666
552.000000	84.860	-175.4990
560.000000	84.845	-175.0884
570.000000	84.824	-174.6407
580.000000	84.798	-174.1630
590.000000	84.777	-173.6694
600.000000	84.761	-173.1628
608.000000	84.749	-172.7565
615.000000	84.739	-172.4224
622.000000	84.726	-172.0983
630.000000	84.712	-171.7144
640.000000	84.697	-171.2189
650.000000	84.682	-170.7130
660.000000	84.667	-170.1934
670.000000	84.658	-169.6293
680.000000	84.653	-169.0506
690.000000	84.647	-168.5055
700.000000	84.643	-167.9970
710.000000	84.639	-167.4415
720.000000	84.636	-166.8391
730.000000	84.635	-166.2067
740.000000	84.636	-165.5732
750.000000	84.646	-164.9426
762.000000	84.660	-164.2164
775.000000	84.680	-163.4187
788.000000	84.701	-162.5933
800.000000	84.721	-161.8594
812.000000	84.745	-161.1387
825.000000	84.780	-160.3108
838.000000	84.817	-159.4826
850.000000	84.855	-158.7285
862.000000	84.898	-157.9836
875.000000	84.951	-157.1814
885.000000	84.998	-156.5663
900.000000	85.072	-155.6754
912.000000	85.135	-154.9970
925.000000	85.205	-154.2962
938.000000	85.280	-153.5892
950.000000	85.357	-152.9443
962.000000	85.440	-152.3413
975.000000	85.529	-151.7327
988.000000	85.620	-151.1404
1000.000000	85.709	-150.6020
1015.000000	85.823	-149.9642
1030.000000	85.941	-149.4116
1044.000000	86.053	-148.9738
1060.000000	86.183	-148.5125
1075.000000	86.299	-148.1004
1090.000000	86.410	-147.7392
1106.000000	86.535	-147.4156
1120.000000	86.645	-147.1933
1138.000000	86.782	-146.9780
1150.000000	86.872	-146.8611
1172.000000	87.030	-146.7019
1180.000000	87.086	-146.6656
1206.000000	87.269	-146.6134
1220.000000	87.374	-146.6303
1241.000000	87.533	-146.6948
1250.000000	87.598	-146.7346
1265.000000	87.703	-146.8054
1280.000000	87.805	-146.8791
1315.000000	88.026	-147.1441
1320.000000	88.057	-147.1868
1340.000000	88.177	-147.3543
1360.000000	88.294	-147.5192
1380.000000	88.411	-147.7003
1400.000000	88.527	-147.8792
1430.000000	88.693	-148.1067
1450.000000	88.799	-148.2573
1475.000000	88.929	-148.4523
1500.000000	89.051	-148.6406
1525.000000	89.164	-148.8105
1550.000000	89.267	-148.9552
1575.000000	89.365	-149.1035
1600.000000	89.460	-149.2650
1625.000000	89.557	-149.3910
1650.000000	89.653	-149.5076
1675.000000	89.746	-149.6303
1700.000000	89.845	-149.7666
1725.000000	89.946	-149.9053
1750.000000	90.047	-150.0508
1775.000000	90.149	-150.1984
1800.000000	90.252	-150.3453
1825.000000	90.356	-150.5013
1850.000000	90.460	-150.6611
1875.000000	90.567	-150.8259
1900.000000	90.677	-151.0189
1925.000000	90.786	-151.2420
1950.000000	90.894	-151.4784
1975.000000	91.003	-151.7197
2000.000000	91.112	-151.9759
2030.000000	91.241	-152.3105
2060.000000	91.370	-152.6800
2090.000000	91.500	-153.0989
2120.000000	91.627	-153.5567
2140.000000	91.713	-153.8759
2180.000000	91.884	-154.5603
2200.000000	91.967	-154.9263
2240.000000	92.127	-155.7053
2270.000000	92.245	-156.3328
2300.000000	92.359	-156.9958
2330.000000	92.470	-157.6942
2360.000000	92.576	-158.4345
2400.000000	92.712	-159.4826
2430.000000	92.809	-160.3049
2470.000000	92.931	-161.4411
2500.000000	93.015	-162.3319
2540.000000	93.117	-163.5663
2580.000000	93.207	-164.8423
2620.000000	93.284	-166.1580
2650.000000	93.334	-167.1561
2690.000000	93.388	-168.4987
2720.000000	93.420	-169.5141
2760.000000	93.451	-170.8694
2800.000000	93.468	-172.2169
2850.000000	93.472	-173.8949
2900.000000	93.459	-175.5356
2950.000000	93.426	-177.1422
3000.000000	93.377	-178.6939
3040.000000	93.327	-179.8861
3070.000000	93.285	179.2447
3110.000000	93.223	178.1257
3150.000000	93.155	177.0632
3200.000000	93.063	175.8091
3250.000000	92.964	174.6224
3300.000000	92.858	173.5120
3350.000000	92.749	172.4740
3400.000000	92.637	171.5098
3450.000000	92.524	170.6121
3500.000000	92.412	169.7662
3550.000000	92.297	168.9779
3600.000000	92.181	168.2409
3650.000000	92.067	167.5461
3700.000000	91.956	166.8828
3750.000000	91.849	166.2530
3820.000000	91.702	165.4081
3870.000000	91.602	164.8313
3950.000000	91.452	163.9459
4000.000000	91.361	163.4012
4060.000000	91.255	162.7419
4120.000000	91.150	162.0807
4180.000000	91.045	161.4126
4250.000000	90.919	160.6115
4310.000000	90.808	159.9138
4370.000000	90.694	159.1976
4440.000000	90.554	158.3485
4500.000000	90.428	157.6232
4550.000000	90.320	157.0267
4620.000000	90.166	156.1906
4680.000000	90.032	155.4495
4750.000000	89.866	154.5305
4820.000000	89.683	153.5546
4870.000000	89.537	152.8363
4940.000000	89.307	151.8350
5000.000000	89.090	151.0141
5080.000000	88.777	149.9843
5150.000000	88.482	149.1730
5220.000000	88.169	148.4506
5300.000000	87.791	147.7352
5380.000000	87.391	147.1890
5450.000000	87.025	146.8556
5520.000000	86.642	146.6547
5600.000000	86.185	146.5963
5700.000000	85.597	146.8350
5800.000000	84.995	147.4065
5900.000000	84.381	148.3439
6000.000000	83.752	149.6888
6080.000000	83.245	151.1043
6150.000000	82.796	152.6496
6220.000000	82.345	154.5251
6300.000000	81.840	157.1674
6400.000000	81.254	161.4971
6500.000000	80.816	167.1340
6600.000000	80.706	173.6848
6700.000000	81.045	179.5886
6800.000000	81.649	-177.1246
6900.000000	82.173	-176.8460
7000.000000	82.420	-178.1953
7100.000000	82.403	-179.5449
7200.000000	82.228	179.8045
7300.000000	81.991	179.8643
7400.000000	81.736	-179.5103
7500.000000	81.489	-178.4557
7620.000000	81.220	-176.7445
7750.000000	80.954	-174.5447
7880.000000	80.725	-172.1816
8000.000000	80.559	-169.8968
8120.000000	80.435	-167.5937
8250.000000	80.349	-165.0612
8380.000000	80.310	-162.6255
8500.000000	80.317	-160.4918
8620.000000	80.348	-158.4814
8750.000000	80.407	-156.5170
8850.000000	80.475	-155.1647
9000.000000	80.597	-153.4831
9120.000000	80.699	-152.3846
9250.000000	80.817	-151.3696
9380.000000	80.966	-150.5174
9500.000000	81.130	-150.0441
9620.000000	81.299	-150.0047
9750.000000	81.461	-150.4465
9880.000000	81.585	-151.3111
10000.000000	81.647	-152.3786
10150.000000	81.650	-153.9238
10300.000000	81.568	-155.5555
10440.000000	81.412	-156.9881
10600.000000	81.158	-158.3290
10750.000000	80.868	-159.1497
10900.000000	80.549	-159.4664
11060.000000	80.203	-159.2689
11200.000000	79.920	-158.6853
11380.000000	79.612	-157.4409
11500.000000	79.456	-156.4111
11720.000000	79.296	-154.3102
11800.000000	79.282	-153.5177
12060.000000	79.435	-151.1158
12200.000000	79.665	-150.1901
12410.000000	80.227	-149.7461
12500.000000	80.537	-150.0863
12650.000000	81.115	-151.6488
12800.000000	81.702	-154.7757
13150.000000	82.581	-168.5670
13200.000000	82.606	-171.1206
13400.000000	82.371	178.1868
13600.000000	81.603	168.4785
13800.000000	80.501	161.4599
14000.000000	79.317	157.4440
14300.000000	77.788	155.4250
14500.000000	77.076	155.3223
14750.000000	76.597	155.1178
15000.000000	76.586	152.9440
15250.000000	76.844	145.8859
15500.000000	76.746	131.8832
15750.000000	75.543	114.2070
16000.000000	73.043	100.4193
16250.000000	69.745	94.3474
16500.000000	66.367	94.4046
16750.000000	63.297	97.8771
17000.000000	60.635	103.5314
17250.000000	58.284	110.3216
17500.000000	56.039	116.1865
17750.000000	53.887	99.5445
18000.000000	51.905	-124.6473
18250.000000	50.320	104.2289
18500.000000	49.010	-73.1416
18750.000000	47.893	59.2070
19000.000000	47.007	40.3926
19250.000000	46.420	-148.0859
19500.000000	46.136	-8.3242
19750.000000	45.876	87.6094
