* Measurement data measured by REW V5.20.9
* Source: Mic in at rear panel (Pink)(Realtek(R) Audio), MICROPHONE (마스), L, volume: 0.500
* Format: 256k Log Swept Sine, 1 sweep at -12.0 dBFS with no timing reference
* Dated: 2022. 9. 17 오후 10:00:37
* REW Settings:
*  C-weighting compensation: Off
*  Target level: 75.0 dB
* Note: 
* Measurement: R
* Smoothing: 1/24 octave
* Frequency Step: 1/48 octave
* Start Frequency: 20.300 Hz
*
* Freq(Hz)	SPL(dB)	Phase(degrees)
20.299999	66.074	-133.4196
20.600000	66.105	-133.7840
20.900000	66.162	-134.4235
21.200001	66.206	-135.0022
21.400000	66.228	-135.3559
21.799999	66.261	-136.0196
22.000000	66.274	-136.3362
22.400000	66.297	-136.9234
22.700001	66.317	-137.3294
23.000000	66.342	-137.7342
23.299999	66.375	-138.1708
23.600000	66.411	-138.6606
24.000000	66.457	-139.4027
24.299999	66.485	-139.9992
24.700001	66.511	-140.7852
25.000000	66.524	-141.3259
25.400000	66.542	-141.9586
25.799999	66.568	-142.5169
26.200001	66.603	-143.0576
26.500000	66.631	-143.4764
26.900000	66.663	-144.0513
27.200001	66.679	-144.4716
27.600000	66.691	-144.9755
28.000000	66.699	-145.3816
28.500000	66.718	-145.7656
29.000000	66.753	-146.1070
29.500000	66.801	-146.5119
30.000000	66.848	-147.0293
30.400000	66.875	-147.5033
30.700001	66.888	-147.8693
31.100000	66.895	-148.3367
31.500000	66.894	-148.7563
32.000000	66.892	-149.2056
32.500000	66.895	-149.6024
33.000000	66.906	-149.9986
33.500000	66.924	-150.4211
34.000000	66.941	-150.8595
34.500000	66.957	-151.2891
35.000000	66.974	-151.7063
35.500000	66.993	-152.1299
36.000000	67.009	-152.5656
36.500000	67.021	-152.9835
37.000000	67.030	-153.3453
37.500000	67.045	-153.6572
38.200001	67.077	-154.1180
38.700001	67.097	-154.5107
39.500000	67.108	-155.1310
40.000000	67.110	-155.4454
40.599998	67.118	-155.7842
41.200001	67.127	-156.1346
41.799999	67.132	-156.4566
42.500000	67.145	-156.7527
43.099998	67.171	-157.0306
43.700001	67.197	-157.4005
44.400002	67.212	-157.8579
45.000000	67.217	-158.1878
45.500000	67.224	-158.4374
46.200001	67.234	-158.7810
46.799999	67.242	-159.0439
47.500000	67.259	-159.3229
48.200001	67.285	-159.6510
48.700001	67.301	-159.9191
49.400002	67.318	-160.3054
50.000000	67.327	-160.6481
50.799999	67.319	-161.0594
51.500000	67.306	-161.2318
52.200001	67.317	-161.2751
53.000000	67.358	-161.4502
53.799999	67.387	-161.8009
54.500000	67.395	-162.0855
55.200001	67.403	-162.3185
56.000000	67.416	-162.5963
57.000000	67.429	-162.9823
58.000000	67.433	-163.3624
59.000000	67.434	-163.7033
60.000000	67.435	-164.0461
60.799999	67.430	-164.2954
61.500000	67.429	-164.4509
62.200001	67.438	-164.5882
63.000000	67.454	-164.7970
64.000000	67.465	-165.0829
65.000000	67.474	-165.3156
66.000000	67.485	-165.5580
67.000000	67.492	-165.7874
68.000000	67.501	-166.0089
69.000000	67.508	-166.2701
70.000000	67.509	-166.5434
71.000000	67.506	-166.7856
72.000000	67.508	-166.9770
73.000000	67.520	-167.1935
74.000000	67.529	-167.4430
75.000000	67.536	-167.6676
76.199997	67.544	-167.9384
77.500000	67.545	-168.2000
78.800003	67.544	-168.3980
80.000000	67.548	-168.5460
81.199997	67.557	-168.7194
82.500000	67.566	-168.9382
83.800003	67.571	-169.1592
85.000000	67.575	-169.3208
86.199997	67.585	-169.4718
87.500000	67.595	-169.6893
88.500000	67.597	-169.8550
90.000000	67.601	-170.0882
91.199997	67.605	-170.3042
92.500000	67.606	-170.5391
93.800003	67.606	-170.7430
95.000000	67.608	-170.8780
96.199997	67.616	-171.0006
97.500000	67.624	-171.1449
98.800003	67.628	-171.2927
100.000000	67.628	-171.4246
101.500000	67.628	-171.5721
103.000000	67.632	-171.7377
104.400002	67.633	-171.9028
106.000000	67.635	-172.0394
107.500000	67.646	-172.1466
109.000000	67.658	-172.3176
110.599998	67.661	-172.5232
112.000000	67.659	-172.6609
113.800003	67.665	-172.7905
115.000000	67.675	-172.8796
117.199997	67.686	-173.0496
118.000000	67.687	-173.0961
120.599998	67.696	-173.2375
122.000000	67.700	-173.3945
124.099998	67.698	-173.6098
125.000000	67.698	-173.6745
126.500000	67.704	-173.7587
128.000000	67.714	-173.8590
131.500000	67.721	-174.1381
132.000000	67.722	-174.1768
134.000000	67.725	-174.3405
136.000000	67.724	-174.4836
138.000000	67.721	-174.5834
140.000000	67.723	-174.6699
143.000000	67.731	-174.8211
145.000000	67.739	-174.9348
147.500000	67.747	-175.0871
150.000000	67.749	-175.2262
152.500000	67.753	-175.3110
155.000000	67.763	-175.4028
157.500000	67.765	-175.5285
160.000000	67.761	-175.6270
162.500000	67.762	-175.6913
165.000000	67.766	-175.7689
167.500000	67.769	-175.8647
170.000000	67.771	-175.9464
172.500000	67.776	-176.0391
175.000000	67.777	-176.1530
177.500000	67.774	-176.2457
180.000000	67.774	-176.3080
182.500000	67.778	-176.3632
185.000000	67.783	-176.4294
187.500000	67.783	-176.4960
190.000000	67.783	-176.5557
192.500000	67.785	-176.6320
195.000000	67.790	-176.7159
197.500000	67.794	-176.7699
200.000000	67.796	-176.7792
203.000000	67.799	-176.7927
206.000000	67.801	-176.8536
209.000000	67.804	-176.9402
212.000000	67.808	-177.0110
214.000000	67.811	-177.0366
218.000000	67.820	-177.0964
220.000000	67.822	-177.1433
224.000000	67.826	-177.1920
227.000000	67.832	-177.2120
230.000000	67.835	-177.2159
233.000000	67.838	-177.2046
236.000000	67.841	-177.2364
240.000000	67.838	-177.3142
243.000000	67.837	-177.3522
247.000000	67.838	-177.3899
250.000000	67.844	-177.3960
254.000000	67.849	-177.3889
258.000000	67.842	-177.4253
262.000000	67.834	-177.4732
265.000000	67.833	-177.4837
269.000000	67.838	-177.5048
272.000000	67.846	-177.5304
276.000000	67.854	-177.5417
280.000000	67.859	-177.5254
285.000000	67.864	-177.5214
290.000000	67.863	-177.5160
295.000000	67.865	-177.5140
300.000000	67.873	-177.5268
304.000000	67.879	-177.5244
307.000000	67.882	-177.5153
311.000000	67.888	-177.4888
315.000000	67.894	-177.4430
320.000000	67.897	-177.4093
325.000000	67.906	-177.3926
330.000000	67.918	-177.3813
335.000000	67.924	-177.3803
340.000000	67.926	-177.3445
345.000000	67.930	-177.2633
350.000000	67.934	-177.1961
355.000000	67.930	-177.1455
360.000000	67.926	-177.1002
365.000000	67.926	-177.0552
370.000000	67.929	-176.9961
375.000000	67.932	-176.9202
382.000000	67.931	-176.7854
387.000000	67.926	-176.6978
395.000000	67.923	-176.5519
400.000000	67.923	-176.4481
406.000000	67.927	-176.2997
412.000000	67.933	-176.1438
418.000000	67.942	-175.9975
425.000000	67.958	-175.8576
431.000000	67.973	-175.7719
437.000000	67.988	-175.7010
444.000000	68.003	-175.6297
450.000000	68.011	-175.5696
455.000000	68.016	-175.5189
462.000000	68.024	-175.4411
468.000000	68.033	-175.3614
475.000000	68.039	-175.2486
482.000000	68.039	-175.1111
487.000000	68.040	-175.0040
494.000000	68.043	-174.8562
500.000000	68.047	-174.7339
508.000000	68.055	-174.5524
515.000000	68.061	-174.3856
522.000000	68.068	-174.2367
530.000000	68.077	-174.0645
538.000000	68.085	-173.8657
545.000000	68.092	-173.6928
552.000000	68.100	-173.5057
560.000000	68.106	-173.2712
570.000000	68.113	-172.9692
580.000000	68.124	-172.6560
590.000000	68.137	-172.3214
600.000000	68.152	-171.9975
608.000000	68.164	-171.7263
615.000000	68.174	-171.4919
622.000000	68.185	-171.2593
630.000000	68.197	-170.9688
640.000000	68.214	-170.5897
650.000000	68.232	-170.2081
660.000000	68.251	-169.8179
670.000000	68.270	-169.4181
680.000000	68.291	-169.0020
690.000000	68.311	-168.5822
700.000000	68.333	-168.1638
710.000000	68.359	-167.7408
720.000000	68.386	-167.2977
730.000000	68.415	-166.8364
740.000000	68.448	-166.3837
750.000000	68.484	-165.9197
762.000000	68.527	-165.3395
775.000000	68.583	-164.7086
788.000000	68.644	-164.0914
800.000000	68.702	-163.5233
812.000000	68.762	-162.9583
825.000000	68.834	-162.3530
838.000000	68.911	-161.7454
850.000000	68.989	-161.1989
862.000000	69.071	-160.6646
875.000000	69.161	-160.0948
885.000000	69.234	-159.6727
900.000000	69.346	-159.0508
912.000000	69.442	-158.5651
925.000000	69.550	-158.0646
938.000000	69.662	-157.5762
950.000000	69.772	-157.1373
962.000000	69.885	-156.7348
975.000000	70.008	-156.3399
988.000000	70.130	-155.9819
1000.000000	70.248	-155.6824
1015.000000	70.405	-155.3511
1030.000000	70.564	-155.0660
1044.000000	70.714	-154.8528
1060.000000	70.885	-154.6634
1075.000000	71.041	-154.5377
1090.000000	71.200	-154.4572
1106.000000	71.378	-154.4197
1120.000000	71.534	-154.4339
1138.000000	71.731	-154.5098
1150.000000	71.862	-154.5941
1172.000000	72.090	-154.8096
1180.000000	72.170	-154.9020
1206.000000	72.425	-155.2527
1220.000000	72.559	-155.4669
1241.000000	72.754	-155.8180
1250.000000	72.835	-155.9783
1265.000000	72.968	-156.2545
1280.000000	73.096	-156.5395
1315.000000	73.378	-157.2362
1320.000000	73.417	-157.3366
1340.000000	73.568	-157.7383
1360.000000	73.711	-158.1535
1380.000000	73.852	-158.5583
1400.000000	73.994	-158.9507
1430.000000	74.200	-159.5479
1450.000000	74.334	-159.9311
1475.000000	74.500	-160.3967
1500.000000	74.664	-160.8609
1525.000000	74.826	-161.3289
1550.000000	74.985	-161.7917
1575.000000	75.143	-162.2514
1600.000000	75.301	-162.7124
1625.000000	75.461	-163.1766
1650.000000	75.620	-163.6437
1675.000000	75.780	-164.1175
1700.000000	75.939	-164.6026
1725.000000	76.097	-165.1046
1750.000000	76.255	-165.6281
1775.000000	76.413	-166.1727
1800.000000	76.571	-166.7411
1825.000000	76.730	-167.3354
1850.000000	76.889	-167.9559
1875.000000	77.047	-168.6060
1900.000000	77.203	-169.2880
1925.000000	77.359	-170.0036
1950.000000	77.513	-170.7539
1975.000000	77.664	-171.5408
2000.000000	77.812	-172.3665
2030.000000	77.986	-173.4078
2060.000000	78.155	-174.5058
2090.000000	78.317	-175.6526
2120.000000	78.472	-176.8454
2140.000000	78.571	-177.6679
2180.000000	78.759	-179.3733
2200.000000	78.846	179.7502
2240.000000	79.006	177.9425
2270.000000	79.113	176.5410
2300.000000	79.209	175.1127
2330.000000	79.292	173.6688
2360.000000	79.364	172.2100
2400.000000	79.441	170.2532
2430.000000	79.484	168.7880
2470.000000	79.523	166.8477
2500.000000	79.538	165.4157
2540.000000	79.540	163.5487
2580.000000	79.523	161.7404
2620.000000	79.489	160.0144
2650.000000	79.453	158.7752
2690.000000	79.393	157.2049
2720.000000	79.340	156.0927
2760.000000	79.262	154.6990
2800.000000	79.176	153.4068
2850.000000	79.062	151.9251
2900.000000	78.945	150.5900
2950.000000	78.826	149.3867
3000.000000	78.710	148.2932
3040.000000	78.618	147.4888
3070.000000	78.550	146.9250
3110.000000	78.462	146.2248
3150.000000	78.375	145.5773
3200.000000	78.271	144.8323
3250.000000	78.172	144.1586
3300.000000	78.077	143.5525
3350.000000	77.988	143.0056
3400.000000	77.907	142.5028
3450.000000	77.836	142.0337
3500.000000	77.778	141.5988
3550.000000	77.727	141.1940
3600.000000	77.682	140.8083
3650.000000	77.642	140.4366
3700.000000	77.607	140.0695
3750.000000	77.578	139.6966
3820.000000	77.542	139.1580
3870.000000	77.517	138.7578
3950.000000	77.475	138.0689
4000.000000	77.449	137.5992
4060.000000	77.418	136.9943
4120.000000	77.387	136.3380
4180.000000	77.352	135.6312
4250.000000	77.304	134.7347
4310.000000	77.250	133.9073
4370.000000	77.179	133.0346
4440.000000	77.075	131.9785
4500.000000	76.969	131.0430
4550.000000	76.870	130.2466
4620.000000	76.715	129.1217
4680.000000	76.563	128.1658
4750.000000	76.366	127.0881
4820.000000	76.144	126.0723
4870.000000	75.971	125.3991
4940.000000	75.711	124.5555
5000.000000	75.472	123.9301
5080.000000	75.135	123.2432
5150.000000	74.827	122.8062
5220.000000	74.511	122.5404
5300.000000	74.144	122.4292
5380.000000	73.773	122.5208
5450.000000	73.449	122.7724
5520.000000	73.126	123.1926
5600.000000	72.764	123.8585
5700.000000	72.326	124.9292
5800.000000	71.908	126.2520
5900.000000	71.516	127.7930
6000.000000	71.151	129.5300
6080.000000	70.882	131.0436
6150.000000	70.663	132.4360
6220.000000	70.460	133.8731
6300.000000	70.248	135.5560
6400.000000	70.011	137.7090
6500.000000	69.806	139.8959
6600.000000	69.634	142.0625
6700.000000	69.495	144.1467
6800.000000	69.387	146.0804
6900.000000	69.317	147.7195
7000.000000	69.263	148.8578
7100.000000	69.137	149.3478
7200.000000	68.803	149.6169
7300.000000	68.179	151.4014
7400.000000	67.508	156.5466
7500.000000	67.282	163.9559
7620.000000	67.675	171.8367
7750.000000	68.379	177.5103
7880.000000	69.060	-178.8381
8000.000000	69.681	-176.8396
8120.000000	70.282	-176.5916
8250.000000	70.626	-178.8055
8380.000000	70.261	-179.6163
8500.000000	70.061	-174.4213
8620.000000	70.825	-169.6085
8750.000000	71.839	-170.0290
8850.000000	72.377	-173.0800
9000.000000	72.704	-179.5765
9120.000000	72.555	174.9111
9250.000000	72.034	169.8024
9380.000000	71.232	166.3678
9500.000000	70.339	164.9642
9620.000000	69.379	165.2656
9750.000000	68.340	167.4798
9880.000000	67.385	171.6626
10000.000000	66.693	177.1559
10150.000000	66.307	-174.9994
10300.000000	66.416	-168.9121
10440.000000	66.515	-165.8005
10600.000000	66.333	-162.6078
10750.000000	66.124	-158.0573
10900.000000	66.159	-152.9455
11060.000000	66.377	-148.5700
11200.000000	66.538	-145.5849
11380.000000	66.690	-141.7303
11500.000000	66.828	-138.9089
11720.000000	67.282	-133.6365
11800.000000	67.526	-131.8704
12060.000000	68.613	-127.6547
12200.000000	69.348	-126.9874
12410.000000	70.489	-129.3386
12500.000000	70.920	-131.8687
12650.000000	71.427	-138.1477
12800.000000	71.536	-146.2893
13150.000000	70.023	-163.6711
13200.000000	69.652	-165.2493
13400.000000	68.021	-168.8454
13600.000000	66.387	-168.8976
13800.000000	64.941	-166.6701
14000.000000	63.746	-163.1522
14300.000000	62.409	-156.9675
14500.000000	61.789	-152.9839
14750.000000	61.257	-148.7886
15000.000000	60.935	-146.0902
15250.000000	60.759	-145.7175
15500.000000	60.629	-148.5045
15750.000000	60.297	-154.9519
16000.000000	59.424	-164.4241
16250.000000	57.783	-174.5054
16500.000000	55.361	177.6656
16750.000000	52.301	173.7779
17000.000000	48.774	174.4566
17250.000000	44.899	-179.9349
17500.000000	40.768	-167.4099
17750.000000	36.537	-145.3031
18000.000000	32.922	-114.9739
18250.000000	31.315	-85.3787
18500.000000	30.882	-62.9776
18750.000000	30.344	-44.7281
19000.000000	29.536	-31.5486
19250.000000	29.064	-55.6265
19500.000000	29.506	-158.1742
19750.000000	30.504	101.0594
20000.000000	31.532	72.5198
