* Measurement data measured by REW V5.20.9
* Source: Mic in at rear panel (Pink)(Realtek(R) Audio), MICROPHONE (마스), L, volume: 0.500
* Format: 256k Log Swept Sine, 1 sweep at -12.0 dBFS with no timing reference
* Dated: 2022. 9. 25 오전 12:27:01
* REW Settings:
*  C-weighting compensation: Off
*  Target level: 75.0 dB
* Note: 
* Measurement: L
* Smoothing: 1/24 octave
* Frequency Step: 1/48 octave
* Start Frequency: 20.300 Hz
*
* Freq(Hz)	SPL(dB)	Phase(degrees)
20.299999	63.982	-156.9524
20.600000	63.994	-157.1289
20.900000	64.019	-157.4274
21.200001	64.040	-157.6721
21.400000	64.054	-157.8219
21.799999	64.084	-158.1502
22.000000	64.098	-158.3490
22.400000	64.119	-158.8176
22.700001	64.125	-159.1997
23.000000	64.123	-159.5678
23.299999	64.119	-159.8966
23.600000	64.118	-160.1870
24.000000	64.129	-160.5474
24.299999	64.146	-160.8371
24.700001	64.175	-161.2817
25.000000	64.195	-161.6509
25.400000	64.214	-162.1483
25.799999	64.226	-162.5974
26.200001	64.238	-162.9785
26.500000	64.249	-163.2327
26.900000	64.264	-163.5550
27.200001	64.275	-163.7958
27.600000	64.286	-164.1148
28.000000	64.293	-164.4205
28.500000	64.300	-164.7798
29.000000	64.304	-165.1330
29.500000	64.303	-165.4918
30.000000	64.297	-165.8387
30.400000	64.292	-166.0954
30.700001	64.290	-166.2792
31.100000	64.291	-166.5312
31.500000	64.294	-166.8115
32.000000	64.298	-167.2141
32.500000	64.295	-167.6472
33.000000	64.287	-168.0502
33.500000	64.281	-168.3800
34.000000	64.285	-168.6467
34.500000	64.303	-168.9108
35.000000	64.328	-169.2291
35.500000	64.350	-169.6061
36.000000	64.361	-169.9894
36.500000	64.365	-170.3247
37.000000	64.367	-170.6022
37.500000	64.372	-170.8516
38.200001	64.376	-171.1936
38.700001	64.376	-171.4224
39.500000	64.380	-171.7601
40.000000	64.387	-172.0048
40.599998	64.393	-172.3732
41.200001	64.386	-172.7773
41.799999	64.368	-173.1290
42.500000	64.351	-173.4374
43.099998	64.348	-173.6751
43.700001	64.350	-173.9316
44.400002	64.356	-174.2397
45.000000	64.363	-174.5111
45.500000	64.369	-174.7640
46.200001	64.366	-175.1319
46.799999	64.354	-175.3694
47.500000	64.348	-175.5177
48.200001	64.364	-175.6688
48.700001	64.379	-175.8505
49.400002	64.387	-176.1666
50.000000	64.382	-176.4038
50.799999	64.373	-176.6343
51.500000	64.372	-176.8113
52.200001	64.374	-177.0110
53.000000	64.375	-177.2935
53.799999	64.368	-177.6241
54.500000	64.352	-177.9055
55.200001	64.335	-178.1554
56.000000	64.318	-178.4137
57.000000	64.304	-178.7047
58.000000	64.300	-178.9982
59.000000	64.294	-179.2989
60.000000	64.288	-179.5382
60.799999	64.289	-179.7264
61.500000	64.290	-179.9177
62.200001	64.286	179.8835
63.000000	64.276	179.6780
64.000000	64.264	179.4478
65.000000	64.253	179.1777
66.000000	64.236	178.9030
67.000000	64.224	178.6656
68.000000	64.218	178.4071
69.000000	64.211	178.1546
70.000000	64.206	177.9144
71.000000	64.196	177.6799
72.000000	64.183	177.4890
73.000000	64.172	177.3149
74.000000	64.161	177.1136
75.000000	64.147	176.8794
76.199997	64.122	176.5541
77.500000	64.087	176.2986
78.800003	64.075	176.0919
80.000000	64.068	175.8446
81.199997	64.059	175.6579
82.500000	64.054	175.4715
83.800003	64.041	175.2635
85.000000	64.021	175.1051
86.199997	64.001	174.9492
87.500000	63.980	174.7635
88.500000	63.967	174.5932
90.000000	63.946	174.3290
91.199997	63.932	174.1339
92.500000	63.916	173.9557
93.800003	63.903	173.8333
95.000000	63.894	173.7216
96.199997	63.884	173.5919
97.500000	63.870	173.4271
98.800003	63.854	173.2496
100.000000	63.836	173.0753
101.500000	63.811	172.8936
103.000000	63.789	172.7835
104.400002	63.777	172.6810
106.000000	63.760	172.5072
107.500000	63.740	172.3480
109.000000	63.723	172.1699
110.599998	63.699	171.9665
112.000000	63.675	171.8546
113.800003	63.660	171.7550
115.000000	63.657	171.6400
117.199997	63.634	171.3622
118.000000	63.623	171.2991
120.599998	63.601	171.0629
122.000000	63.580	170.9355
124.099998	63.553	170.8275
125.000000	63.544	170.7748
126.500000	63.525	170.6874
128.000000	63.505	170.6304
131.500000	63.456	170.4603
132.000000	63.448	170.4325
134.000000	63.416	170.3068
136.000000	63.394	170.1795
138.000000	63.384	170.0393
140.000000	63.369	169.9035
143.000000	63.336	169.7808
145.000000	63.318	169.6837
147.500000	63.292	169.5574
150.000000	63.268	169.5245
152.500000	63.245	169.4619
155.000000	63.217	169.2963
157.500000	63.185	169.2108
160.000000	63.169	169.2291
162.500000	63.152	169.1464
165.000000	63.125	169.0336
167.500000	63.097	168.9342
170.000000	63.067	168.9218
172.500000	63.044	168.9323
175.000000	63.027	168.8593
177.500000	63.008	168.7852
180.000000	62.986	168.7571
182.500000	62.959	168.7421
185.000000	62.932	168.7429
187.500000	62.910	168.7545
190.000000	62.887	168.7271
192.500000	62.859	168.6703
195.000000	62.833	168.6177
197.500000	62.814	168.6025
200.000000	62.796	168.6072
203.000000	62.768	168.5945
206.000000	62.738	168.5751
209.000000	62.718	168.5709
212.000000	62.703	168.5457
214.000000	62.691	168.5255
218.000000	62.663	168.5264
220.000000	62.647	168.5412
224.000000	62.614	168.6069
227.000000	62.601	168.6514
230.000000	62.590	168.6608
233.000000	62.575	168.6500
236.000000	62.560	168.6212
240.000000	62.540	168.6259
243.000000	62.526	168.6471
247.000000	62.507	168.6776
250.000000	62.492	168.7225
254.000000	62.460	168.7827
258.000000	62.421	168.8564
262.000000	62.391	168.9249
265.000000	62.378	168.9562
269.000000	62.362	168.9918
272.000000	62.347	169.0247
276.000000	62.327	169.0809
280.000000	62.305	169.1150
285.000000	62.276	169.1824
290.000000	62.260	169.3278
295.000000	62.253	169.4367
300.000000	62.239	169.4632
304.000000	62.220	169.5055
307.000000	62.208	169.5858
311.000000	62.198	169.7417
315.000000	62.191	169.8633
320.000000	62.175	169.8880
325.000000	62.156	169.9019
330.000000	62.148	169.9707
335.000000	62.135	170.1416
340.000000	62.121	170.3617
345.000000	62.111	170.4427
350.000000	62.095	170.4778
355.000000	62.074	170.5793
360.000000	62.050	170.7485
365.000000	62.030	170.8918
370.000000	62.019	170.9807
375.000000	62.011	171.1041
382.000000	61.995	171.2858
387.000000	61.970	171.4147
395.000000	61.935	171.6124
400.000000	61.927	171.7150
406.000000	61.910	171.8489
412.000000	61.887	171.9870
418.000000	61.868	172.1530
425.000000	61.851	172.3705
431.000000	61.833	172.5182
437.000000	61.819	172.6926
444.000000	61.810	172.9368
450.000000	61.799	173.1153
455.000000	61.791	173.2527
462.000000	61.784	173.4480
468.000000	61.769	173.6656
475.000000	61.747	173.9592
482.000000	61.728	174.2048
487.000000	61.720	174.3558
494.000000	61.711	174.5461
500.000000	61.703	174.7326
508.000000	61.692	175.0495
515.000000	61.680	175.3369
522.000000	61.670	175.6096
530.000000	61.662	175.9114
538.000000	61.659	176.3040
545.000000	61.661	176.6569
552.000000	61.665	176.9912
560.000000	61.674	177.3933
570.000000	61.696	177.8745
580.000000	61.726	178.2269
590.000000	61.744	178.5891
600.000000	61.758	178.9465
608.000000	61.767	179.1910
615.000000	61.771	179.3978
622.000000	61.773	179.5895
630.000000	61.767	179.8314
640.000000	61.762	-179.8140
650.000000	61.763	-179.4183
660.000000	61.766	-179.0331
670.000000	61.770	-178.5912
680.000000	61.775	-178.1604
690.000000	61.779	-177.7223
700.000000	61.785	-177.2830
710.000000	61.801	-176.8130
720.000000	61.819	-176.3273
730.000000	61.834	-175.8650
740.000000	61.852	-175.3908
750.000000	61.874	-174.9069
762.000000	61.894	-174.2779
775.000000	61.923	-173.5276
788.000000	61.968	-172.8216
800.000000	62.012	-172.1648
812.000000	62.060	-171.5177
825.000000	62.119	-170.8557
838.000000	62.186	-170.1889
850.000000	62.250	-169.6098
862.000000	62.318	-169.0553
875.000000	62.391	-168.4273
885.000000	62.452	-167.9328
900.000000	62.556	-167.1924
912.000000	62.646	-166.6471
925.000000	62.746	-166.0759
938.000000	62.846	-165.5109
950.000000	62.943	-165.0508
962.000000	63.045	-164.6474
975.000000	63.159	-164.2244
988.000000	63.273	-163.8139
1000.000000	63.381	-163.4690
1015.000000	63.532	-163.0709
1030.000000	63.686	-162.7267
1044.000000	63.828	-162.4859
1060.000000	63.988	-162.2887
1075.000000	64.136	-162.1519
1090.000000	64.284	-162.0730
1106.000000	64.453	-162.0443
1120.000000	64.603	-162.0562
1138.000000	64.790	-162.1069
1150.000000	64.909	-162.1777
1172.000000	65.119	-162.3824
1180.000000	65.195	-162.4802
1206.000000	65.431	-162.8537
1220.000000	65.552	-163.0862
1241.000000	65.727	-163.4404
1250.000000	65.799	-163.6002
1265.000000	65.915	-163.8961
1280.000000	66.026	-164.2068
1315.000000	66.270	-164.9205
1320.000000	66.303	-165.0216
1340.000000	66.426	-165.4209
1360.000000	66.542	-165.8184
1380.000000	66.657	-166.2050
1400.000000	66.773	-166.5720
1430.000000	66.942	-167.1365
1450.000000	67.051	-167.4973
1475.000000	67.179	-167.9201
1500.000000	67.303	-168.3400
1525.000000	67.432	-168.7492
1550.000000	67.559	-169.1195
1575.000000	67.684	-169.4793
1600.000000	67.804	-169.8449
1625.000000	67.921	-170.2081
1650.000000	68.042	-170.5584
1675.000000	68.166	-170.8921
1700.000000	68.290	-171.2279
1725.000000	68.413	-171.5823
1750.000000	68.536	-171.9440
1775.000000	68.660	-172.2937
1800.000000	68.785	-172.6435
1825.000000	68.910	-173.0161
1850.000000	69.034	-173.4098
1875.000000	69.162	-173.8167
1900.000000	69.290	-174.2401
1925.000000	69.417	-174.6842
1950.000000	69.546	-175.1507
1975.000000	69.673	-175.6432
2000.000000	69.799	-176.1621
2030.000000	69.954	-176.8180
2060.000000	70.110	-177.5048
2090.000000	70.263	-178.2309
2120.000000	70.413	-178.9975
2140.000000	70.512	-179.5330
2180.000000	70.709	179.3278
2200.000000	70.804	178.7228
2240.000000	70.985	177.4592
2270.000000	71.115	176.4633
2300.000000	71.238	175.4248
2330.000000	71.355	174.3524
2360.000000	71.466	173.2480
2400.000000	71.603	171.7259
2430.000000	71.696	170.5389
2470.000000	71.807	168.9046
2500.000000	71.880	167.6618
2540.000000	71.963	165.9872
2580.000000	72.030	164.2732
2620.000000	72.079	162.5650
2650.000000	72.104	161.2982
2690.000000	72.124	159.6186
2720.000000	72.127	158.3705
2760.000000	72.115	156.7440
2800.000000	72.089	155.1618
2850.000000	72.039	153.2444
2900.000000	71.967	151.4247
2950.000000	71.881	149.7112
3000.000000	71.781	148.1115
3040.000000	71.693	146.9171
3070.000000	71.622	146.0667
3110.000000	71.524	144.9942
3150.000000	71.423	143.9929
3200.000000	71.294	142.8333
3250.000000	71.160	141.7732
3300.000000	71.028	140.8032
3350.000000	70.896	139.9217
3400.000000	70.766	139.1204
3450.000000	70.642	138.4079
3500.000000	70.526	137.7709
3550.000000	70.417	137.1811
3600.000000	70.312	136.6392
3650.000000	70.212	136.1533
3700.000000	70.117	135.7082
3750.000000	70.024	135.2944
3820.000000	69.898	134.7615
3870.000000	69.809	134.4103
3950.000000	69.664	133.8526
4000.000000	69.578	133.5226
4060.000000	69.479	133.1256
4120.000000	69.382	132.7316
4180.000000	69.285	132.3370
4250.000000	69.174	131.8483
4310.000000	69.074	131.4066
4370.000000	68.967	130.9558
4440.000000	68.833	130.4012
4500.000000	68.713	129.8987
4550.000000	68.608	129.4550
4620.000000	68.453	128.8060
4680.000000	68.314	128.2289
4750.000000	68.144	127.5300
4820.000000	67.962	126.8431
4870.000000	67.822	126.3592
4940.000000	67.612	125.6788
5000.000000	67.418	125.1013
5080.000000	67.142	124.3707
5150.000000	66.888	123.7940
5220.000000	66.621	123.2743
5300.000000	66.295	122.7699
5380.000000	65.952	122.3669
5450.000000	65.639	122.1340
5520.000000	65.316	122.0176
5600.000000	64.935	122.0357
5700.000000	64.450	122.2851
5800.000000	63.955	122.7641
5900.000000	63.457	123.5175
6000.000000	62.966	124.5321
6080.000000	62.573	125.5099
6150.000000	62.233	126.4826
6220.000000	61.903	127.5681
6300.000000	61.536	128.9271
6400.000000	61.090	130.8233
6500.000000	60.658	132.9062
6600.000000	60.246	135.1596
6700.000000	59.850	137.5621
6800.000000	59.475	140.1091
6900.000000	59.140	142.7996
7000.000000	58.848	145.6623
7100.000000	58.595	148.6687
7200.000000	58.374	151.6967
7300.000000	58.181	154.7006
7400.000000	58.002	157.7486
7500.000000	57.843	160.8759
7620.000000	57.693	164.7020
7750.000000	57.565	168.9218
7880.000000	57.432	173.1161
8000.000000	57.316	176.9301
8120.000000	57.229	-179.2207
8250.000000	57.165	-175.0245
8380.000000	57.138	-170.9327
8500.000000	57.146	-167.2349
8620.000000	57.177	-163.6497
8750.000000	57.231	-159.9227
8850.000000	57.281	-157.1359
9000.000000	57.375	-153.0536
9120.000000	57.478	-149.8723
9250.000000	57.633	-146.5367
9380.000000	57.840	-143.4653
9500.000000	58.071	-140.9794
9620.000000	58.306	-138.8429
9750.000000	58.546	-136.9111
9880.000000	58.781	-135.3325
10000.000000	58.990	-134.1391
10150.000000	59.237	-132.9233
10300.000000	59.450	-132.0313
10440.000000	59.608	-131.4545
10600.000000	59.743	-130.9500
10750.000000	59.837	-130.5339
10900.000000	59.911	-130.1870
11060.000000	59.987	-129.9400
11200.000000	60.069	-129.8595
11380.000000	60.213	-130.0970
11500.000000	60.332	-130.7014
11720.000000	60.579	-133.4263
11800.000000	60.654	-135.1259
12060.000000	60.602	-143.7078
12200.000000	60.225	-149.8347
12410.000000	59.027	-159.0809
12500.000000	58.286	-162.3904
12650.000000	56.803	-166.4059
12800.000000	55.090	-168.2421
13150.000000	50.745	-163.7322
13200.000000	50.138	-162.2738
13400.000000	47.817	-154.9321
13600.000000	45.687	-145.4299
13800.000000	43.747	-133.7671
14000.000000	42.049	-120.0557
14300.000000	40.105	-96.2480
14500.000000	39.414	-78.5524
14750.000000	39.464	-56.1768
15000.000000	40.596	-36.3546
15250.000000	42.650	-21.7103
15500.000000	45.018	-15.5394
15750.000000	46.714	-20.0604
16000.000000	47.045	-30.1336
16250.000000	46.121	-37.0883
16500.000000	44.663	-37.5082
16750.000000	43.276	-33.5977
17000.000000	42.162	-28.1137
17250.000000	41.264	-22.1552
17500.000000	40.547	-16.4459
17750.000000	39.913	-11.6455
18000.000000	39.211	-8.3765
18250.000000	38.259	-6.5587
18500.000000	36.919	-5.0586
18750.000000	35.127	-1.8622
19000.000000	32.962	4.0044
19250.000000	30.578	-2.1209
19500.000000	28.462	-123.8160
19750.000000	27.151	46.1085
20000.000000	26.677	-68.1494
