* Measurement data measured by REW V5.20.5
* Source: ??? (Realtek(R) Audio), MICROPHONE (Master Volume), L, volume: 1.000
* Format: 128k Log Swept Sine, 4 sweeps at -12.0 dBFS with no timing reference
* Dated: 03-May-2022 15:26:05
* REW Settings:
*  C-weighting compensation: Off
*  Target level: 75.0 dB
* Note: 
* Measurement: ER4XR Sample 1 L
* Smoothing: 1/24 octave
* Frequency Step: 1/48 octave
* Start Frequency: 20.300 Hz
*
* Freq(Hz)	SPL(dB)	Phase(degrees)
20.299999	79.947	-143.4172
20.600000	79.963	-143.6783
20.900000	79.993	-144.1356
21.200001	80.016	-144.5478
21.400000	80.028	-144.8025
21.799999	80.049	-145.3013
22.000000	80.059	-145.5567
22.400000	80.073	-146.0771
22.700001	80.082	-146.4710
23.000000	80.090	-146.8684
23.299999	80.099	-147.2723
23.600000	80.109	-147.6867
24.000000	80.124	-148.2554
24.299999	80.135	-148.6831
24.700001	80.148	-149.2275
25.000000	80.159	-149.5980
25.400000	80.179	-150.0383
25.799999	80.210	-150.4519
26.200001	80.250	-150.8955
26.500000	80.280	-151.2691
26.900000	80.310	-151.8131
27.200001	80.323	-152.2253
27.600000	80.326	-152.7314
28.000000	80.321	-153.1511
28.500000	80.316	-153.5628
29.000000	80.320	-153.9206
29.500000	80.331	-154.2901
30.000000	80.344	-154.6958
30.400000	80.352	-155.0425
30.700001	80.358	-155.3103
31.100000	80.363	-155.6686
31.500000	80.367	-156.0189
32.000000	80.372	-156.4382
32.500000	80.383	-156.8517
33.000000	80.398	-157.2846
33.500000	80.414	-157.7368
34.000000	80.429	-158.1754
34.500000	80.445	-158.5754
35.000000	80.465	-158.9512
35.500000	80.486	-159.3319
36.000000	80.502	-159.7147
36.500000	80.513	-160.0691
37.000000	80.522	-160.3849
37.500000	80.533	-160.6924
38.200001	80.542	-161.1546
38.700001	80.538	-161.4774
39.500000	80.529	-161.9100
40.000000	80.530	-162.1703
40.599998	80.534	-162.5257
41.200001	80.537	-162.9095
41.799999	80.541	-163.2965
42.500000	80.546	-163.7745
43.099998	80.544	-164.1856
43.700001	80.537	-164.5150
44.400002	80.541	-164.7929
45.000000	80.558	-165.0475
45.500000	80.573	-165.3141
46.200001	80.580	-165.7086
46.799999	80.577	-165.9979
47.500000	80.576	-166.2899
48.200001	80.576	-166.5964
48.700001	80.573	-166.8330
49.400002	80.562	-167.1507
50.000000	80.553	-167.3892
50.799999	80.548	-167.7320
51.500000	80.539	-168.1035
52.200001	80.516	-168.4185
53.000000	80.500	-168.6078
53.799999	80.513	-168.8240
54.500000	80.522	-169.1196
55.200001	80.519	-169.3684
56.000000	80.527	-169.5727
57.000000	80.548	-169.9733
58.000000	80.537	-170.4388
59.000000	80.514	-170.7383
60.000000	80.508	-170.9973
60.799999	80.506	-171.2794
61.500000	80.497	-171.5539
62.200001	80.484	-171.7968
63.000000	80.472	-172.0335
64.000000	80.462	-172.3269
65.000000	80.452	-172.6037
66.000000	80.442	-172.8497
67.000000	80.433	-173.0374
68.000000	80.436	-173.2022
69.000000	80.443	-173.4435
70.000000	80.441	-173.7347
71.000000	80.429	-174.0229
72.000000	80.413	-174.2546
73.000000	80.404	-174.4620
74.000000	80.396	-174.7038
75.000000	80.381	-174.9395
76.199997	80.362	-175.1466
77.500000	80.353	-175.3657
78.800003	80.342	-175.6445
80.000000	80.328	-175.8806
81.199997	80.318	-176.1138
82.500000	80.301	-176.3961
83.800003	80.275	-176.6053
85.000000	80.250	-176.7480
86.199997	80.229	-176.8703
87.500000	80.209	-177.0476
88.500000	80.193	-177.2118
90.000000	80.170	-177.4904
91.199997	80.153	-177.6936
92.500000	80.142	-177.8747
93.800003	80.134	-178.0396
95.000000	80.125	-178.1519
96.199997	80.116	-178.2422
97.500000	80.104	-178.3749
98.800003	80.082	-178.5323
100.000000	80.060	-178.6780
101.500000	80.033	-178.8592
103.000000	80.009	-179.0234
104.400002	79.992	-179.1530
106.000000	79.973	-179.3124
107.500000	79.950	-179.4219
109.000000	79.934	-179.5166
110.599998	79.918	-179.6534
112.000000	79.902	-179.7733
113.800003	79.882	-179.9014
115.000000	79.867	-179.9933
117.199997	79.835	179.8586
118.000000	79.824	179.8011
120.599998	79.787	179.6215
122.000000	79.771	179.5485
124.099998	79.747	179.4579
125.000000	79.738	179.4258
126.500000	79.721	179.3533
128.000000	79.703	179.2810
131.500000	79.662	179.1086
132.000000	79.656	179.0840
134.000000	79.629	179.0004
136.000000	79.602	178.9340
138.000000	79.580	178.8735
140.000000	79.559	178.7961
143.000000	79.524	178.7759
145.000000	79.506	178.7589
147.500000	79.482	178.6954
150.000000	79.454	178.6144
152.500000	79.427	178.5461
155.000000	79.395	178.5045
157.500000	79.364	178.5294
160.000000	79.337	178.5604
162.500000	79.313	178.5781
165.000000	79.292	178.5562
167.500000	79.266	178.5057
170.000000	79.235	178.4786
172.500000	79.212	178.4806
175.000000	79.194	178.4938
177.500000	79.173	178.5267
180.000000	79.150	178.5599
182.500000	79.130	178.5867
185.000000	79.110	178.6251
187.500000	79.090	178.6675
190.000000	79.067	178.6728
192.500000	79.043	178.6789
195.000000	79.024	178.7227
197.500000	79.007	178.7664
200.000000	78.987	178.8017
203.000000	78.967	178.8654
206.000000	78.950	178.9518
209.000000	78.925	179.0232
212.000000	78.892	179.0731
214.000000	78.870	179.1014
218.000000	78.835	179.2276
220.000000	78.823	179.3107
224.000000	78.797	179.4458
227.000000	78.770	179.5288
230.000000	78.743	179.5963
233.000000	78.717	179.6802
236.000000	78.692	179.7815
240.000000	78.665	179.9345
243.000000	78.649	-179.9705
247.000000	78.622	-179.8517
250.000000	78.599	-179.7539
254.000000	78.575	-179.6276
258.000000	78.557	-179.5010
262.000000	78.537	-179.3699
265.000000	78.521	-179.2559
269.000000	78.499	-179.0637
272.000000	78.484	-178.9331
276.000000	78.466	-178.7868
280.000000	78.443	-178.6166
285.000000	78.421	-178.4212
290.000000	78.404	-178.2487
295.000000	78.375	-178.0325
300.000000	78.347	-177.7905
304.000000	78.332	-177.5960
307.000000	78.321	-177.4521
311.000000	78.306	-177.2881
315.000000	78.295	-177.1425
320.000000	78.283	-176.9265
325.000000	78.259	-176.6983
330.000000	78.236	-176.4852
335.000000	78.217	-176.2795
340.000000	78.199	-176.0623
345.000000	78.182	-175.8416
350.000000	78.164	-175.6076
355.000000	78.148	-175.3528
360.000000	78.126	-175.1101
365.000000	78.106	-174.8969
370.000000	78.090	-174.6682
375.000000	78.076	-174.4352
382.000000	78.058	-174.0743
387.000000	78.048	-173.8401
395.000000	78.026	-173.4725
400.000000	78.009	-173.2235
406.000000	77.991	-172.9356
412.000000	77.974	-172.6684
418.000000	77.955	-172.3800
425.000000	77.933	-171.9945
431.000000	77.923	-171.6763
437.000000	77.910	-171.3772
444.000000	77.897	-170.9883
450.000000	77.894	-170.6488
455.000000	77.890	-170.3855
462.000000	77.874	-170.0294
468.000000	77.858	-169.6997
475.000000	77.847	-169.2841
482.000000	77.840	-168.8491
487.000000	77.833	-168.5497
494.000000	77.819	-168.1388
500.000000	77.811	-167.7702
508.000000	77.808	-167.2766
515.000000	77.810	-166.8270
522.000000	77.812	-166.3918
530.000000	77.810	-165.9217
538.000000	77.820	-165.4432
545.000000	77.832	-165.0125
552.000000	77.843	-164.5763
560.000000	77.854	-164.1098
570.000000	77.871	-163.5979
580.000000	77.882	-163.1219
590.000000	77.887	-162.6266
600.000000	77.893	-162.1190
608.000000	77.894	-161.7350
615.000000	77.893	-161.4161
622.000000	77.891	-161.0849
630.000000	77.888	-160.6772
640.000000	77.889	-160.1272
650.000000	77.891	-159.5627
660.000000	77.888	-159.0029
670.000000	77.885	-158.4043
680.000000	77.887	-157.7993
690.000000	77.894	-157.1866
700.000000	77.905	-156.5231
710.000000	77.916	-155.8278
720.000000	77.928	-155.1577
730.000000	77.941	-154.5066
740.000000	77.960	-153.8322
750.000000	77.984	-153.1496
762.000000	78.015	-152.3453
775.000000	78.045	-151.4478
788.000000	78.077	-150.5415
800.000000	78.116	-149.7009
812.000000	78.160	-148.8423
825.000000	78.211	-147.9434
838.000000	78.266	-147.0219
850.000000	78.325	-146.1732
862.000000	78.389	-145.3083
875.000000	78.459	-144.3843
885.000000	78.510	-143.7074
900.000000	78.600	-142.7143
912.000000	78.687	-141.9289
925.000000	78.783	-141.0921
938.000000	78.881	-140.2659
950.000000	78.977	-139.5269
962.000000	79.079	-138.8141
975.000000	79.190	-138.0835
988.000000	79.304	-137.3955
1000.000000	79.415	-136.8007
1015.000000	79.555	-136.1147
1030.000000	79.701	-135.4894
1044.000000	79.843	-134.9355
1060.000000	80.003	-134.3530
1075.000000	80.147	-133.8770
1090.000000	80.286	-133.4637
1106.000000	80.434	-133.0745
1120.000000	80.563	-132.7885
1138.000000	80.733	-132.4920
1150.000000	80.845	-132.3361
1172.000000	81.042	-132.1057
1180.000000	81.112	-132.0427
1206.000000	81.338	-131.9201
1220.000000	81.462	-131.8852
1241.000000	81.652	-131.8718
1250.000000	81.732	-131.8835
1265.000000	81.859	-131.9270
1280.000000	81.984	-131.9898
1315.000000	82.261	-132.1719
1320.000000	82.299	-132.2001
1340.000000	82.448	-132.3191
1360.000000	82.593	-132.4401
1380.000000	82.738	-132.5698
1400.000000	82.883	-132.7080
1430.000000	83.091	-132.8976
1450.000000	83.224	-133.0203
1475.000000	83.387	-133.1576
1500.000000	83.545	-133.3015
1525.000000	83.697	-133.4546
1550.000000	83.838	-133.5852
1575.000000	83.972	-133.7062
1600.000000	84.105	-133.8246
1625.000000	84.238	-133.9376
1650.000000	84.372	-134.0578
1675.000000	84.504	-134.1822
1700.000000	84.637	-134.3082
1725.000000	84.775	-134.4501
1750.000000	84.917	-134.6033
1775.000000	85.058	-134.7774
1800.000000	85.200	-134.9721
1825.000000	85.344	-135.1873
1850.000000	85.491	-135.4217
1875.000000	85.639	-135.6866
1900.000000	85.786	-135.9751
1925.000000	85.934	-136.2833
1950.000000	86.081	-136.6206
1975.000000	86.228	-136.9969
2000.000000	86.376	-137.4139
2030.000000	86.554	-137.9645
2060.000000	86.729	-138.5716
2090.000000	86.904	-139.2319
2120.000000	87.076	-139.9617
2140.000000	87.189	-140.4863
2180.000000	87.409	-141.6272
2200.000000	87.515	-142.2429
2240.000000	87.718	-143.5587
2270.000000	87.861	-144.6183
2300.000000	87.997	-145.7410
2330.000000	88.123	-146.9220
2360.000000	88.238	-148.1541
2400.000000	88.376	-149.8795
2430.000000	88.467	-151.2279
2470.000000	88.568	-153.0795
2500.000000	88.628	-154.5017
2540.000000	88.688	-156.4257
2580.000000	88.724	-158.3777
2620.000000	88.736	-160.3363
2650.000000	88.729	-161.7923
2690.000000	88.699	-163.7084
2720.000000	88.662	-165.1171
2760.000000	88.593	-166.9438
2800.000000	88.504	-168.7059
2850.000000	88.368	-170.8066
2900.000000	88.208	-172.7712
2950.000000	88.026	-174.5841
3000.000000	87.829	-176.2482
3040.000000	87.663	-177.4668
3070.000000	87.535	-178.3177
3110.000000	87.359	-179.3736
3150.000000	87.181	179.6635
3200.000000	86.956	178.5789
3250.000000	86.730	177.6177
3300.000000	86.506	176.7717
3350.000000	86.283	176.0390
3400.000000	86.062	175.3897
3450.000000	85.847	174.8212
3500.000000	85.635	174.3320
3550.000000	85.428	173.9025
3600.000000	85.227	173.5283
3650.000000	85.031	173.2091
3700.000000	84.841	172.9254
3750.000000	84.655	172.6633
3820.000000	84.404	172.3411
3870.000000	84.234	172.1371
3950.000000	83.977	171.8263
4000.000000	83.822	171.6235
4060.000000	83.641	171.3645
4120.000000	83.464	171.0959
4180.000000	83.288	170.8099
4250.000000	83.082	170.4449
4310.000000	82.906	170.0938
4370.000000	82.728	169.6957
4440.000000	82.515	169.1704
4500.000000	82.327	168.6796
4550.000000	82.164	168.2401
4620.000000	81.924	167.5802
4680.000000	81.707	166.9685
4750.000000	81.442	166.2062
4820.000000	81.153	165.4075
4870.000000	80.927	164.8239
4940.000000	80.585	164.0222
5000.000000	80.269	163.3557
5080.000000	79.812	162.5270
5150.000000	79.384	161.8988
5220.000000	78.937	161.3567
5300.000000	78.401	160.7993
5380.000000	77.822	160.3401
5450.000000	77.268	160.1256
5520.000000	76.664	160.1805
5600.000000	75.918	160.6693
5700.000000	74.913	162.1855
5800.000000	73.874	165.1561
5900.000000	72.921	170.2252
6000.000000	72.303	177.1243
6080.000000	72.238	-177.4366
6150.000000	72.444	-174.1039
6220.000000	72.709	-172.7056
6300.000000	72.887	-173.1218
6400.000000	72.792	-175.0731
6500.000000	72.378	-176.9560
6600.000000	71.768	-177.9937
6700.000000	71.071	-178.1147
6800.000000	70.342	-177.5080
6900.000000	69.620	-176.3908
7000.000000	68.922	-174.8409
7100.000000	68.239	-172.9058
7200.000000	67.578	-170.7838
7300.000000	66.953	-168.5399
7400.000000	66.352	-166.1887
7500.000000	65.743	-163.7277
7620.000000	65.023	-160.6581
7750.000000	64.243	-157.2694
7880.000000	63.473	-153.7692
8000.000000	62.786	-150.4831
8120.000000	62.100	-147.2831
8250.000000	61.355	-143.8137
8380.000000	60.598	-140.4285
8500.000000	59.891	-137.5053
8620.000000	59.178	-134.5507
8750.000000	58.358	-131.3015
8850.000000	57.673	-128.9107
9000.000000	56.601	-125.3812
9120.000000	55.707	-122.4484
9250.000000	54.645	-119.4530
9380.000000	53.490	-116.7602
9500.000000	52.305	-114.5554
9620.000000	50.939	-113.1795
9750.000000	49.150	-115.7729
9880.000000	46.874	-158.0960
10000.000000	44.187	-73.7445
10150.000000	40.127	171.7261
10300.000000	39.992	-136.7456
10440.000000	43.959	129.3857
10600.000000	47.845	110.0103
10750.000000	50.562	74.6201
10900.000000	52.646	71.0610
11060.000000	54.431	69.8096
11200.000000	55.709	68.7314
11380.000000	57.105	67.2168
11500.000000	57.919	66.0166
11720.000000	59.271	62.8218
11800.000000	59.727	61.2192
12060.000000	60.917	53.6006
12200.000000	61.333	47.7881
12410.000000	61.515	36.9971
12500.000000	61.376	31.8354
12650.000000	60.777	23.2266
12800.000000	59.636	16.3013
13150.000000	55.994	13.6133
13200.000000	55.513	14.0669
13400.000000	53.665	16.9819
13600.000000	51.820	22.1304
13800.000000	50.053	30.0581
14000.000000	48.478	40.2305
14300.000000	46.587	59.5845
14500.000000	45.893	74.7251
14750.000000	46.088	95.2197
15000.000000	47.415	111.8730
15250.000000	49.333	120.4023
15500.000000	50.857	118.3154
15750.000000	51.141	110.5190
16000.000000	50.230	104.5698
16250.000000	48.706	103.8506
16500.000000	47.177	104.9199
16750.000000	45.773	90.0654
17000.000000	44.516	-9.1016
17250.000000	43.619	91.0562
17500.000000	42.606	155.5098
17750.000000	41.477	-32.7578
18000.000000	40.301	123.9863
18250.000000	38.826	-54.6660
18500.000000	37.596	-63.1035
18750.000000	37.137	-65.3164
19000.000000	36.878	-129.3320
19250.000000	36.508	173.8359
19500.000000	36.252	-93.4609
19750.000000	36.293	-53.0781
20000.000000	36.432	-154.8359
