* Measurement data measured by REW V5.20.5
* Source: ??? (Realtek(R) Audio), MICROPHONE (Master Volume), L, volume: 1.000
* Format: 128k Log Swept Sine, 4 sweeps at -12.0 dBFS with no timing reference
* Dated: 03-May-2022 15:34:17
* REW Settings:
*  C-weighting compensation: Off
*  Target level: 75.0 dB
* Note: 
* Measurement: ER4XR Sample 1 R
* Smoothing: 1/24 octave
* Frequency Step: 1/48 octave
* Start Frequency: 20.300 Hz
*
* Freq(Hz)	SPL(dB)	Phase(degrees)
20.299999	79.211	-143.4096
20.600000	79.232	-143.6704
20.900000	79.271	-144.1289
21.200001	79.297	-144.5418
21.400000	79.309	-144.7872
21.799999	79.331	-145.2437
22.000000	79.343	-145.4736
22.400000	79.371	-145.9688
22.700001	79.393	-146.3931
23.000000	79.411	-146.8719
23.299999	79.423	-147.3896
23.600000	79.428	-147.9198
24.000000	79.426	-148.5943
24.299999	79.422	-149.0381
24.700001	79.421	-149.5237
25.000000	79.429	-149.8208
25.400000	79.457	-150.1781
25.799999	79.503	-150.5701
26.200001	79.555	-151.0530
26.500000	79.589	-151.4709
26.900000	79.617	-152.0532
27.200001	79.626	-152.4575
27.600000	79.625	-152.8972
28.000000	79.626	-153.2099
28.500000	79.642	-153.5048
29.000000	79.676	-153.8535
29.500000	79.709	-154.3463
30.000000	79.721	-154.9271
30.400000	79.714	-155.3619
30.700001	79.703	-155.6357
31.100000	79.691	-155.9310
31.500000	79.687	-156.1873
32.000000	79.693	-156.5364
32.500000	79.703	-156.9580
33.000000	79.709	-157.4130
33.500000	79.715	-157.8568
34.000000	79.725	-158.2992
34.500000	79.733	-158.7606
35.000000	79.733	-159.1964
35.500000	79.729	-159.5222
36.000000	79.739	-159.7388
36.500000	79.770	-159.9662
37.000000	79.810	-160.3232
37.500000	79.836	-160.7852
38.200001	79.843	-161.3850
38.700001	79.846	-161.7439
39.500000	79.840	-162.3983
40.000000	79.809	-162.7699
40.599998	79.756	-162.9118
41.200001	79.746	-162.7464
41.799999	79.799	-162.6836
42.500000	79.876	-163.0944
43.099998	79.902	-163.6487
43.700001	79.902	-164.1148
44.400002	79.904	-164.5829
45.000000	79.901	-165.0488
45.500000	79.882	-165.4425
46.200001	79.836	-165.8339
46.799999	79.804	-165.9758
47.500000	79.799	-166.0682
48.200001	79.821	-166.2616
48.700001	79.840	-166.4903
49.400002	79.858	-166.8883
50.000000	79.860	-167.2349
50.799999	79.850	-167.5741
51.500000	79.852	-167.7063
52.200001	79.884	-167.8638
53.000000	79.921	-168.3245
53.799999	79.906	-168.8659
54.500000	79.869	-169.0919
55.200001	79.854	-169.1573
56.000000	79.865	-169.3274
57.000000	79.873	-169.7392
58.000000	79.869	-170.1938
59.000000	79.860	-170.6490
60.000000	79.848	-171.0869
60.799999	79.834	-171.4191
61.500000	79.816	-171.6657
62.200001	79.797	-171.8407
63.000000	79.782	-171.9766
64.000000	79.772	-172.1334
65.000000	79.766	-172.2770
66.000000	79.770	-172.4630
67.000000	79.772	-172.7750
68.000000	79.759	-173.1222
69.000000	79.739	-173.4338
70.000000	79.721	-173.6961
71.000000	79.710	-173.9581
72.000000	79.699	-174.2494
73.000000	79.682	-174.5063
74.000000	79.667	-174.7090
75.000000	79.655	-174.8779
76.199997	79.641	-175.0573
77.500000	79.627	-175.2186
78.800003	79.616	-175.3655
80.000000	79.614	-175.5246
81.199997	79.613	-175.7600
82.500000	79.602	-176.0455
83.800003	79.586	-176.2800
85.000000	79.573	-176.4642
86.199997	79.559	-176.6426
87.500000	79.543	-176.8455
88.500000	79.526	-177.0352
90.000000	79.492	-177.3238
91.199997	79.464	-177.5248
92.500000	79.439	-177.6904
93.800003	79.426	-177.8290
95.000000	79.419	-177.9698
96.199997	79.411	-178.1272
97.500000	79.394	-178.2858
98.800003	79.374	-178.4243
100.000000	79.353	-178.5549
101.500000	79.327	-178.7082
103.000000	79.299	-178.8401
104.400002	79.277	-178.8973
106.000000	79.266	-178.9686
107.500000	79.257	-179.1227
109.000000	79.246	-179.3235
110.599998	79.224	-179.5382
112.000000	79.198	-179.6325
113.800003	79.162	-179.6111
115.000000	79.138	-179.5954
117.199997	79.062	-179.7008
118.000000	79.021	-179.7169
120.599998	78.969	-179.4421
122.000000	79.000	-179.5963
124.099998	79.010	-179.9689
125.000000	79.008	179.9433
126.500000	79.001	179.8361
128.000000	78.985	179.7335
131.500000	78.934	179.5383
132.000000	78.928	179.5105
134.000000	78.905	179.4094
136.000000	78.885	179.3755
138.000000	78.875	179.3653
140.000000	78.860	179.2813
143.000000	78.801	179.1978
145.000000	78.769	179.2363
147.500000	78.759	179.2882
150.000000	78.761	179.2556
152.500000	78.741	179.1993
155.000000	78.707	179.1417
157.500000	78.673	179.1064
160.000000	78.641	179.0995
162.500000	78.606	179.1114
165.000000	78.576	179.0926
167.500000	78.550	179.0654
170.000000	78.520	179.0818
172.500000	78.494	179.1464
175.000000	78.474	179.1489
177.500000	78.448	179.1438
180.000000	78.423	179.1939
182.500000	78.403	179.2349
185.000000	78.381	179.2497
187.500000	78.363	179.2837
190.000000	78.348	179.3075
192.500000	78.328	179.3389
195.000000	78.303	179.4278
197.500000	78.281	179.5347
200.000000	78.261	179.6007
203.000000	78.235	179.6525
206.000000	78.207	179.7062
209.000000	78.178	179.7865
212.000000	78.150	179.8870
214.000000	78.133	179.9662
218.000000	78.099	-179.8972
220.000000	78.078	-179.8414
224.000000	78.043	-179.7267
227.000000	78.025	-179.6302
230.000000	78.012	-179.5189
233.000000	77.995	-179.4126
236.000000	77.973	-179.3208
240.000000	77.940	-179.2014
243.000000	77.912	-179.0612
247.000000	77.881	-178.8564
250.000000	77.864	-178.7389
254.000000	77.839	-178.5953
258.000000	77.813	-178.4613
262.000000	77.787	-178.3017
265.000000	77.773	-178.1592
269.000000	77.758	-177.9958
272.000000	77.743	-177.8788
276.000000	77.723	-177.7075
280.000000	77.706	-177.5226
285.000000	77.682	-177.2958
290.000000	77.660	-177.0891
295.000000	77.636	-176.8564
300.000000	77.610	-176.5861
304.000000	77.592	-176.3739
307.000000	77.581	-176.2238
311.000000	77.566	-176.0287
315.000000	77.550	-175.8479
320.000000	77.531	-175.6155
325.000000	77.514	-175.3769
330.000000	77.502	-175.1234
335.000000	77.482	-174.8580
340.000000	77.459	-174.6021
345.000000	77.439	-174.3510
350.000000	77.425	-174.0784
355.000000	77.409	-173.8381
360.000000	77.389	-173.5915
365.000000	77.369	-173.3480
370.000000	77.352	-173.1179
375.000000	77.333	-172.8668
382.000000	77.306	-172.4757
387.000000	77.292	-172.1783
395.000000	77.271	-171.6642
400.000000	77.254	-171.3277
406.000000	77.231	-170.9398
412.000000	77.207	-170.6086
418.000000	77.186	-170.3099
425.000000	77.166	-169.9023
431.000000	77.148	-169.5086
437.000000	77.134	-169.1248
444.000000	77.125	-168.5584
450.000000	77.127	-167.9975
455.000000	77.131	-167.5524
462.000000	77.139	-166.9864
468.000000	77.160	-166.5501
475.000000	77.201	-166.1269
482.000000	77.240	-165.8374
487.000000	77.257	-165.6879
494.000000	77.265	-165.5010
500.000000	77.261	-165.3349
508.000000	77.255	-165.0558
515.000000	77.248	-164.7615
522.000000	77.241	-164.4485
530.000000	77.231	-164.0655
538.000000	77.222	-163.6723
545.000000	77.209	-163.2908
552.000000	77.198	-162.8652
560.000000	77.187	-162.3902
570.000000	77.173	-161.8245
580.000000	77.161	-161.2321
590.000000	77.149	-160.6211
600.000000	77.139	-160.0027
608.000000	77.136	-159.5165
615.000000	77.138	-159.0738
622.000000	77.142	-158.6093
630.000000	77.145	-158.0867
640.000000	77.146	-157.4636
650.000000	77.147	-156.8075
660.000000	77.148	-156.1230
670.000000	77.159	-155.4668
680.000000	77.170	-154.8165
690.000000	77.176	-154.1153
700.000000	77.185	-153.4161
710.000000	77.200	-152.7158
720.000000	77.216	-151.9875
730.000000	77.232	-151.2334
740.000000	77.253	-150.5042
750.000000	77.281	-149.8217
762.000000	77.314	-148.9981
775.000000	77.347	-148.0683
788.000000	77.391	-147.0973
800.000000	77.436	-146.1946
812.000000	77.478	-145.3401
825.000000	77.534	-144.4351
838.000000	77.592	-143.4845
850.000000	77.646	-142.5859
862.000000	77.707	-141.6799
875.000000	77.784	-140.7365
885.000000	77.846	-140.0309
900.000000	77.943	-139.0024
912.000000	78.023	-138.1928
925.000000	78.117	-137.3144
938.000000	78.215	-136.4532
950.000000	78.309	-135.6876
962.000000	78.409	-134.9641
975.000000	78.522	-134.2137
988.000000	78.635	-133.4968
1000.000000	78.742	-132.8613
1015.000000	78.878	-132.1092
1030.000000	79.019	-131.4276
1044.000000	79.151	-130.8736
1060.000000	79.304	-130.2716
1075.000000	79.444	-129.7132
1090.000000	79.579	-129.2105
1106.000000	79.722	-128.7512
1120.000000	79.848	-128.4021
1138.000000	80.010	-127.9929
1150.000000	80.117	-127.7656
1172.000000	80.310	-127.4111
1180.000000	80.379	-127.2967
1206.000000	80.599	-126.9962
1220.000000	80.722	-126.8896
1241.000000	80.914	-126.7605
1250.000000	80.997	-126.7184
1265.000000	81.129	-126.6671
1280.000000	81.254	-126.6385
1315.000000	81.528	-126.6287
1320.000000	81.566	-126.6314
1340.000000	81.716	-126.6491
1360.000000	81.866	-126.6757
1380.000000	82.013	-126.7196
1400.000000	82.157	-126.7608
1430.000000	82.365	-126.7975
1450.000000	82.501	-126.8157
1475.000000	82.669	-126.8482
1500.000000	82.831	-126.8794
1525.000000	82.985	-126.8975
1550.000000	83.126	-126.9178
1575.000000	83.263	-126.9254
1600.000000	83.399	-126.9324
1625.000000	83.535	-126.9317
1650.000000	83.669	-126.9444
1675.000000	83.803	-126.9755
1700.000000	83.939	-127.0134
1725.000000	84.078	-127.0536
1750.000000	84.221	-127.1096
1775.000000	84.366	-127.1833
1800.000000	84.512	-127.2610
1825.000000	84.660	-127.3513
1850.000000	84.808	-127.4664
1875.000000	84.957	-127.6157
1900.000000	85.105	-127.8083
1925.000000	85.254	-128.0213
1950.000000	85.405	-128.2526
1975.000000	85.556	-128.5176
2000.000000	85.706	-128.8217
2030.000000	85.886	-129.2435
2060.000000	86.064	-129.7411
2090.000000	86.242	-130.3031
2120.000000	86.416	-130.9137
2140.000000	86.531	-131.3559
2180.000000	86.752	-132.3471
2200.000000	86.859	-132.8889
2240.000000	87.064	-134.0523
2270.000000	87.208	-134.9970
2300.000000	87.343	-136.0025
2330.000000	87.469	-137.0757
2360.000000	87.586	-138.2043
2400.000000	87.723	-139.7781
2430.000000	87.812	-141.0143
2470.000000	87.912	-142.7265
2500.000000	87.971	-144.0381
2540.000000	88.027	-145.8221
2580.000000	88.058	-147.6231
2620.000000	88.063	-149.4193
2650.000000	88.050	-150.7523
2690.000000	88.012	-152.4923
2720.000000	87.968	-153.7640
2760.000000	87.891	-155.4066
2800.000000	87.794	-156.9713
2850.000000	87.647	-158.7942
2900.000000	87.477	-160.4693
2950.000000	87.287	-161.9758
3000.000000	87.083	-163.3223
3040.000000	86.912	-164.2752
3070.000000	86.780	-164.9180
3110.000000	86.603	-165.6853
3150.000000	86.424	-166.3531
3200.000000	86.201	-167.0489
3250.000000	85.982	-167.6010
3300.000000	85.770	-168.0287
3350.000000	85.566	-168.3570
3400.000000	85.371	-168.6172
3450.000000	85.185	-168.8398
3500.000000	85.007	-169.0274
3550.000000	84.834	-169.1892
3600.000000	84.665	-169.3343
3650.000000	84.499	-169.4525
3700.000000	84.334	-169.5468
3750.000000	84.171	-169.6377
3820.000000	83.948	-169.7478
3870.000000	83.794	-169.8079
3950.000000	83.556	-169.8770
4000.000000	83.408	-169.8942
4060.000000	83.236	-169.9040
4120.000000	83.067	-169.9267
4180.000000	82.901	-169.9492
4250.000000	82.708	-169.9931
4310.000000	82.545	-170.0692
4370.000000	82.379	-170.1807
4440.000000	82.183	-170.3581
4500.000000	82.012	-170.5431
4550.000000	81.867	-170.7269
4620.000000	81.654	-171.0512
4680.000000	81.461	-171.3762
4750.000000	81.221	-171.7984
4820.000000	80.959	-172.2821
4870.000000	80.756	-172.6496
4940.000000	80.446	-173.1839
5000.000000	80.157	-173.6384
5080.000000	79.739	-174.1937
5150.000000	79.346	-174.5956
5220.000000	78.924	-174.9203
5300.000000	78.405	-175.1499
5380.000000	77.854	-175.1741
5450.000000	77.350	-175.0486
5520.000000	76.819	-174.7882
5600.000000	76.165	-174.2746
5700.000000	75.274	-173.0776
5800.000000	74.313	-170.8743
5900.000000	73.311	-167.1298
6000.000000	72.397	-161.3165
6080.000000	71.925	-155.3014
6150.000000	71.853	-149.8951
6220.000000	72.092	-145.6313
6300.000000	72.512	-143.3909
6400.000000	72.819	-144.2699
6500.000000	72.675	-146.6757
6600.000000	72.172	-148.4907
6700.000000	71.486	-149.1347
6800.000000	70.735	-148.6631
6900.000000	69.985	-147.3653
7000.000000	69.253	-145.5186
7100.000000	68.544	-143.2510
7200.000000	67.883	-140.7378
7300.000000	67.254	-138.0361
7400.000000	66.646	-135.1724
7500.000000	66.045	-132.3050
7620.000000	65.322	-128.8320
7750.000000	64.553	-124.8433
7880.000000	63.785	-120.8150
8000.000000	63.064	-117.0368
8120.000000	62.348	-113.0308
8250.000000	61.587	-108.8237
8380.000000	60.834	-104.6727
8500.000000	60.109	-100.7642
8620.000000	59.365	-97.0333
8750.000000	58.530	-92.9819
8850.000000	57.839	-89.8782
9000.000000	56.749	-85.3218
9120.000000	55.811	-81.6517
9250.000000	54.692	-77.7766
9380.000000	53.436	-74.0870
9500.000000	52.063	-70.8678
9620.000000	50.372	-68.8340
9750.000000	48.023	-79.0451
9880.000000	44.890	176.9629
10000.000000	41.552	126.2517
10150.000000	41.567	-162.9702
10300.000000	46.149	-93.4639
10440.000000	49.673	128.5779
10600.000000	52.586	111.0884
10750.000000	54.620	110.5078
10900.000000	56.143	110.7815
11060.000000	57.365	111.0686
11200.000000	58.240	111.4878
11380.000000	59.185	112.3582
11500.000000	59.721	113.3369
11720.000000	60.592	115.8403
11800.000000	60.900	116.8850
12060.000000	61.955	120.4917
12200.000000	62.577	122.2856
12410.000000	63.644	123.9302
12500.000000	64.129	124.0344
12650.000000	64.848	123.1909
12800.000000	65.351	121.8914
13150.000000	66.760	119.6909
13200.000000	66.984	118.6772
13400.000000	67.631	112.5535
13600.000000	67.784	104.7703
13800.000000	67.478	97.6116
14000.000000	66.849	92.5359
14300.000000	65.741	89.3643
14500.000000	65.155	89.0867
14750.000000	64.733	88.9353
15000.000000	64.654	86.7886
15250.000000	64.688	79.7437
15500.000000	64.157	66.7153
15750.000000	62.421	52.2764
16000.000000	59.511	43.3481
16250.000000	55.990	41.9241
16500.000000	52.444	45.4299
16750.000000	49.222	43.3079
17000.000000	46.362	-42.7517
17250.000000	43.837	138.6008
17500.000000	41.740	10.2090
17750.000000	39.912	55.1353
18000.000000	38.304	139.4453
18250.000000	37.309	9.0859
18500.000000	36.907	174.0742
18750.000000	36.852	-31.1680
19000.000000	36.744	-149.0859
19250.000000	36.590	19.6875
19500.000000	36.494	165.9609
19750.000000	36.591	76.1719
20000.000000	36.867	-100.8594
