* Measurement data measured by REW V5.20.5
* Source: ??? (Realtek(R) Audio), MICROPHONE (Master Volume), L, volume: 1.000
* Format: 128k Log Swept Sine, 4 sweeps at -12.0 dBFS with no timing reference
* Dated: 03-May-2022 15:11:11
* REW Settings:
*  C-weighting compensation: Off
*  Target level: 75.0 dB
* Note: 
* Measurement: ER4XR Sample 1 R
* Smoothing: 1/24 octave
* Frequency Step: 1/48 octave
* Start Frequency: 20.300 Hz
*
* Freq(Hz)	SPL(dB)	Phase(degrees)
20.299999	77.840	-148.9202
20.600000	77.875	-149.1497
20.900000	77.938	-149.5979
21.200001	77.974	-150.1156
21.400000	77.981	-150.4658
21.799999	77.962	-151.1002
22.000000	77.942	-151.3496
22.400000	77.899	-151.6786
22.700001	77.876	-151.8265
23.000000	77.870	-151.9771
23.299999	77.874	-152.2003
23.600000	77.881	-152.5160
24.000000	77.882	-153.0452
24.299999	77.874	-153.4513
24.700001	77.856	-153.9198
25.000000	77.847	-154.2029
25.400000	77.851	-154.5375
25.799999	77.871	-154.9093
26.200001	77.897	-155.3586
26.500000	77.913	-155.7250
26.900000	77.927	-156.2052
27.200001	77.935	-156.5400
27.600000	77.950	-156.9658
28.000000	77.970	-157.4141
28.500000	77.990	-158.0392
29.000000	77.991	-158.6581
29.500000	77.979	-159.1502
30.000000	77.976	-159.4984
30.400000	77.988	-159.7501
30.700001	78.004	-159.9678
31.100000	78.025	-160.3184
31.500000	78.037	-160.7141
32.000000	78.037	-161.1935
32.500000	78.024	-161.5823
33.000000	78.012	-161.8649
33.500000	78.010	-162.0782
34.000000	78.022	-162.2882
34.500000	78.041	-162.5632
35.000000	78.056	-162.9245
35.500000	78.056	-163.3139
36.000000	78.047	-163.6462
36.500000	78.045	-163.9143
37.000000	78.057	-164.2119
37.500000	78.075	-164.6225
38.200001	78.085	-165.3375
38.700001	78.079	-165.8509
39.500000	78.055	-166.6035
40.000000	78.031	-166.9681
40.599998	78.006	-167.1904
41.200001	78.015	-167.2690
41.799999	78.049	-167.4524
42.500000	78.072	-167.8045
43.099998	78.077	-167.9634
43.700001	78.110	-168.0602
44.400002	78.168	-168.5022
45.000000	78.175	-169.1478
45.500000	78.146	-169.5914
46.200001	78.109	-169.9359
46.799999	78.105	-170.2493
47.500000	78.079	-170.7940
48.200001	78.005	-171.0921
48.700001	77.960	-171.0554
49.400002	77.919	-171.1059
50.000000	77.819	-171.4057
50.799999	77.504	-171.0716
51.500000	77.224	-169.4121
52.200001	77.100	-167.5868
53.000000	77.035	-166.5132
53.799999	76.981	-166.2526
54.500000	77.002	-167.0356
55.200001	77.009	-169.1561
56.000000	76.920	-172.1402
57.000000	76.889	-174.8153
58.000000	77.231	-176.4006
59.000000	77.815	-178.3403
60.000000	78.148	179.6744
60.799999	78.186	179.9503
61.500000	78.192	-178.4258
62.200001	78.189	-176.3268
63.000000	78.120	-173.7978
64.000000	77.949	-170.8706
65.000000	77.721	-169.1943
66.000000	77.430	-169.4898
67.000000	77.105	-171.5285
68.000000	76.887	-174.5045
69.000000	76.876	-177.8562
70.000000	77.016	179.4049
71.000000	77.252	178.0533
72.000000	77.497	178.0651
73.000000	77.693	179.1895
74.000000	77.833	-179.2676
75.000000	77.882	-178.0120
76.199997	77.814	-177.1806
77.500000	77.665	-177.1017
78.800003	77.553	-177.6355
80.000000	77.517	-178.3395
81.199997	77.534	-178.7500
82.500000	77.592	-178.8272
83.800003	77.624	-178.7984
85.000000	77.607	-178.7955
86.199997	77.564	-178.9386
87.500000	77.510	-179.3086
88.500000	77.469	-179.5998
90.000000	77.439	-179.7983
91.199997	77.447	-179.8092
92.500000	77.460	-179.9048
93.800003	77.432	179.9308
95.000000	77.390	179.8482
96.199997	77.361	179.7520
97.500000	77.344	179.5547
98.800003	77.330	179.3082
100.000000	77.312	179.1253
101.500000	77.292	179.0266
103.000000	77.292	178.8800
104.400002	77.281	178.6737
106.000000	77.268	178.5674
107.500000	77.263	178.4597
109.000000	77.229	178.2902
110.599998	77.168	178.2664
112.000000	77.142	178.3361
113.800003	77.143	178.2699
115.000000	77.136	178.2196
117.199997	77.085	178.4221
118.000000	77.060	178.6172
120.599998	77.041	178.8164
122.000000	77.007	178.3762
124.099998	76.931	177.8215
125.000000	76.910	177.6854
126.500000	76.892	177.5819
128.000000	76.888	177.5783
131.500000	76.855	177.5161
132.000000	76.845	177.5064
134.000000	76.807	177.4595
136.000000	76.775	177.3958
138.000000	76.756	177.3810
140.000000	76.740	177.3372
143.000000	76.671	177.3655
145.000000	76.615	177.3812
147.500000	76.543	177.2994
150.000000	76.503	177.3084
152.500000	76.490	177.2782
155.000000	76.460	177.2579
157.500000	76.423	177.1996
160.000000	76.397	177.1768
162.500000	76.394	177.2116
165.000000	76.362	177.2526
167.500000	76.295	177.3870
170.000000	76.241	177.5060
172.500000	76.205	177.6158
175.000000	76.156	177.8393
177.500000	76.091	178.1568
180.000000	76.036	178.3526
182.500000	75.988	178.4718
185.000000	75.947	178.7341
187.500000	75.913	179.0672
190.000000	75.867	179.4150
192.500000	75.806	179.9116
195.000000	75.749	-179.5242
197.500000	75.706	-178.9229
200.000000	75.719	-178.1369
203.000000	75.776	-177.1293
206.000000	75.795	-176.2870
209.000000	75.900	-175.8492
212.000000	76.048	-175.7595
214.000000	76.115	-175.0824
218.000000	76.357	-173.4945
220.000000	76.523	-173.9017
224.000000	76.636	-175.3992
227.000000	76.676	-175.2913
230.000000	76.766	-175.4989
233.000000	76.823	-176.4204
236.000000	76.805	-177.2019
240.000000	76.768	-177.9678
243.000000	76.721	-178.4621
247.000000	76.645	-178.8734
250.000000	76.581	-179.2250
254.000000	76.523	-179.4870
258.000000	76.491	-179.6573
262.000000	76.441	-179.7453
265.000000	76.401	-179.8134
269.000000	76.344	-179.9691
272.000000	76.307	-179.9928
276.000000	76.263	-179.8795
280.000000	76.202	-179.7746
285.000000	76.124	-179.6435
290.000000	76.093	-179.4825
295.000000	76.066	-179.3943
300.000000	76.011	-179.2314
304.000000	75.978	-179.0838
307.000000	75.964	-178.9719
311.000000	75.950	-178.7962
315.000000	75.931	-178.5809
320.000000	75.894	-178.3134
325.000000	75.862	-178.0851
330.000000	75.843	-177.8038
335.000000	75.818	-177.5592
340.000000	75.793	-177.3917
345.000000	75.772	-177.1949
350.000000	75.748	-176.9718
355.000000	75.725	-176.7350
360.000000	75.708	-176.5056
365.000000	75.688	-176.3014
370.000000	75.669	-176.0907
375.000000	75.653	-175.8509
382.000000	75.635	-175.5493
387.000000	75.618	-175.3345
395.000000	75.588	-174.9703
400.000000	75.573	-174.7188
406.000000	75.561	-174.4032
412.000000	75.551	-174.1093
418.000000	75.533	-173.8486
425.000000	75.517	-173.5131
431.000000	75.508	-173.2101
437.000000	75.501	-172.9235
444.000000	75.492	-172.6213
450.000000	75.482	-172.3172
455.000000	75.470	-172.0567
462.000000	75.459	-171.7364
468.000000	75.456	-171.4478
475.000000	75.446	-171.0915
482.000000	75.439	-170.7480
487.000000	75.436	-170.4830
494.000000	75.426	-170.1196
500.000000	75.416	-169.8504
508.000000	75.406	-169.4765
515.000000	75.399	-169.1252
522.000000	75.395	-168.7706
530.000000	75.395	-168.3900
538.000000	75.397	-167.9939
545.000000	75.395	-167.6272
552.000000	75.390	-167.2752
560.000000	75.383	-166.8659
570.000000	75.379	-166.3082
580.000000	75.376	-165.7345
590.000000	75.372	-165.1884
600.000000	75.363	-164.6798
608.000000	75.368	-164.2254
615.000000	75.383	-163.8167
622.000000	75.392	-163.4239
630.000000	75.389	-163.0123
640.000000	75.388	-162.4924
650.000000	75.395	-161.9275
660.000000	75.402	-161.3649
670.000000	75.415	-160.7914
680.000000	75.423	-160.1924
690.000000	75.436	-159.6103
700.000000	75.461	-159.0336
710.000000	75.483	-158.4588
720.000000	75.494	-157.8557
730.000000	75.509	-157.2412
740.000000	75.532	-156.6766
750.000000	75.558	-156.1154
762.000000	75.590	-155.4051
775.000000	75.629	-154.6078
788.000000	75.673	-153.8174
800.000000	75.717	-153.0863
812.000000	75.761	-152.3503
825.000000	75.811	-151.5500
838.000000	75.871	-150.7579
850.000000	75.930	-150.0484
862.000000	75.991	-149.3675
875.000000	76.055	-148.6347
885.000000	76.105	-148.0808
900.000000	76.186	-147.2321
912.000000	76.260	-146.5769
925.000000	76.344	-145.9294
938.000000	76.430	-145.2947
950.000000	76.513	-144.7056
962.000000	76.600	-144.1457
975.000000	76.699	-143.5617
988.000000	76.798	-143.0075
1000.000000	76.888	-142.5305
1015.000000	77.003	-141.9838
1030.000000	77.120	-141.4854
1044.000000	77.233	-141.0417
1060.000000	77.363	-140.5767
1075.000000	77.478	-140.2129
1090.000000	77.586	-139.9132
1106.000000	77.700	-139.6131
1120.000000	77.802	-139.3661
1138.000000	77.931	-139.0878
1150.000000	78.016	-138.9456
1172.000000	78.166	-138.7463
1180.000000	78.219	-138.6884
1206.000000	78.387	-138.5704
1220.000000	78.484	-138.5051
1241.000000	78.634	-138.4227
1250.000000	78.696	-138.3997
1265.000000	78.798	-138.3649
1280.000000	78.897	-138.3359
1315.000000	79.121	-138.2852
1320.000000	79.152	-138.2765
1340.000000	79.271	-138.2418
1360.000000	79.388	-138.2136
1380.000000	79.511	-138.1988
1400.000000	79.637	-138.1985
1430.000000	79.820	-138.1600
1450.000000	79.939	-138.1309
1475.000000	80.085	-138.0684
1500.000000	80.231	-138.0047
1525.000000	80.372	-137.9761
1550.000000	80.503	-137.9324
1575.000000	80.629	-137.8792
1600.000000	80.757	-137.8280
1625.000000	80.888	-137.8023
1650.000000	81.016	-137.7728
1675.000000	81.145	-137.7350
1700.000000	81.276	-137.7248
1725.000000	81.411	-137.7291
1750.000000	81.552	-137.7390
1775.000000	81.697	-137.7662
1800.000000	81.843	-137.8208
1825.000000	81.986	-137.9000
1850.000000	82.130	-138.0107
1875.000000	82.275	-138.1492
1900.000000	82.419	-138.2941
1925.000000	82.565	-138.4537
1950.000000	82.710	-138.6374
1975.000000	82.854	-138.8391
2000.000000	82.997	-139.0417
2030.000000	83.171	-139.2666
2060.000000	83.356	-139.4665
2090.000000	83.563	-139.6816
2120.000000	83.796	-140.0216
2140.000000	83.961	-140.3783
2180.000000	84.277	-141.4615
2200.000000	84.419	-142.1530
2240.000000	84.671	-143.6643
2270.000000	84.839	-144.8395
2300.000000	84.992	-146.0378
2330.000000	85.134	-147.2656
2360.000000	85.266	-148.5333
2400.000000	85.424	-150.2895
2430.000000	85.528	-151.6516
2470.000000	85.650	-153.5289
2500.000000	85.726	-154.9743
2540.000000	85.804	-156.9199
2580.000000	85.856	-158.8851
2620.000000	85.885	-160.8658
2650.000000	85.890	-162.3489
2690.000000	85.876	-164.3068
2720.000000	85.849	-165.7564
2760.000000	85.792	-167.6515
2800.000000	85.711	-169.4882
2850.000000	85.578	-171.6532
2900.000000	85.417	-173.6545
2950.000000	85.232	-175.4720
3000.000000	85.028	-177.1155
3040.000000	84.854	-178.3206
3070.000000	84.718	-179.1465
3110.000000	84.532	179.8687
3150.000000	84.341	179.0035
3200.000000	84.100	178.0855
3250.000000	83.856	177.3564
3300.000000	83.613	176.8305
3350.000000	83.377	176.5128
3400.000000	83.158	176.3929
3450.000000	82.969	176.4153
3500.000000	82.813	176.4592
3550.000000	82.680	176.4150
3600.000000	82.557	176.2810
3650.000000	82.430	176.0692
3700.000000	82.293	175.8314
3750.000000	82.144	175.6323
3820.000000	81.929	175.4821
3870.000000	81.779	175.4721
3950.000000	81.559	175.6097
4000.000000	81.437	175.7789
4060.000000	81.307	175.9980
4120.000000	81.190	176.1864
4180.000000	81.082	176.3317
4250.000000	80.961	176.4468
4310.000000	80.859	176.5212
4370.000000	80.760	176.5823
4440.000000	80.645	176.6343
4500.000000	80.543	176.6523
4550.000000	80.458	176.6654
4620.000000	80.344	176.6847
4680.000000	80.253	176.6895
4750.000000	80.153	176.6693
4820.000000	80.056	176.5349
4870.000000	79.982	176.3462
4940.000000	79.866	175.9288
5000.000000	79.750	175.4315
5080.000000	79.557	174.6777
5150.000000	79.341	174.0300
5220.000000	79.088	173.4845
5300.000000	78.771	173.0863
5380.000000	78.442	172.9236
5450.000000	78.145	172.8964
5520.000000	77.832	172.9292
5600.000000	77.450	173.0631
5700.000000	76.930	173.4814
5800.000000	76.355	174.3903
5900.000000	75.725	176.1681
6000.000000	75.082	179.4177
6080.000000	74.659	-176.5794
6150.000000	74.488	-172.2104
6220.000000	74.600	-167.7719
6300.000000	75.035	-163.9864
6400.000000	75.693	-162.5302
6500.000000	76.121	-163.8059
6600.000000	76.245	-165.7971
6700.000000	76.180	-167.2913
6800.000000	76.046	-168.0634
6900.000000	75.916	-168.2815
7000.000000	75.835	-168.1009
7100.000000	75.831	-167.7269
7200.000000	75.917	-167.4179
7300.000000	76.104	-167.3726
7400.000000	76.394	-167.8650
7500.000000	76.791	-169.1685
7620.000000	77.397	-172.3585
7750.000000	78.115	-178.9557
7880.000000	78.632	169.8468
8000.000000	78.575	155.5089
8120.000000	77.733	139.7755
8250.000000	75.930	125.1041
8380.000000	73.493	115.2028
8500.000000	71.013	110.0429
8620.000000	68.530	107.6539
8750.000000	65.932	107.1809
8850.000000	64.000	107.7861
9000.000000	61.179	109.7709
9120.000000	58.948	112.2098
9250.000000	56.535	115.3801
9380.000000	54.068	118.2857
9500.000000	51.622	118.9487
9620.000000	48.919	100.9359
9750.000000	45.585	-98.1332
9880.000000	41.691	-168.1592
10000.000000	38.124	-169.7622
10150.000000	38.181	-68.4404
10300.000000	41.457	-56.9961
10440.000000	43.982	1.4912
10600.000000	46.149	-29.5322
10750.000000	47.628	-27.7627
10900.000000	48.779	-24.4688
11060.000000	49.803	-20.5947
11200.000000	50.543	-17.5684
11380.000000	51.294	-14.0234
11500.000000	51.709	-11.5938
11720.000000	52.376	-7.3828
11800.000000	52.604	-5.8691
12060.000000	53.221	-0.7002
12200.000000	53.508	1.8496
12410.000000	53.922	5.4463
12500.000000	54.066	6.8271
12650.000000	54.209	8.8779
12800.000000	54.239	11.5410
13150.000000	54.719	22.5674
13200.000000	54.853	24.0391
13400.000000	55.409	29.2510
13600.000000	56.032	34.1152
13800.000000	56.806	38.6904
14000.000000	57.716	42.8398
14300.000000	59.386	48.2314
14500.000000	60.815	50.9043
14750.000000	63.059	51.8789
15000.000000	65.765	48.2002
15250.000000	68.533	35.7900
15500.000000	70.431	10.9766
15750.000000	70.537	-22.9443
16000.000000	68.649	-54.8428
16250.000000	65.230	-77.1084
16500.000000	60.948	-89.0449
16750.000000	56.361	-93.5225
17000.000000	51.927	-99.4033
17250.000000	47.825	178.4189
17500.000000	44.101	-13.9023
17750.000000	41.160	-90.1807
18000.000000	39.030	-133.1309
18250.000000	37.688	-75.6328
18500.000000	37.248	-39.6055
18750.000000	37.036	-13.6836
19000.000000	36.472	48.6094
19250.000000	36.227	-149.9219
19500.000000	36.330	-171.5312
19750.000000	36.386	-68.1016
20000.000000	36.249	-115.6250
