* Measurement data measured by REW V5.20.5
* Source: Input device not selected, no input selected, L, volume: no control
* Format: 128k Log Swept Sine, 1 sweep at -12.0 dBFS with no timing reference
* Dated: Aug 5, 2022 2:18:42 PM
* REW Settings:
*  C-weighting compensation: Off
*  Target level: 75.0 dB
* Note: 
* Measurement: ER4XR L Clear Small
* Smoothing: 1/12 octave
* Frequency Step: 1/48 octave
* Start Frequency: 20.300 Hz
*
* Freq(Hz)	SPL(dB)	Phase(degrees)
20.299999	88.638	-143.7164
20.600000	88.657	-143.9057
20.900000	88.703	-144.3810
21.200001	88.738	-144.9748
21.400000	88.746	-145.3984
21.799999	88.728	-146.1665
22.000000	88.708	-146.4562
22.400000	88.666	-146.8092
22.700001	88.655	-146.9283
23.000000	88.671	-147.0302
23.299999	88.710	-147.2156
23.600000	88.760	-147.5420
24.000000	88.820	-148.1677
24.299999	88.851	-148.6847
24.700001	88.880	-149.2955
25.000000	88.904	-149.6590
25.400000	88.954	-150.0721
25.799999	89.023	-150.5399
26.200001	89.093	-151.1526
26.500000	89.131	-151.6864
26.900000	89.153	-152.3861
27.200001	89.150	-152.8244
27.600000	89.136	-153.2364
28.000000	89.127	-153.4826
28.500000	89.134	-153.7086
29.000000	89.151	-153.9977
29.500000	89.157	-154.3594
30.000000	89.149	-154.7002
30.400000	89.141	-154.9206
30.700001	89.138	-155.0666
31.100000	89.141	-155.2724
31.500000	89.151	-155.5326
32.000000	89.164	-155.9541
32.500000	89.170	-156.4400
33.000000	89.170	-156.9177
33.500000	89.175	-157.3579
34.000000	89.188	-157.7866
34.500000	89.209	-158.2353
35.000000	89.229	-158.6957
35.500000	89.247	-159.1324
36.000000	89.265	-159.5305
36.500000	89.286	-159.9131
37.000000	89.305	-160.3075
37.500000	89.315	-160.7048
38.200001	89.313	-161.1896
38.700001	89.308	-161.4605
39.500000	89.310	-161.8536
40.000000	89.315	-162.1396
40.599998	89.316	-162.5359
41.200001	89.308	-162.9455
41.799999	89.296	-163.3190
42.500000	89.286	-163.6885
43.099998	89.287	-163.9808
43.700001	89.294	-164.2918
44.400002	89.301	-164.6765
45.000000	89.302	-164.9796
45.500000	89.301	-165.1929
46.200001	89.301	-165.4482
46.799999	89.301	-165.6571
47.500000	89.298	-165.9015
48.200001	89.291	-166.1416
48.700001	89.284	-166.3121
49.400002	89.273	-166.5513
50.000000	89.264	-166.7525
50.799999	89.257	-167.0175
51.500000	89.261	-167.2685
52.200001	89.273	-167.5589
53.000000	89.293	-167.9431
53.799999	89.314	-168.3610
54.500000	89.327	-168.7191
55.200001	89.336	-169.0395
56.000000	89.343	-169.3474
57.000000	89.346	-169.6664
58.000000	89.341	-169.9461
59.000000	89.327	-170.2115
60.000000	89.308	-170.4919
60.799999	89.289	-170.7411
61.500000	89.271	-170.9680
62.200001	89.253	-171.1893
63.000000	89.236	-171.4284
64.000000	89.224	-171.7137
65.000000	89.220	-171.9954
66.000000	89.219	-172.2712
67.000000	89.216	-172.5188
68.000000	89.212	-172.7327
69.000000	89.206	-172.9341
70.000000	89.197	-173.1357
71.000000	89.185	-173.3452
72.000000	89.174	-173.5688
73.000000	89.162	-173.8098
74.000000	89.148	-174.0607
75.000000	89.134	-174.2997
76.199997	89.119	-174.5758
77.500000	89.098	-174.8696
78.800003	89.072	-175.1072
80.000000	89.051	-175.2592
81.199997	89.039	-175.3883
82.500000	89.034	-175.5762
83.800003	89.023	-175.7944
85.000000	89.009	-175.9790
86.199997	88.995	-176.1440
87.500000	88.979	-176.3082
88.500000	88.967	-176.4319
90.000000	88.950	-176.6313
91.199997	88.935	-176.8094
92.500000	88.914	-177.0018
93.800003	88.892	-177.1757
95.000000	88.873	-177.3225
96.199997	88.856	-177.4688
97.500000	88.839	-177.6296
98.800003	88.822	-177.7829
100.000000	88.807	-177.9162
101.500000	88.787	-178.0766
103.000000	88.768	-178.2309
104.400002	88.751	-178.3718
106.000000	88.731	-178.5283
107.500000	88.713	-178.6648
109.000000	88.693	-178.7881
110.599998	88.670	-178.8961
112.000000	88.651	-178.9716
113.800003	88.630	-179.0674
115.000000	88.618	-179.1387
117.199997	88.595	-179.2688
118.000000	88.587	-179.3145
120.599998	88.555	-179.4789
122.000000	88.530	-179.5723
124.099998	88.483	-179.6861
125.000000	88.461	-179.7207
126.500000	88.429	-179.7652
128.000000	88.402	-179.7995
131.500000	88.369	-179.8149
132.000000	88.366	-179.8062
134.000000	88.356	-179.7527
136.000000	88.344	-179.7294
138.000000	88.324	-179.8077
140.000000	88.299	-179.9578
143.000000	88.271	179.8500
145.000000	88.255	179.7783
147.500000	88.223	179.7277
150.000000	88.183	179.6992
152.500000	88.151	179.6764
155.000000	88.127	179.6298
157.500000	88.101	179.5234
160.000000	88.069	179.3975
162.500000	88.039	179.3746
165.000000	88.016	179.4921
167.500000	87.995	179.6403
170.000000	87.967	179.7569
172.500000	87.936	179.8678
175.000000	87.903	179.9932
177.500000	87.865	-179.8928
180.000000	87.828	-179.8382
182.500000	87.805	-179.8714
185.000000	87.795	-179.9727
187.500000	87.783	179.9525
190.000000	87.764	179.9610
192.500000	87.742	-179.9888
195.000000	87.723	-179.9519
197.500000	87.710	-179.9398
200.000000	87.698	-179.9306
203.000000	87.677	-179.8741
206.000000	87.648	-179.7482
209.000000	87.614	-179.5941
212.000000	87.578	-179.4405
214.000000	87.556	-179.3433
218.000000	87.528	-179.1893
220.000000	87.519	-179.1353
224.000000	87.499	-179.0406
227.000000	87.478	-178.9537
230.000000	87.453	-178.8465
233.000000	87.427	-178.7184
236.000000	87.402	-178.5773
240.000000	87.368	-178.4144
243.000000	87.344	-178.3335
247.000000	87.314	-178.2401
250.000000	87.288	-178.1377
254.000000	87.252	-177.9716
258.000000	87.222	-177.8261
262.000000	87.204	-177.7247
265.000000	87.198	-177.6641
269.000000	87.194	-177.5473
272.000000	87.187	-177.4010
276.000000	87.164	-177.1333
280.000000	87.133	-176.8518
285.000000	87.095	-176.5529
290.000000	87.069	-176.2526
295.000000	87.049	-175.9892
300.000000	87.029	-175.8111
304.000000	87.011	-175.6670
307.000000	86.995	-175.5480
311.000000	86.972	-175.3961
315.000000	86.952	-175.2529
320.000000	86.934	-175.0380
325.000000	86.920	-174.7735
330.000000	86.909	-174.5264
335.000000	86.895	-174.2546
340.000000	86.879	-173.8669
345.000000	86.860	-173.4063
350.000000	86.833	-172.9964
355.000000	86.810	-172.6922
360.000000	86.804	-172.4418
365.000000	86.802	-172.1842
370.000000	86.794	-171.9212
375.000000	86.785	-171.6469
382.000000	86.775	-171.1975
387.000000	86.772	-170.9004
395.000000	86.771	-170.5472
400.000000	86.767	-170.3448
406.000000	86.764	-170.0089
412.000000	86.776	-169.6259
418.000000	86.792	-169.3117
425.000000	86.795	-168.9284
431.000000	86.797	-168.5915
437.000000	86.780	-168.3400
444.000000	86.740	-168.0446
450.000000	86.709	-167.8383
455.000000	86.689	-167.6950
462.000000	86.671	-167.4671
468.000000	86.662	-167.2264
475.000000	86.654	-166.8744
482.000000	86.653	-166.4913
487.000000	86.652	-166.2209
494.000000	86.649	-165.8401
500.000000	86.646	-165.5194
508.000000	86.641	-165.1102
515.000000	86.632	-164.7387
522.000000	86.619	-164.3424
530.000000	86.608	-163.8823
538.000000	86.603	-163.4285
545.000000	86.600	-163.0314
552.000000	86.596	-162.6406
560.000000	86.589	-162.1975
570.000000	86.581	-161.6276
580.000000	86.574	-161.0299
590.000000	86.567	-160.4080
600.000000	86.562	-159.7958
608.000000	86.562	-159.3169
615.000000	86.565	-158.8966
622.000000	86.572	-158.4787
630.000000	86.582	-158.0133
640.000000	86.592	-157.4326
650.000000	86.596	-156.8182
660.000000	86.598	-156.1675
670.000000	86.601	-155.5010
680.000000	86.609	-154.8304
690.000000	86.621	-154.1595
700.000000	86.639	-153.4906
710.000000	86.661	-152.8219
720.000000	86.687	-152.1600
730.000000	86.714	-151.5138
740.000000	86.743	-150.8833
750.000000	86.771	-150.2601
762.000000	86.806	-149.5094
775.000000	86.845	-148.6781
788.000000	86.886	-147.8213
800.000000	86.929	-147.0078
812.000000	86.976	-146.1840
825.000000	87.031	-145.3059
838.000000	87.091	-144.4471
850.000000	87.150	-143.6600
862.000000	87.213	-142.8735
875.000000	87.286	-142.0214
885.000000	87.346	-141.3703
900.000000	87.440	-140.4225
912.000000	87.519	-139.6991
925.000000	87.609	-138.9368
938.000000	87.704	-138.1839
950.000000	87.794	-137.5029
962.000000	87.887	-136.8443
975.000000	87.991	-136.1635
988.000000	88.099	-135.5186
1000.000000	88.201	-134.9541
1015.000000	88.331	-134.2874
1030.000000	88.465	-133.6591
1044.000000	88.593	-133.1097
1060.000000	88.739	-132.5371
1075.000000	88.874	-132.0587
1090.000000	89.008	-131.6358
1106.000000	89.150	-131.2445
1120.000000	89.275	-130.9517
1138.000000	89.434	-130.6431
1150.000000	89.538	-130.4768
1172.000000	89.727	-130.2423
1180.000000	89.795	-130.1779
1206.000000	90.015	-130.0372
1220.000000	90.135	-129.9997
1241.000000	90.314	-129.9849
1250.000000	90.390	-129.9914
1265.000000	90.514	-130.0175
1280.000000	90.636	-130.0620
1315.000000	90.906	-130.2264
1320.000000	90.943	-130.2549
1340.000000	91.087	-130.3767
1360.000000	91.228	-130.5040
1380.000000	91.368	-130.6284
1400.000000	91.505	-130.7472
1430.000000	91.707	-130.9194
1450.000000	91.838	-131.0307
1475.000000	91.998	-131.1666
1500.000000	92.154	-131.3030
1525.000000	92.303	-131.4411
1550.000000	92.444	-131.5790
1575.000000	92.578	-131.7125
1600.000000	92.709	-131.8436
1625.000000	92.840	-131.9759
1650.000000	92.972	-132.1115
1675.000000	93.106	-132.2516
1700.000000	93.240	-132.4003
1725.000000	93.376	-132.5620
1750.000000	93.514	-132.7381
1775.000000	93.653	-132.9272
1800.000000	93.793	-133.1320
1825.000000	93.933	-133.3579
1850.000000	94.074	-133.6067
1875.000000	94.215	-133.8793
1900.000000	94.357	-134.1774
1925.000000	94.498	-134.5019
1950.000000	94.638	-134.8529
1975.000000	94.778	-135.2321
2000.000000	94.918	-135.6416
2030.000000	95.084	-136.1745
2060.000000	95.250	-136.7554
2090.000000	95.412	-137.3888
2120.000000	95.571	-138.0768
2140.000000	95.675	-138.5657
2180.000000	95.878	-139.6165
2200.000000	95.976	-140.1793
2240.000000	96.164	-141.3790
2270.000000	96.296	-142.3393
2300.000000	96.422	-143.3466
2330.000000	96.539	-144.3968
2360.000000	96.649	-145.4868
2400.000000	96.784	-146.9998
2430.000000	96.876	-148.1807
2470.000000	96.985	-149.8190
2500.000000	97.054	-151.0919
2540.000000	97.128	-152.8334
2580.000000	97.180	-154.6007
2620.000000	97.210	-156.3671
2650.000000	97.218	-157.6792
2690.000000	97.213	-159.4026
2720.000000	97.198	-160.6722
2760.000000	97.164	-162.3327
2800.000000	97.114	-163.9536
2850.000000	97.032	-165.9174
2900.000000	96.926	-167.7988
2950.000000	96.799	-169.5798
3000.000000	96.652	-171.2422
3040.000000	96.522	-172.4788
3070.000000	96.420	-173.3495
3110.000000	96.276	-174.4320
3150.000000	96.127	-175.4225
3200.000000	95.934	-176.5291
3250.000000	95.736	-177.4921
3300.000000	95.536	-178.3150
3350.000000	95.335	-178.9984
3400.000000	95.137	-179.5433
3450.000000	94.944	-179.9548
3500.000000	94.759	179.7609
3550.000000	94.586	179.5938
3600.000000	94.428	179.5236
3650.000000	94.286	179.5211
3700.000000	94.163	179.5524
3750.000000	94.059	179.5819
3820.000000	93.939	179.5607
3870.000000	93.868	179.4756
3950.000000	93.764	179.2183
4000.000000	93.700	179.0031
4060.000000	93.621	178.7239
4120.000000	93.539	178.4487
4180.000000	93.458	178.1859
4250.000000	93.369	177.8794
4310.000000	93.298	177.5955
4370.000000	93.231	177.2778
4440.000000	93.156	176.8569
4500.000000	93.090	176.4485
4550.000000	93.035	176.0726
4620.000000	92.953	175.4940
4680.000000	92.879	174.9536
4750.000000	92.784	174.2751
4820.000000	92.677	173.5505
4870.000000	92.590	173.0099
4940.000000	92.455	172.2313
5000.000000	92.327	171.5521
5080.000000	92.140	170.6443
5150.000000	91.963	169.8611
5220.000000	91.772	169.0994
5300.000000	91.539	168.2685
5380.000000	91.287	167.4928
5450.000000	91.051	166.8680
5520.000000	90.800	166.3022
5600.000000	90.499	165.7404
5700.000000	90.101	165.1853
5800.000000	89.685	164.8161
5900.000000	89.256	164.6575
6000.000000	88.818	164.7332
6080.000000	88.466	164.9761
6150.000000	88.162	165.3243
6220.000000	87.863	165.7931
6300.000000	87.534	166.4597
6400.000000	87.145	167.4465
6500.000000	86.785	168.5395
6600.000000	86.452	169.6696
6700.000000	86.140	170.7881
6800.000000	85.841	171.8863
6900.000000	85.548	172.9991
7000.000000	85.259	174.1781
7100.000000	84.976	175.4649
7200.000000	84.702	176.8720
7300.000000	84.440	178.3846
7400.000000	84.196	179.9891
7500.000000	83.968	-178.3222
7620.000000	83.718	-176.2071
7750.000000	83.472	-173.8441
7880.000000	83.253	-171.4412
8000.000000	83.080	-169.2084
8120.000000	82.937	-166.9732
8250.000000	82.820	-164.5736
8380.000000	82.741	-162.2243
8500.000000	82.705	-160.1167
8620.000000	82.704	-158.0887
8750.000000	82.742	-156.0093
8850.000000	82.799	-154.5159
9000.000000	82.933	-152.5026
9120.000000	83.082	-151.1326
9250.000000	83.278	-149.9273
9380.000000	83.506	-149.0370
9500.000000	83.741	-148.5103
9620.000000	84.001	-148.2718
9750.000000	84.315	-148.3442
9880.000000	84.667	-148.8036
10000.000000	85.025	-149.6522
10150.000000	85.506	-151.4240
10300.000000	86.006	-154.1395
10440.000000	86.469	-157.6717
10600.000000	86.961	-163.0736
10750.000000	87.340	-169.6360
10900.000000	87.581	-177.7588
11060.000000	87.611	171.9344
11200.000000	87.381	161.8684
11380.000000	86.663	148.5012
11500.000000	85.902	140.0967
11720.000000	83.950	127.5553
11800.000000	83.085	124.2460
12060.000000	79.864	118.7817
12200.000000	77.972	119.1710
12410.000000	75.108	123.7294
12500.000000	73.921	126.9742
12650.000000	72.073	133.7921
12800.000000	70.477	141.9271
13150.000000	68.200	162.6505
13200.000000	68.053	165.4992
13400.000000	67.826	176.0245
13600.000000	68.034	-175.0850
13800.000000	68.530	-167.7955
14000.000000	69.231	-161.9283
14300.000000	70.587	-155.5087
14500.000000	71.695	-152.8069
14750.000000	73.329	-151.5557
15000.000000	75.180	-153.5251
15250.000000	77.058	-160.1237
15500.000000	78.660	-172.8834
15750.000000	79.651	167.7747
16000.000000	79.780	143.9736
16250.000000	78.981	119.8718
16500.000000	77.374	99.0151
16750.000000	75.162	82.7223
17000.000000	72.536	70.5132
17250.000000	69.642	60.3912
17500.000000	66.568	46.3638
17750.000000	63.377	9.0238
18000.000000	60.134	-109.9102
18250.000000	56.900	-98.3655
18500.000000	53.746	107.6753
18750.000000	50.801	70.4543
19000.000000	48.244	54.9985
19250.000000	46.245	-143.2148
19500.000000	44.902	-54.0508
19750.000000	44.169	-90.1094
