* Measurement data measured by REW V5.20.5
* Source: Input device not selected, no input selected, L, volume: no control
* Format: 128k Log Swept Sine, 1 sweep at -12.0 dBFS with no timing reference
* Dated: Aug 5, 2022 2:29:50 PM
* REW Settings:
*  C-weighting compensation: Off
*  Target level: 75.0 dB
* Note: 
* Measurement: ER4XR R Foam
* Smoothing: 1/12 octave
* Frequency Step: 1/48 octave
* Start Frequency: 20.300 Hz
*
* Freq(Hz)	SPL(dB)	Phase(degrees)
20.299999	88.185	-142.0723
20.600000	88.191	-142.1974
20.900000	88.208	-142.4917
21.200001	88.226	-142.8064
21.400000	88.238	-143.0089
21.799999	88.263	-143.4031
22.000000	88.277	-143.6058
22.400000	88.306	-144.0512
22.700001	88.328	-144.4381
23.000000	88.348	-144.8708
23.299999	88.362	-145.3372
23.600000	88.373	-145.8172
24.000000	88.381	-146.4428
24.299999	88.388	-146.8845
24.700001	88.399	-147.4322
25.000000	88.413	-147.8214
25.400000	88.437	-148.3306
25.799999	88.466	-148.8450
26.200001	88.494	-149.3665
26.500000	88.513	-149.7545
26.900000	88.533	-150.2501
27.200001	88.543	-150.5947
27.600000	88.555	-151.0098
28.000000	88.567	-151.3785
28.500000	88.585	-151.8010
29.000000	88.605	-152.2212
29.500000	88.624	-152.6604
30.000000	88.638	-153.1131
30.400000	88.646	-153.4758
30.700001	88.651	-153.7463
31.100000	88.657	-154.1075
31.500000	88.662	-154.4730
32.000000	88.666	-154.9350
32.500000	88.669	-155.3917
33.000000	88.673	-155.8313
33.500000	88.681	-156.2556
34.000000	88.694	-156.6768
34.500000	88.710	-157.1034
35.000000	88.725	-157.5308
35.500000	88.739	-157.9464
36.000000	88.751	-158.3394
36.500000	88.760	-158.7060
37.000000	88.768	-159.0456
37.500000	88.774	-159.3578
38.200001	88.782	-159.7532
38.700001	88.789	-160.0210
39.500000	88.803	-160.4735
40.000000	88.809	-160.7838
40.599998	88.813	-161.1680
41.200001	88.813	-161.5420
41.799999	88.813	-161.9015
42.500000	88.814	-162.3134
43.099998	88.815	-162.6584
43.700001	88.817	-162.9895
44.400002	88.821	-163.3670
45.000000	88.823	-163.6902
45.500000	88.822	-163.9503
46.200001	88.819	-164.2813
46.799999	88.818	-164.5374
47.500000	88.820	-164.8306
48.200001	88.824	-165.1372
48.700001	88.826	-165.3654
49.400002	88.827	-165.6923
50.000000	88.825	-165.9675
50.799999	88.820	-166.2987
51.500000	88.819	-166.5507
52.200001	88.823	-166.7955
53.000000	88.831	-167.1006
53.799999	88.834	-167.4274
54.500000	88.831	-167.7058
55.200001	88.824	-167.9618
56.000000	88.814	-168.2263
57.000000	88.801	-168.5280
58.000000	88.791	-168.8202
59.000000	88.785	-169.1332
60.000000	88.778	-169.4690
60.799999	88.771	-169.7379
61.500000	88.766	-169.9673
62.200001	88.761	-170.1915
63.000000	88.755	-170.4436
64.000000	88.747	-170.7537
65.000000	88.737	-171.0488
66.000000	88.725	-171.3176
67.000000	88.713	-171.5602
68.000000	88.702	-171.7821
69.000000	88.694	-171.9897
70.000000	88.688	-172.1988
71.000000	88.682	-172.4232
72.000000	88.674	-172.6564
73.000000	88.664	-172.8883
74.000000	88.651	-173.1144
75.000000	88.637	-173.3269
76.199997	88.621	-173.5592
77.500000	88.606	-173.7939
78.800003	88.593	-174.0339
80.000000	88.578	-174.2642
81.199997	88.561	-174.4843
82.500000	88.541	-174.7034
83.800003	88.522	-174.9148
85.000000	88.506	-175.1105
86.199997	88.491	-175.3060
87.500000	88.475	-175.5149
88.500000	88.461	-175.6682
90.000000	88.440	-175.8781
91.199997	88.422	-176.0297
92.500000	88.403	-176.1824
93.800003	88.385	-176.3287
95.000000	88.368	-176.4651
96.199997	88.351	-176.6052
97.500000	88.332	-176.7539
98.800003	88.313	-176.8930
100.000000	88.296	-177.0118
101.500000	88.278	-177.1470
103.000000	88.263	-177.2700
104.400002	88.249	-177.3773
106.000000	88.233	-177.4911
107.500000	88.214	-177.5911
109.000000	88.193	-177.6856
110.599998	88.169	-177.7817
112.000000	88.149	-177.8651
113.800003	88.124	-177.9699
115.000000	88.107	-178.0360
117.199997	88.074	-178.1437
118.000000	88.061	-178.1779
120.599998	88.024	-178.2821
122.000000	88.006	-178.3408
124.099998	87.981	-178.4304
125.000000	87.971	-178.4675
126.500000	87.953	-178.5282
128.000000	87.935	-178.5869
131.500000	87.894	-178.7149
132.000000	87.888	-178.7329
134.000000	87.864	-178.8052
136.000000	87.838	-178.8747
138.000000	87.811	-178.9324
140.000000	87.785	-178.9743
143.000000	87.750	-179.0115
145.000000	87.728	-179.0280
147.500000	87.701	-179.0484
150.000000	87.676	-179.0708
152.500000	87.651	-179.0956
155.000000	87.623	-179.1086
157.500000	87.592	-179.1001
160.000000	87.560	-179.0845
162.500000	87.529	-179.0753
165.000000	87.502	-179.0676
167.500000	87.476	-179.0464
170.000000	87.452	-179.0073
172.500000	87.429	-178.9570
175.000000	87.408	-178.9009
177.500000	87.389	-178.8357
180.000000	87.371	-178.7661
182.500000	87.353	-178.7031
185.000000	87.336	-178.6470
187.500000	87.317	-178.5872
190.000000	87.295	-178.5133
192.500000	87.272	-178.4314
195.000000	87.248	-178.3539
197.500000	87.225	-178.2819
200.000000	87.203	-178.2086
203.000000	87.177	-178.1139
206.000000	87.152	-178.0157
209.000000	87.127	-177.9146
212.000000	87.103	-177.8096
214.000000	87.087	-177.7382
218.000000	87.058	-177.5897
220.000000	87.044	-177.5117
224.000000	87.013	-177.3551
227.000000	86.989	-177.2418
230.000000	86.964	-177.1281
233.000000	86.937	-177.0109
236.000000	86.912	-176.8927
240.000000	86.884	-176.7356
243.000000	86.866	-176.6113
247.000000	86.842	-176.4263
250.000000	86.823	-176.2751
254.000000	86.799	-176.0661
258.000000	86.777	-175.8580
262.000000	86.757	-175.6608
265.000000	86.744	-175.5215
269.000000	86.726	-175.3412
272.000000	86.712	-175.2063
276.000000	86.692	-175.0215
280.000000	86.673	-174.8318
285.000000	86.651	-174.5961
290.000000	86.631	-174.3488
295.000000	86.612	-174.0864
300.000000	86.595	-173.8248
304.000000	86.581	-173.6161
307.000000	86.571	-173.4583
311.000000	86.556	-173.2452
315.000000	86.541	-173.0289
320.000000	86.525	-172.7568
325.000000	86.510	-172.4867
330.000000	86.495	-172.2185
335.000000	86.480	-171.9608
340.000000	86.465	-171.7149
345.000000	86.451	-171.4669
350.000000	86.437	-171.2050
355.000000	86.422	-170.9252
360.000000	86.406	-170.6357
365.000000	86.390	-170.3514
370.000000	86.374	-170.0756
375.000000	86.361	-169.8001
382.000000	86.346	-169.4071
387.000000	86.338	-169.1229
395.000000	86.326	-168.6719
400.000000	86.316	-168.3953
406.000000	86.304	-168.0619
412.000000	86.292	-167.7192
418.000000	86.281	-167.3694
425.000000	86.267	-166.9610
431.000000	86.256	-166.6130
437.000000	86.246	-166.2662
444.000000	86.237	-165.8593
450.000000	86.230	-165.5092
455.000000	86.224	-165.2175
462.000000	86.218	-164.8095
468.000000	86.213	-164.4585
475.000000	86.210	-164.0427
482.000000	86.207	-163.6218
487.000000	86.205	-163.3223
494.000000	86.202	-162.9070
500.000000	86.200	-162.5526
508.000000	86.198	-162.0790
515.000000	86.195	-161.6606
522.000000	86.194	-161.2365
530.000000	86.193	-160.7486
538.000000	86.192	-160.2598
545.000000	86.190	-159.8288
552.000000	86.188	-159.3931
560.000000	86.187	-158.8923
570.000000	86.188	-158.2709
580.000000	86.190	-157.6553
590.000000	86.193	-157.0342
600.000000	86.197	-156.4014
608.000000	86.201	-155.8887
615.000000	86.204	-155.4356
622.000000	86.209	-154.9794
630.000000	86.215	-154.4586
640.000000	86.224	-153.8064
650.000000	86.234	-153.1409
660.000000	86.246	-152.4695
670.000000	86.262	-151.8032
680.000000	86.279	-151.1359
690.000000	86.297	-150.4654
700.000000	86.316	-149.7883
710.000000	86.337	-149.0988
720.000000	86.361	-148.3990
730.000000	86.387	-147.6959
740.000000	86.414	-146.9944
750.000000	86.443	-146.2971
762.000000	86.481	-145.4642
775.000000	86.527	-144.5583
788.000000	86.575	-143.6473
800.000000	86.623	-142.8027
812.000000	86.675	-141.9590
825.000000	86.736	-141.0452
838.000000	86.800	-140.1365
850.000000	86.863	-139.3098
862.000000	86.929	-138.4925
875.000000	87.006	-137.6153
885.000000	87.067	-136.9475
900.000000	87.164	-135.9579
912.000000	87.245	-135.1797
925.000000	87.339	-134.3561
938.000000	87.438	-133.5590
950.000000	87.532	-132.8498
962.000000	87.629	-132.1661
975.000000	87.738	-131.4553
988.000000	87.850	-130.7764
1000.000000	87.957	-130.1749
1015.000000	88.093	-129.4576
1030.000000	88.232	-128.7902
1044.000000	88.362	-128.2167
1060.000000	88.510	-127.6148
1075.000000	88.646	-127.0998
1090.000000	88.780	-126.6334
1106.000000	88.921	-126.1898
1120.000000	89.044	-125.8475
1138.000000	89.203	-125.4663
1150.000000	89.309	-125.2456
1172.000000	89.499	-124.8979
1180.000000	89.568	-124.7883
1206.000000	89.791	-124.4970
1220.000000	89.913	-124.3791
1241.000000	90.098	-124.2462
1250.000000	90.177	-124.2025
1265.000000	90.306	-124.1423
1280.000000	90.434	-124.0951
1315.000000	90.719	-124.0269
1320.000000	90.759	-124.0215
1340.000000	90.916	-124.0104
1360.000000	91.071	-124.0142
1380.000000	91.226	-124.0314
1400.000000	91.379	-124.0572
1430.000000	91.604	-124.1030
1450.000000	91.750	-124.1357
1475.000000	91.929	-124.1801
1500.000000	92.101	-124.2316
1525.000000	92.267	-124.2895
1550.000000	92.425	-124.3533
1575.000000	92.577	-124.4253
1600.000000	92.727	-124.5068
1625.000000	92.876	-124.5998
1650.000000	93.024	-124.7054
1675.000000	93.172	-124.8246
1700.000000	93.322	-124.9596
1725.000000	93.473	-125.1125
1750.000000	93.625	-125.2845
1775.000000	93.778	-125.4781
1800.000000	93.932	-125.6952
1825.000000	94.086	-125.9363
1850.000000	94.239	-126.2045
1875.000000	94.391	-126.5047
1900.000000	94.542	-126.8388
1925.000000	94.691	-127.2073
1950.000000	94.838	-127.6113
1975.000000	94.983	-128.0528
2000.000000	95.125	-128.5324
2030.000000	95.292	-129.1549
2060.000000	95.454	-129.8250
2090.000000	95.610	-130.5414
2120.000000	95.760	-131.3040
2140.000000	95.856	-131.8376
2180.000000	96.037	-132.9606
2200.000000	96.122	-133.5471
2240.000000	96.281	-134.7645
2270.000000	96.391	-135.7148
2300.000000	96.492	-136.6943
2330.000000	96.584	-137.6994
2360.000000	96.667	-138.7267
2400.000000	96.764	-140.1257
2430.000000	96.825	-141.1924
2470.000000	96.892	-142.6266
2500.000000	96.932	-143.7035
2540.000000	96.968	-145.1324
2580.000000	96.986	-146.5421
2620.000000	96.986	-147.9176
2650.000000	96.976	-148.9174
2690.000000	96.950	-150.1999
2720.000000	96.921	-151.1205
2760.000000	96.871	-152.2877
2800.000000	96.810	-153.3767
2850.000000	96.719	-154.6140
2900.000000	96.619	-155.7039
2950.000000	96.513	-156.6493
3000.000000	96.407	-157.4592
3040.000000	96.325	-158.0180
3070.000000	96.266	-158.3916
3110.000000	96.192	-158.8387
3150.000000	96.123	-159.2371
3200.000000	96.044	-159.6797
3250.000000	95.974	-160.0750
3300.000000	95.911	-160.4354
3350.000000	95.855	-160.7720
3400.000000	95.807	-161.0934
3450.000000	95.766	-161.4076
3500.000000	95.731	-161.7219
3550.000000	95.702	-162.0434
3600.000000	95.678	-162.3773
3650.000000	95.659	-162.7291
3700.000000	95.644	-163.1052
3750.000000	95.632	-163.5099
3820.000000	95.622	-164.1306
3870.000000	95.619	-164.6184
3950.000000	95.619	-165.4887
4000.000000	95.620	-166.0950
4060.000000	95.618	-166.8907
4120.000000	95.612	-167.7632
4180.000000	95.598	-168.7137
4250.000000	95.571	-169.9212
4310.000000	95.534	-171.0378
4370.000000	95.483	-172.2218
4440.000000	95.400	-173.6742
4500.000000	95.308	-174.9636
4550.000000	95.216	-176.0547
4620.000000	95.059	-177.5816
4680.000000	94.898	-178.8657
4750.000000	94.680	179.6956
4820.000000	94.428	178.3564
4870.000000	94.227	177.4808
4940.000000	93.918	176.3939
5000.000000	93.630	175.6117
5080.000000	93.219	174.8130
5150.000000	92.839	174.3706
5220.000000	92.445	174.1941
5300.000000	91.986	174.3457
5380.000000	91.525	174.8942
5450.000000	91.129	175.7023
5520.000000	90.750	176.7946
5600.000000	90.351	178.3246
5700.000000	89.920	-179.5015
5800.000000	89.566	-177.2339
5900.000000	89.274	-175.0113
6000.000000	89.021	-172.8698
6080.000000	88.837	-171.1887
6150.000000	88.688	-169.7128
6220.000000	88.548	-168.2146
6300.000000	88.404	-166.4643
6400.000000	88.250	-164.2222
6500.000000	88.127	-161.9442
6600.000000	88.036	-159.6555
6700.000000	87.976	-157.3663
6800.000000	87.947	-155.0729
6900.000000	87.953	-152.7628
7000.000000	87.998	-150.4244
7100.000000	88.087	-148.0599
7200.000000	88.224	-145.6927
7300.000000	88.413	-143.3654
7400.000000	88.656	-141.1237
7500.000000	88.954	-139.0066
7620.000000	89.388	-136.6843
7750.000000	89.958	-134.5373
7880.000000	90.647	-132.9509
8000.000000	91.399	-132.2168
8120.000000	92.253	-132.4854
8250.000000	93.252	-134.3475
8380.000000	94.237	-138.3612
8500.000000	95.020	-144.3145
8620.000000	95.563	-152.3628
8750.000000	95.771	-162.6902
8850.000000	95.630	-170.8849
9000.000000	94.958	178.0983
9120.000000	94.111	171.3287
9250.000000	93.014	166.3368
9380.000000	91.854	163.5189
9500.000000	90.812	162.4371
9620.000000	89.853	162.4383
9750.000000	88.938	163.3251
9880.000000	88.170	164.8547
10000.000000	87.599	166.6292
10150.000000	87.071	169.0838
10300.000000	86.744	171.5563
10440.000000	86.617	173.6755
10600.000000	86.677	175.6247
10750.000000	86.930	176.6976
10900.000000	87.356	176.6432
11060.000000	87.947	174.7799
11200.000000	88.497	171.1161
11380.000000	89.070	163.1064
11500.000000	89.256	155.7912
11720.000000	88.976	140.0639
11800.000000	88.652	134.3502
12060.000000	86.866	119.1404
12200.000000	85.573	113.8914
12410.000000	83.460	109.6506
12500.000000	82.552	108.8933
12650.000000	81.096	108.6507
12800.000000	79.752	109.3264
13150.000000	77.138	112.8561
13200.000000	76.824	113.4782
13400.000000	75.711	116.0590
13600.000000	74.821	118.5834
13800.000000	74.141	120.8185
14000.000000	73.630	122.6755
14300.000000	73.127	125.0092
14500.000000	73.021	126.0981
14750.000000	73.186	125.7242
15000.000000	73.542	122.1320
15250.000000	73.851	114.4939
15500.000000	73.850	102.7952
15750.000000	73.317	88.4600
16000.000000	72.150	74.1313
16250.000000	70.396	62.2176
16500.000000	68.210	53.5873
16750.000000	65.780	47.4208
17000.000000	63.269	41.0355
17250.000000	60.772	26.9589
17500.000000	58.307	-17.6870
17750.000000	55.841	-158.2046
18000.000000	53.347	168.3202
18250.000000	50.900	-70.0747
18500.000000	48.653	44.2451
18750.000000	46.724	-147.8950
19000.000000	45.194	58.2041
19250.000000	44.124	-83.7227
19500.000000	43.481	103.5723
19750.000000	43.162	117.9453
