* Measurement data measured by REW V5.20.9
* Source: Mic in at rear panel (Pink)(Realtek(R) Audio), MICROPHONE (마스), L, volume: 0.500
* Format: 256k Log Swept Sine, 1 sweep at -12.0 dBFS with no timing reference
* Dated: 2022. 9. 25 오전 12:36:35
* REW Settings:
*  C-weighting compensation: Off
*  Target level: 75.0 dB
* Note: 
* Measurement: R
* Smoothing: 1/24 octave
* Frequency Step: 1/48 octave
* Start Frequency: 20.300 Hz
*
* Freq(Hz)	SPL(dB)	Phase(degrees)
20.299999	63.266	-154.9644
20.600000	63.281	-155.0901
20.900000	63.313	-155.3204
21.200001	63.345	-155.5619
21.400000	63.365	-155.7432
21.799999	63.400	-156.1724
22.000000	63.413	-156.4187
22.400000	63.427	-156.9432
22.700001	63.431	-157.3376
23.000000	63.431	-157.7175
23.299999	63.431	-158.0806
23.600000	63.432	-158.4314
24.000000	63.440	-158.8900
24.299999	63.450	-159.2340
24.700001	63.467	-159.6948
25.000000	63.481	-160.0383
25.400000	63.501	-160.4844
25.799999	63.520	-160.9055
26.200001	63.540	-161.2957
26.500000	63.555	-161.5713
26.900000	63.575	-161.9260
27.200001	63.587	-162.1897
27.600000	63.600	-162.5414
28.000000	63.607	-162.8817
28.500000	63.607	-163.2590
29.000000	63.606	-163.5625
29.500000	63.611	-163.8214
30.000000	63.626	-164.1037
30.400000	63.641	-164.3808
30.700001	63.652	-164.6212
31.100000	63.662	-164.9731
31.500000	63.667	-165.3432
32.000000	63.666	-165.8049
32.500000	63.658	-166.2370
33.000000	63.647	-166.6048
33.500000	63.643	-166.8898
34.000000	63.653	-167.1190
34.500000	63.675	-167.3633
35.000000	63.702	-167.6775
35.500000	63.722	-168.0546
36.000000	63.730	-168.4369
36.500000	63.730	-168.7802
37.000000	63.726	-169.0824
37.500000	63.718	-169.3556
38.200001	63.703	-169.6698
38.700001	63.697	-169.8401
39.500000	63.710	-170.1643
40.000000	63.721	-170.4765
40.599998	63.720	-170.9071
41.200001	63.709	-171.2733
41.799999	63.704	-171.5640
42.500000	63.711	-171.9103
43.099998	63.715	-172.2209
43.700001	63.718	-172.4840
44.400002	63.728	-172.7561
45.000000	63.738	-173.0236
45.500000	63.739	-173.2526
46.200001	63.733	-173.5128
46.799999	63.732	-173.6992
47.500000	63.737	-173.9707
48.200001	63.734	-174.2899
48.700001	63.728	-174.4981
49.400002	63.723	-174.7517
50.000000	63.726	-174.9788
50.799999	63.732	-175.3291
51.500000	63.733	-175.6452
52.200001	63.732	-175.9275
53.000000	63.730	-176.1911
53.799999	63.732	-176.4085
54.500000	63.736	-176.5950
55.200001	63.741	-176.8125
56.000000	63.737	-177.0973
57.000000	63.718	-177.4321
58.000000	63.694	-177.7259
59.000000	63.670	-177.9618
60.000000	63.667	-178.1932
60.799999	63.672	-178.5075
61.500000	63.666	-178.8239
62.200001	63.654	-179.0802
63.000000	63.643	-179.2981
64.000000	63.635	-179.5253
65.000000	63.632	-179.7289
66.000000	63.626	-179.9491
67.000000	63.610	179.8748
68.000000	63.600	179.7445
69.000000	63.597	179.5498
70.000000	63.590	179.2721
71.000000	63.576	178.9655
72.000000	63.558	178.6939
73.000000	63.545	178.4520
74.000000	63.535	178.2249
75.000000	63.526	178.0230
76.199997	63.517	177.7813
77.500000	63.497	177.5383
78.800003	63.471	177.3423
80.000000	63.451	177.1921
81.199997	63.441	176.9944
82.500000	63.425	176.7069
83.800003	63.409	176.4838
85.000000	63.404	176.2861
86.199997	63.396	176.0725
87.500000	63.379	175.8704
88.500000	63.361	175.7467
90.000000	63.340	175.6093
91.199997	63.329	175.4287
92.500000	63.309	175.2158
93.800003	63.293	175.0500
95.000000	63.285	174.8932
96.199997	63.273	174.7112
97.500000	63.251	174.5453
98.800003	63.227	174.4128
100.000000	63.207	174.2839
101.500000	63.187	174.0878
103.000000	63.169	173.8548
104.400002	63.154	173.6766
106.000000	63.144	173.5338
107.500000	63.135	173.4374
109.000000	63.123	173.3732
110.599998	63.106	173.2636
112.000000	63.082	173.1580
113.800003	63.055	173.0518
115.000000	63.043	172.9678
117.199997	63.028	172.7933
118.000000	63.023	172.7233
120.599998	62.997	172.4329
122.000000	62.972	172.3047
124.099998	62.935	172.1772
125.000000	62.922	172.1463
126.500000	62.909	172.0919
128.000000	62.900	171.9773
131.500000	62.852	171.7690
132.000000	62.846	171.7562
134.000000	62.830	171.6765
136.000000	62.811	171.5428
138.000000	62.788	171.4333
140.000000	62.769	171.3471
143.000000	62.739	171.2371
145.000000	62.718	171.1514
147.500000	62.684	171.0280
150.000000	62.651	170.9282
152.500000	62.626	170.8914
155.000000	62.609	170.8676
157.500000	62.590	170.8428
160.000000	62.573	170.8279
162.500000	62.557	170.7831
165.000000	62.534	170.6978
167.500000	62.509	170.6165
170.000000	62.488	170.5492
172.500000	62.466	170.4858
175.000000	62.439	170.3988
177.500000	62.410	170.3528
180.000000	62.387	170.3693
182.500000	62.365	170.4100
185.000000	62.343	170.4073
187.500000	62.322	170.3068
190.000000	62.299	170.2141
192.500000	62.279	170.2060
195.000000	62.256	170.2463
197.500000	62.235	170.2542
200.000000	62.215	170.2231
203.000000	62.201	170.2034
206.000000	62.190	170.2289
209.000000	62.177	170.2715
212.000000	62.159	170.2962
214.000000	62.149	170.3272
218.000000	62.132	170.4131
220.000000	62.121	170.4370
224.000000	62.090	170.3784
227.000000	62.068	170.2935
230.000000	62.048	170.2758
233.000000	62.026	170.3321
236.000000	62.004	170.4144
240.000000	61.982	170.4918
243.000000	61.968	170.5276
247.000000	61.956	170.5794
250.000000	61.945	170.6297
254.000000	61.906	170.7007
258.000000	61.871	170.7538
262.000000	61.858	170.8036
265.000000	61.844	170.9039
269.000000	61.823	171.0294
272.000000	61.810	171.0705
276.000000	61.792	171.1337
280.000000	61.774	171.1929
285.000000	61.759	171.2784
290.000000	61.752	171.3895
295.000000	61.740	171.4284
300.000000	61.719	171.4578
304.000000	61.698	171.5618
307.000000	61.686	171.6736
311.000000	61.677	171.7671
315.000000	61.671	171.8159
320.000000	61.662	171.8893
325.000000	61.651	171.9799
330.000000	61.641	172.1410
335.000000	61.629	172.2744
340.000000	61.625	172.4066
345.000000	61.625	172.5565
350.000000	61.615	172.7458
355.000000	61.593	172.9219
360.000000	61.568	173.0217
365.000000	61.553	173.1032
370.000000	61.548	173.2625
375.000000	61.542	173.4316
382.000000	61.527	173.6209
387.000000	61.508	173.7110
395.000000	61.483	173.8806
400.000000	61.472	174.0409
406.000000	61.461	174.2384
412.000000	61.441	174.4328
418.000000	61.422	174.6187
425.000000	61.406	174.7907
431.000000	61.394	174.8849
437.000000	61.391	175.0619
444.000000	61.387	175.3670
450.000000	61.384	175.5539
455.000000	61.378	175.6767
462.000000	61.368	175.8903
468.000000	61.363	176.1191
475.000000	61.357	176.3895
482.000000	61.348	176.6093
487.000000	61.342	176.7412
494.000000	61.339	176.9467
500.000000	61.336	177.1821
508.000000	61.333	177.4996
515.000000	61.333	177.7326
522.000000	61.328	177.9731
530.000000	61.320	178.2562
538.000000	61.316	178.5369
545.000000	61.312	178.8182
552.000000	61.308	179.0810
560.000000	61.313	179.3834
570.000000	61.320	179.7573
580.000000	61.313	-179.8599
590.000000	61.309	-179.4245
600.000000	61.315	-178.9616
608.000000	61.320	-178.6042
615.000000	61.323	-178.3494
622.000000	61.329	-178.0883
630.000000	61.329	-177.7458
640.000000	61.335	-177.2989
650.000000	61.346	-176.8471
660.000000	61.349	-176.4085
670.000000	61.359	-176.0015
680.000000	61.382	-175.5367
690.000000	61.393	-175.0401
700.000000	61.397	-174.5368
710.000000	61.415	-174.0522
720.000000	61.444	-173.5514
730.000000	61.468	-173.0388
740.000000	61.485	-172.6022
750.000000	61.505	-172.1355
762.000000	61.541	-171.4866
775.000000	61.579	-170.8274
788.000000	61.620	-170.1514
800.000000	61.665	-169.4942
812.000000	61.713	-168.8387
825.000000	61.768	-168.1481
838.000000	61.829	-167.4871
850.000000	61.888	-166.9276
862.000000	61.956	-166.3480
875.000000	62.037	-165.6652
885.000000	62.102	-165.1642
900.000000	62.202	-164.4900
912.000000	62.285	-163.9527
925.000000	62.383	-163.3577
938.000000	62.488	-162.8179
950.000000	62.588	-162.3575
962.000000	62.692	-161.8910
975.000000	62.809	-161.4391
988.000000	62.924	-161.1049
1000.000000	63.033	-160.8068
1015.000000	63.173	-160.3525
1030.000000	63.316	-159.9570
1044.000000	63.448	-159.6814
1060.000000	63.596	-159.4131
1075.000000	63.736	-159.2136
1090.000000	63.883	-159.0949
1106.000000	64.046	-159.0329
1120.000000	64.186	-159.0171
1138.000000	64.360	-159.0452
1150.000000	64.472	-159.0849
1172.000000	64.675	-159.1783
1180.000000	64.748	-159.2390
1206.000000	64.976	-159.4880
1220.000000	65.090	-159.6438
1241.000000	65.257	-159.8846
1250.000000	65.325	-159.9901
1265.000000	65.436	-160.1956
1280.000000	65.546	-160.4163
1315.000000	65.792	-160.8539
1320.000000	65.825	-160.9226
1340.000000	65.952	-161.2174
1360.000000	66.069	-161.5049
1380.000000	66.183	-161.7702
1400.000000	66.299	-162.0304
1430.000000	66.469	-162.4097
1450.000000	66.581	-162.6409
1475.000000	66.722	-162.9317
1500.000000	66.861	-163.2158
1525.000000	66.997	-163.4593
1550.000000	67.130	-163.6966
1575.000000	67.263	-163.9577
1600.000000	67.394	-164.2384
1625.000000	67.527	-164.5220
1650.000000	67.664	-164.7746
1675.000000	67.799	-165.0009
1700.000000	67.933	-165.2411
1725.000000	68.064	-165.4944
1750.000000	68.196	-165.7568
1775.000000	68.331	-166.0463
1800.000000	68.467	-166.3748
1825.000000	68.602	-166.7296
1850.000000	68.739	-167.0772
1875.000000	68.877	-167.4212
1900.000000	69.013	-167.7821
1925.000000	69.147	-168.1764
1950.000000	69.282	-168.6020
1975.000000	69.420	-169.0528
2000.000000	69.557	-169.5331
2030.000000	69.718	-170.1463
2060.000000	69.876	-170.8019
2090.000000	70.030	-171.4931
2120.000000	70.182	-172.2334
2140.000000	70.281	-172.7486
2180.000000	70.474	-173.8263
2200.000000	70.566	-174.3944
2240.000000	70.744	-175.5844
2270.000000	70.871	-176.5190
2300.000000	70.989	-177.4872
2330.000000	71.100	-178.4904
2360.000000	71.203	-179.5063
2400.000000	71.328	179.1068
2430.000000	71.411	178.0258
2470.000000	71.509	176.5642
2500.000000	71.574	175.4669
2540.000000	71.646	174.0033
2580.000000	71.702	172.5615
2620.000000	71.745	171.1453
2650.000000	71.768	170.0950
2690.000000	71.783	168.7116
2720.000000	71.784	167.7034
2760.000000	71.776	166.4153
2800.000000	71.760	165.1831
2850.000000	71.726	163.7132
2900.000000	71.677	162.3519
2950.000000	71.617	161.0927
3000.000000	71.551	159.9385
3040.000000	71.497	159.0810
3070.000000	71.456	158.4727
3110.000000	71.399	157.7106
3150.000000	71.342	157.0127
3200.000000	71.271	156.2229
3250.000000	71.201	155.5040
3300.000000	71.135	154.8507
3350.000000	71.073	154.2544
3400.000000	71.016	153.7024
3450.000000	70.968	153.1909
3500.000000	70.929	152.7154
3550.000000	70.895	152.2631
3600.000000	70.867	151.8311
3650.000000	70.844	151.3932
3700.000000	70.821	150.9469
3750.000000	70.800	150.5172
3820.000000	70.773	149.9213
3870.000000	70.754	149.4636
3950.000000	70.717	148.6941
4000.000000	70.695	148.1960
4060.000000	70.668	147.5637
4120.000000	70.636	146.8775
4180.000000	70.601	146.1374
4250.000000	70.549	145.2109
4310.000000	70.489	144.3566
4370.000000	70.411	143.4698
4440.000000	70.293	142.3873
4500.000000	70.173	141.4226
4550.000000	70.060	140.6113
4620.000000	69.881	139.4815
4680.000000	69.707	138.5375
4750.000000	69.479	137.4973
4820.000000	69.221	136.5534
4870.000000	69.022	135.9476
4940.000000	68.724	135.2160
5000.000000	68.450	134.7197
5080.000000	68.065	134.2640
5150.000000	67.717	134.0598
5220.000000	67.360	134.0628
5300.000000	66.943	134.3184
5380.000000	66.522	134.8536
5450.000000	66.159	135.5520
5520.000000	65.803	136.4329
5600.000000	65.412	137.6202
5700.000000	64.941	139.3695
5800.000000	64.495	141.3921
5900.000000	64.071	143.6729
6000.000000	63.677	146.2330
6080.000000	63.387	148.4810
6150.000000	63.151	150.5474
6220.000000	62.934	152.6978
6300.000000	62.710	155.2635
6400.000000	62.464	158.5874
6500.000000	62.253	162.0118
6600.000000	62.087	165.5515
6700.000000	61.962	169.2050
6800.000000	61.884	172.9414
6900.000000	61.863	176.7376
7000.000000	61.902	-179.4326
7100.000000	61.994	-175.5677
7200.000000	62.137	-171.7110
7300.000000	62.325	-167.9106
7400.000000	62.558	-164.1668
7500.000000	62.842	-160.4579
7620.000000	63.269	-156.1022
7750.000000	63.834	-151.5560
7880.000000	64.452	-147.2739
8000.000000	65.097	-143.6938
8120.000000	65.849	-140.6329
8250.000000	66.793	-138.1086
8380.000000	67.872	-136.7506
8500.000000	68.961	-136.9687
8620.000000	70.067	-139.0858
8750.000000	71.146	-144.0175
8850.000000	71.771	-149.7069
9000.000000	72.185	-160.2596
9120.000000	72.006	-168.7231
9250.000000	71.388	-176.1054
9380.000000	70.519	179.1825
9500.000000	69.663	177.1030
9620.000000	68.871	176.7116
9750.000000	68.162	177.5934
9880.000000	67.641	179.3113
10000.000000	67.335	-178.7695
10150.000000	67.186	-176.4230
10300.000000	67.280	-174.7027
10440.000000	67.555	-174.2383
10600.000000	68.008	-175.8407
10750.000000	68.418	179.8571
10900.000000	68.587	172.5949
11060.000000	68.245	162.6585
11200.000000	67.403	154.0890
11380.000000	65.675	146.0599
11500.000000	64.275	143.2642
11720.000000	61.591	142.9011
11800.000000	60.648	143.9635
12060.000000	57.852	150.3449
12200.000000	56.530	155.0469
12410.000000	54.774	163.0115
12500.000000	54.101	166.6500
12650.000000	53.064	172.9588
12800.000000	52.124	179.5287
13150.000000	50.363	-164.6510
13200.000000	50.154	-162.3763
13400.000000	49.425	-153.2598
13600.000000	48.889	-144.1716
13800.000000	48.555	-135.3709
14000.000000	48.377	-127.0254
14300.000000	48.396	-115.6571
14500.000000	48.643	-109.2685
14750.000000	49.164	-103.5746
15000.000000	49.772	-101.4765
15250.000000	50.217	-103.9551
15500.000000	50.109	-110.6519
15750.000000	49.196	-118.1930
16000.000000	47.552	-122.6581
16250.000000	45.486	-122.7480
16500.000000	43.360	-119.5398
16750.000000	41.358	-114.3138
17000.000000	39.504	-107.7802
17250.000000	37.817	-100.1545
17500.000000	36.243	-92.0870
17750.000000	34.691	-84.1858
18000.000000	33.106	-78.5765
18250.000000	31.478	-97.2413
18500.000000	29.814	111.5175
18750.000000	27.923	-104.9737
19000.000000	25.931	153.3230
19250.000000	24.399	159.4473
19500.000000	23.646	105.4658
19750.000000	23.695	-114.4492
20000.000000	24.488	-135.1211
