* Measurement data measured by REW V5.20.9
* Source: Mic in at rear panel (Pink)(Realtek(R) Audio), MICROPHONE (마스), L, volume: 0.500
* Format: 256k Log Swept Sine, 1 sweep at -12.0 dBFS with no timing reference
* Dated: 2022. 9. 25 오전 12:31:45
* REW Settings:
*  C-weighting compensation: Off
*  Target level: 75.0 dB
* Note: 
* Measurement: L
* Smoothing: 1/24 octave
* Frequency Step: 1/48 octave
* Start Frequency: 20.300 Hz
*
* Freq(Hz)	SPL(dB)	Phase(degrees)
20.299999	64.329	-156.9181
20.600000	64.342	-157.1056
20.900000	64.367	-157.4299
21.200001	64.385	-157.7120
21.400000	64.394	-157.8830
21.799999	64.409	-158.2216
22.000000	64.416	-158.4028
22.400000	64.426	-158.7956
22.700001	64.430	-159.1125
23.000000	64.431	-159.4386
23.299999	64.430	-159.7593
23.600000	64.430	-160.0659
24.000000	64.436	-160.4505
24.299999	64.447	-160.7328
24.700001	64.470	-161.1267
25.000000	64.491	-161.4498
25.400000	64.519	-161.9175
25.799999	64.542	-162.3973
26.200001	64.557	-162.8423
26.500000	64.565	-163.1328
26.900000	64.576	-163.4609
27.200001	64.586	-163.6781
27.600000	64.602	-163.9579
28.000000	64.620	-164.2498
28.500000	64.637	-164.6295
29.000000	64.648	-164.9941
29.500000	64.656	-165.3348
30.000000	64.666	-165.6821
30.400000	64.672	-165.9827
30.700001	64.674	-166.2186
31.100000	64.672	-166.5303
31.500000	64.668	-166.8241
32.000000	64.662	-167.1642
32.500000	64.661	-167.4941
33.000000	64.662	-167.8271
33.500000	64.668	-168.1540
34.000000	64.680	-168.4703
34.500000	64.695	-168.7979
35.000000	64.711	-169.1606
35.500000	64.722	-169.5487
36.000000	64.724	-169.9208
36.500000	64.723	-170.2456
37.000000	64.723	-170.5274
37.500000	64.725	-170.7951
38.200001	64.726	-171.1891
38.700001	64.723	-171.4852
39.500000	64.707	-171.9291
40.000000	64.697	-172.1567
40.599998	64.692	-172.3926
41.200001	64.698	-172.6580
41.799999	64.706	-172.9935
42.500000	64.706	-173.4040
43.099998	64.705	-173.6890
43.700001	64.712	-173.9371
44.400002	64.727	-174.2649
45.000000	64.732	-174.5674
45.500000	64.732	-174.7823
46.200001	64.733	-175.0166
46.799999	64.741	-175.2147
47.500000	64.747	-175.4830
48.200001	64.746	-175.7416
48.700001	64.743	-175.8985
49.400002	64.744	-176.0982
50.000000	64.747	-176.2790
50.799999	64.753	-176.5616
51.500000	64.752	-176.8465
52.200001	64.744	-177.1152
53.000000	64.735	-177.3470
53.799999	64.737	-177.5692
54.500000	64.739	-177.8235
55.200001	64.733	-178.0953
56.000000	64.723	-178.3788
57.000000	64.708	-178.7378
58.000000	64.684	-179.0847
59.000000	64.657	-179.3624
60.000000	64.639	-179.5738
60.799999	64.641	-179.7692
61.500000	64.647	179.9674
62.200001	64.644	179.6562
63.000000	64.630	179.3660
64.000000	64.619	179.1149
65.000000	64.616	178.8486
66.000000	64.605	178.6060
67.000000	64.594	178.4331
68.000000	64.586	178.2629
69.000000	64.578	178.0639
70.000000	64.568	177.8316
71.000000	64.557	177.5740
72.000000	64.542	177.2914
73.000000	64.522	177.0324
74.000000	64.505	176.8477
75.000000	64.497	176.6797
76.199997	64.489	176.4754
77.500000	64.482	176.2685
78.800003	64.472	176.0078
80.000000	64.450	175.7453
81.199997	64.422	175.5137
82.500000	64.392	175.2947
83.800003	64.374	175.0960
85.000000	64.365	174.8460
86.199997	64.351	174.5963
87.500000	64.337	174.3813
88.500000	64.327	174.2176
90.000000	64.304	174.0443
91.199997	64.293	173.9684
92.500000	64.287	173.8214
93.800003	64.273	173.5984
95.000000	64.252	173.3973
96.199997	64.232	173.2039
97.500000	64.210	172.9871
98.800003	64.188	172.7911
100.000000	64.169	172.6502
101.500000	64.153	172.5261
103.000000	64.140	172.3784
104.400002	64.119	172.2406
106.000000	64.094	172.1466
107.500000	64.078	172.0258
109.000000	64.061	171.8484
110.599998	64.039	171.6558
112.000000	64.019	171.4918
113.800003	63.993	171.3191
115.000000	63.979	171.2255
117.199997	63.954	171.0101
118.000000	63.941	170.9321
120.599998	63.906	170.7679
122.000000	63.895	170.6530
124.099998	63.878	170.4733
125.000000	63.872	170.4081
126.500000	63.863	170.3036
128.000000	63.853	170.2022
131.500000	63.804	170.0047
132.000000	63.796	169.9856
134.000000	63.762	169.9072
136.000000	63.735	169.8241
138.000000	63.718	169.7188
140.000000	63.703	169.6081
143.000000	63.671	169.4674
145.000000	63.640	169.3589
147.500000	63.598	169.2419
150.000000	63.573	169.1332
152.500000	63.551	169.0271
155.000000	63.524	169.0018
157.500000	63.498	168.9784
160.000000	63.469	168.8736
162.500000	63.445	168.7909
165.000000	63.437	168.7276
167.500000	63.423	168.6502
170.000000	63.394	168.5705
172.500000	63.364	168.5216
175.000000	63.341	168.5150
177.500000	63.315	168.4731
180.000000	63.277	168.4036
182.500000	63.250	168.3779
185.000000	63.238	168.3511
187.500000	63.220	168.3068
190.000000	63.194	168.2478
192.500000	63.171	168.1915
195.000000	63.154	168.1682
197.500000	63.140	168.1502
200.000000	63.122	168.1161
203.000000	63.100	168.0919
206.000000	63.080	168.0972
209.000000	63.059	168.1030
212.000000	63.037	168.1275
214.000000	63.024	168.1498
218.000000	62.993	168.1239
220.000000	62.975	168.0905
224.000000	62.944	168.0585
227.000000	62.928	168.0763
230.000000	62.912	168.1327
233.000000	62.896	168.1920
236.000000	62.881	168.2210
240.000000	62.861	168.2779
243.000000	62.842	168.3071
247.000000	62.815	168.3019
250.000000	62.796	168.3236
254.000000	62.765	168.3369
258.000000	62.730	168.3378
262.000000	62.710	168.4210
265.000000	62.699	168.4785
269.000000	62.682	168.5288
272.000000	62.671	168.5847
276.000000	62.654	168.6576
280.000000	62.632	168.6939
285.000000	62.611	168.7500
290.000000	62.594	168.7964
295.000000	62.575	168.8475
300.000000	62.559	168.9688
304.000000	62.542	169.0490
307.000000	62.526	169.1008
311.000000	62.509	169.1805
315.000000	62.494	169.2335
320.000000	62.481	169.2950
325.000000	62.476	169.4002
330.000000	62.470	169.5060
335.000000	62.456	169.5939
340.000000	62.442	169.6698
345.000000	62.423	169.7572
350.000000	62.399	169.8657
355.000000	62.378	169.9860
360.000000	62.362	170.0879
365.000000	62.349	170.2209
370.000000	62.331	170.3536
375.000000	62.313	170.4598
382.000000	62.300	170.6403
387.000000	62.291	170.8193
395.000000	62.257	171.0249
400.000000	62.234	171.1441
406.000000	62.211	171.3265
412.000000	62.192	171.4649
418.000000	62.171	171.6129
425.000000	62.151	171.7974
431.000000	62.138	171.9877
437.000000	62.127	172.1993
444.000000	62.109	172.4516
450.000000	62.100	172.6623
455.000000	62.098	172.8496
462.000000	62.099	173.1251
468.000000	62.099	173.3436
475.000000	62.091	173.5737
482.000000	62.081	173.7969
487.000000	62.080	173.9537
494.000000	62.085	174.1645
500.000000	62.096	174.3542
508.000000	62.110	174.6249
515.000000	62.111	174.8205
522.000000	62.108	174.9957
530.000000	62.102	175.2190
538.000000	62.096	175.4456
545.000000	62.090	175.6434
552.000000	62.088	175.8487
560.000000	62.083	176.0637
570.000000	62.072	176.3229
580.000000	62.071	176.6835
590.000000	62.072	177.0224
600.000000	62.061	177.3594
608.000000	62.058	177.6689
615.000000	62.062	177.9490
622.000000	62.069	178.2220
630.000000	62.071	178.5469
640.000000	62.068	179.0071
650.000000	62.066	179.4586
660.000000	62.067	179.8542
670.000000	62.079	-179.7356
680.000000	62.090	-179.2995
690.000000	62.096	-178.8370
700.000000	62.106	-178.3449
710.000000	62.120	-177.8654
720.000000	62.132	-177.3856
730.000000	62.145	-176.9365
740.000000	62.160	-176.4832
750.000000	62.185	-175.9762
762.000000	62.218	-175.3135
775.000000	62.249	-174.6160
788.000000	62.288	-173.9759
800.000000	62.329	-173.4237
812.000000	62.379	-172.7817
825.000000	62.433	-172.0335
838.000000	62.493	-171.3648
850.000000	62.568	-170.7888
862.000000	62.642	-170.2187
875.000000	62.715	-169.5759
885.000000	62.779	-169.0635
900.000000	62.890	-168.3343
912.000000	62.981	-167.8076
925.000000	63.081	-167.2928
938.000000	63.188	-166.7671
950.000000	63.293	-166.2899
962.000000	63.400	-165.8515
975.000000	63.516	-165.3929
988.000000	63.630	-164.9332
1000.000000	63.743	-164.5619
1015.000000	63.899	-164.2681
1030.000000	64.055	-164.0270
1044.000000	64.195	-163.8083
1060.000000	64.356	-163.6113
1075.000000	64.507	-163.4999
1090.000000	64.657	-163.4372
1106.000000	64.828	-163.3909
1120.000000	64.978	-163.4055
1138.000000	65.170	-163.4758
1150.000000	65.297	-163.5580
1172.000000	65.515	-163.8171
1180.000000	65.591	-163.9312
1206.000000	65.837	-164.3353
1220.000000	65.965	-164.5859
1241.000000	66.143	-164.9841
1250.000000	66.217	-165.1671
1265.000000	66.338	-165.4912
1280.000000	66.457	-165.8101
1315.000000	66.715	-166.5797
1320.000000	66.749	-166.6971
1340.000000	66.881	-167.1492
1360.000000	67.001	-167.5931
1380.000000	67.116	-168.0280
1400.000000	67.234	-168.4546
1430.000000	67.411	-169.0972
1450.000000	67.525	-169.4972
1475.000000	67.663	-169.9794
1500.000000	67.794	-170.4623
1525.000000	67.923	-170.9268
1550.000000	68.053	-171.3678
1575.000000	68.183	-171.8130
1600.000000	68.314	-172.2559
1625.000000	68.444	-172.6631
1650.000000	68.573	-173.0708
1675.000000	68.699	-173.4820
1700.000000	68.827	-173.8968
1725.000000	68.953	-174.3143
1750.000000	69.080	-174.7363
1775.000000	69.208	-175.1781
1800.000000	69.338	-175.6297
1825.000000	69.467	-176.0834
1850.000000	69.598	-176.5548
1875.000000	69.730	-177.0543
1900.000000	69.862	-177.5630
1925.000000	69.995	-178.0882
1950.000000	70.128	-178.6365
1975.000000	70.259	-179.2103
2000.000000	70.388	-179.8091
2030.000000	70.543	179.4383
2060.000000	70.700	178.6439
2090.000000	70.854	177.8102
2120.000000	71.006	176.9270
2140.000000	71.106	176.3145
2180.000000	71.302	175.0326
2200.000000	71.395	174.3629
2240.000000	71.573	172.9789
2270.000000	71.701	171.8854
2300.000000	71.822	170.7420
2330.000000	71.937	169.5659
2360.000000	72.043	168.3632
2400.000000	72.172	166.7109
2430.000000	72.259	165.4342
2470.000000	72.363	163.7035
2500.000000	72.429	162.3953
2540.000000	72.503	160.6362
2580.000000	72.561	158.8609
2620.000000	72.601	157.0893
2650.000000	72.619	155.7851
2690.000000	72.630	154.0895
2720.000000	72.628	152.8415
2760.000000	72.611	151.2032
2800.000000	72.582	149.6054
2850.000000	72.530	147.7003
2900.000000	72.459	145.8915
2950.000000	72.374	144.1877
3000.000000	72.277	142.5934
3040.000000	72.193	141.4027
3070.000000	72.128	140.5543
3110.000000	72.040	139.4835
3150.000000	71.949	138.4829
3200.000000	71.832	137.3242
3250.000000	71.714	136.2574
3300.000000	71.597	135.2819
3350.000000	71.482	134.3987
3400.000000	71.371	133.6005
3450.000000	71.267	132.8561
3500.000000	71.175	132.1716
3550.000000	71.091	131.5539
3600.000000	71.011	130.9800
3650.000000	70.935	130.4324
3700.000000	70.861	129.9126
3750.000000	70.794	129.4171
3820.000000	70.710	128.7341
3870.000000	70.652	128.2614
3950.000000	70.555	127.5218
4000.000000	70.496	127.0538
4060.000000	70.430	126.4675
4120.000000	70.366	125.8548
4180.000000	70.300	125.2190
4250.000000	70.221	124.4342
4310.000000	70.147	123.7228
4370.000000	70.062	122.9802
4440.000000	69.949	122.0857
4500.000000	69.843	121.2916
4550.000000	69.749	120.6247
4620.000000	69.611	119.6589
4680.000000	69.483	118.8054
4750.000000	69.321	117.8029
4820.000000	69.140	116.8069
4870.000000	68.999	116.1038
4940.000000	68.787	115.1390
5000.000000	68.592	114.3397
5080.000000	68.308	113.3483
5150.000000	68.042	112.5642
5220.000000	67.760	111.8451
5300.000000	67.422	111.1588
5380.000000	67.069	110.6471
5450.000000	66.748	110.3205
5520.000000	66.418	110.1299
5600.000000	66.033	110.0909
5700.000000	65.549	110.2843
5800.000000	65.068	110.8168
5900.000000	64.593	111.6287
6000.000000	64.126	112.6792
6080.000000	63.764	113.6862
6150.000000	63.460	114.6825
6220.000000	63.167	115.7791
6300.000000	62.844	117.1535
6400.000000	62.466	119.0157
6500.000000	62.107	121.0488
6600.000000	61.769	123.2283
6700.000000	61.451	125.4869
6800.000000	61.155	127.8200
6900.000000	60.903	130.2562
7000.000000	60.699	132.8314
7100.000000	60.522	135.4907
7200.000000	60.375	138.2058
7300.000000	60.255	140.9267
7400.000000	60.156	143.5967
7500.000000	60.074	146.2668
7620.000000	60.007	149.5515
7750.000000	59.990	153.1510
7880.000000	59.965	156.7315
8000.000000	59.940	159.9955
8120.000000	59.947	163.2297
8250.000000	59.998	166.6544
8380.000000	60.084	169.9362
8500.000000	60.195	172.7548
8620.000000	60.330	175.3976
8750.000000	60.492	178.0481
8850.000000	60.624	179.9097
9000.000000	60.837	-177.5763
9120.000000	61.033	-175.7872
9250.000000	61.282	-174.2039
9380.000000	61.551	-173.1971
9500.000000	61.777	-172.8424
9620.000000	61.953	-172.9694
9750.000000	62.070	-173.5134
9880.000000	62.100	-174.3143
10000.000000	62.047	-175.1515
10150.000000	61.865	-176.0961
10300.000000	61.569	-176.6224
10440.000000	61.212	-176.5775
10600.000000	60.737	-175.8066
10750.000000	60.267	-174.3612
10900.000000	59.801	-172.2455
11060.000000	59.327	-169.3443
11200.000000	58.954	-166.3351
11380.000000	58.540	-161.9128
11500.000000	58.314	-158.6835
11720.000000	58.010	-152.2981
11800.000000	57.942	-149.8875
12060.000000	57.893	-141.9254
12200.000000	57.963	-137.5432
12410.000000	58.197	-131.1920
12500.000000	58.351	-128.6544
12650.000000	58.676	-124.7268
12800.000000	59.094	-121.1145
13150.000000	60.559	-114.9200
13200.000000	60.819	-114.5017
13400.000000	61.913	-114.4913
13600.000000	62.956	-117.6474
13800.000000	63.710	-124.0769
14000.000000	63.958	-132.4482
14300.000000	63.385	-143.5318
14500.000000	62.680	-148.0302
14750.000000	61.859	-150.7976
15000.000000	61.451	-152.5115
15250.000000	61.569	-156.7410
15500.000000	61.815	-167.5389
15750.000000	61.275	174.7998
16000.000000	59.308	157.6674
16250.000000	56.162	148.5003
16500.000000	52.610	147.3124
16750.000000	49.244	151.0624
17000.000000	46.267	157.4793
17250.000000	43.690	164.8387
17500.000000	41.396	172.1806
17750.000000	39.260	179.5266
18000.000000	37.146	-173.0536
18250.000000	35.030	-166.9914
18500.000000	32.822	177.0519
18750.000000	30.448	-9.1714
19000.000000	28.012	153.1185
19250.000000	25.999	81.2148
19500.000000	24.549	-28.1709
19750.000000	23.597	122.9492
20000.000000	23.181	27.2891
