* Measurement data measured by REW V5.20.5
* Source: ??? (Realtek(R) Audio), MICROPHONE (Master Volume), L, volume: 1.000
* Format: 128k Log Swept Sine, 4 sweeps at -12.0 dBFS with no timing reference
* Dated: 03-May-2022 15:16:16
* REW Settings:
*  C-weighting compensation: Off
*  Target level: 75.0 dB
* Note: 
* Measurement: ER4XR Sample 1 R
* Smoothing: 1/24 octave
* Frequency Step: 1/48 octave
* Start Frequency: 20.300 Hz
*
* Freq(Hz)	SPL(dB)	Phase(degrees)
20.299999	77.917	-148.5635
20.600000	77.922	-148.8080
20.900000	77.928	-149.2230
21.200001	77.929	-149.5591
21.400000	77.931	-149.7451
21.799999	77.943	-150.0996
22.000000	77.953	-150.3042
22.400000	77.978	-150.8210
22.700001	77.990	-151.3065
23.000000	77.990	-151.8409
23.299999	77.978	-152.3626
23.600000	77.959	-152.8279
24.000000	77.938	-153.3325
24.299999	77.933	-153.6480
24.700001	77.944	-154.0490
25.000000	77.960	-154.3689
25.400000	77.984	-154.8218
25.799999	78.007	-155.2610
26.200001	78.033	-155.6490
26.500000	78.055	-155.9120
26.900000	78.090	-156.2583
27.200001	78.118	-156.5389
27.600000	78.152	-156.9524
28.000000	78.177	-157.3933
28.500000	78.196	-157.9412
29.000000	78.203	-158.4706
29.500000	78.199	-158.9998
30.000000	78.179	-159.5213
30.400000	78.150	-159.8902
30.700001	78.123	-160.1111
31.100000	78.088	-160.3127
31.500000	78.062	-160.4252
32.000000	78.052	-160.5256
32.500000	78.068	-160.6996
33.000000	78.093	-161.0088
33.500000	78.117	-161.4181
34.000000	78.137	-161.8519
34.500000	78.156	-162.2617
35.000000	78.178	-162.6430
35.500000	78.205	-163.0170
36.000000	78.234	-163.4111
36.500000	78.257	-163.8315
37.000000	78.267	-164.2315
37.500000	78.267	-164.5386
38.200001	78.273	-164.8183
38.700001	78.288	-165.0572
39.500000	78.277	-165.6374
40.000000	78.232	-165.8952
40.599998	78.177	-165.8854
41.200001	78.169	-165.7215
41.799999	78.204	-165.7619
42.500000	78.242	-166.1705
43.099998	78.252	-166.6389
43.700001	78.251	-167.1057
44.400002	78.247	-167.6175
45.000000	78.248	-168.0215
45.500000	78.255	-168.3847
46.200001	78.256	-168.9816
46.799999	78.229	-169.4330
47.500000	78.191	-169.6709
48.200001	78.184	-169.7645
48.700001	78.189	-169.9029
49.400002	78.179	-170.1475
50.000000	78.162	-170.2672
50.799999	78.160	-170.4466
51.500000	78.153	-170.8600
52.200001	78.099	-171.3463
53.000000	78.007	-171.5388
53.799999	77.973	-171.3242
54.500000	78.027	-171.2512
55.200001	78.111	-171.6141
56.000000	78.175	-172.3606
57.000000	78.223	-173.2132
58.000000	78.259	-174.1743
59.000000	78.195	-175.0068
60.000000	78.097	-174.9665
60.799999	78.078	-174.6298
61.500000	78.092	-174.4631
62.200001	78.107	-174.4863
63.000000	78.103	-174.6805
64.000000	78.059	-174.9591
65.000000	78.008	-175.0849
66.000000	77.989	-175.1893
67.000000	77.995	-175.4828
68.000000	78.000	-175.9547
69.000000	77.986	-176.4709
70.000000	77.949	-176.8125
71.000000	77.925	-176.8205
72.000000	77.951	-176.7357
73.000000	77.998	-176.9436
74.000000	77.996	-177.4029
75.000000	77.934	-177.6584
76.199997	77.871	-177.5636
77.500000	77.854	-177.5822
78.800003	77.837	-177.8757
80.000000	77.815	-178.1868
81.199997	77.801	-178.4425
82.500000	77.803	-178.7065
83.800003	77.798	-178.9748
85.000000	77.787	-179.1895
86.199997	77.759	-179.3869
87.500000	77.735	-179.4846
88.500000	77.734	-179.6493
90.000000	77.723	179.8840
91.199997	77.681	179.5721
92.500000	77.637	179.6023
93.800003	77.631	179.7100
95.000000	77.624	179.6992
96.199997	77.604	179.6485
97.500000	77.574	179.5717
98.800003	77.548	179.4514
100.000000	77.528	179.3002
101.500000	77.516	179.1052
103.000000	77.510	178.8953
104.400002	77.502	178.7417
106.000000	77.489	178.6053
107.500000	77.469	178.5026
109.000000	77.442	178.3801
110.599998	77.408	178.2980
112.000000	77.385	178.2017
113.800003	77.345	178.0717
115.000000	77.326	178.0620
117.199997	77.313	177.9248
118.000000	77.303	177.8683
120.599998	77.287	177.8293
122.000000	77.281	177.7788
124.099998	77.252	177.6005
125.000000	77.226	177.4995
126.500000	77.173	177.3801
128.000000	77.127	177.3345
131.500000	77.105	177.2439
132.000000	77.105	177.2221
134.000000	77.094	177.1907
136.000000	77.073	177.1727
138.000000	77.038	177.0549
140.000000	76.998	176.9181
143.000000	76.964	176.8510
145.000000	76.951	176.8926
147.500000	76.920	176.9242
150.000000	76.879	176.9192
152.500000	76.846	176.8702
155.000000	76.815	176.8681
157.500000	76.780	176.8916
160.000000	76.742	176.8983
162.500000	76.716	176.8567
165.000000	76.693	176.8414
167.500000	76.663	176.8991
170.000000	76.634	176.9833
172.500000	76.613	177.0169
175.000000	76.587	177.0324
177.500000	76.549	177.0823
180.000000	76.517	177.1214
182.500000	76.499	177.1176
185.000000	76.484	177.1617
187.500000	76.459	177.2698
190.000000	76.422	177.3501
192.500000	76.389	177.4017
195.000000	76.366	177.4484
197.500000	76.338	177.4849
200.000000	76.303	177.4867
203.000000	76.269	177.4792
206.000000	76.225	177.6163
209.000000	76.143	177.8898
212.000000	76.071	178.1459
214.000000	76.047	178.1331
218.000000	75.987	177.8455
220.000000	75.949	177.8262
224.000000	75.931	178.2703
227.000000	75.951	178.6377
230.000000	75.924	178.8164
233.000000	75.854	179.0511
236.000000	75.799	179.4460
240.000000	75.753	-179.9016
243.000000	75.711	-179.3757
247.000000	75.666	-178.7546
250.000000	75.663	-178.2606
254.000000	75.692	-177.5161
258.000000	75.743	-176.7705
262.000000	75.833	-176.0507
265.000000	75.927	-175.6742
269.000000	76.058	-175.4473
272.000000	76.147	-175.4872
276.000000	76.234	-175.8374
280.000000	76.284	-176.3139
285.000000	76.314	-176.8876
290.000000	76.312	-177.3570
295.000000	76.288	-177.6751
300.000000	76.237	-177.8628
304.000000	76.194	-177.9253
307.000000	76.178	-177.9608
311.000000	76.168	-177.9478
315.000000	76.148	-177.8767
320.000000	76.113	-177.7140
325.000000	76.063	-177.6478
330.000000	76.015	-177.6166
335.000000	75.973	-177.4261
340.000000	75.945	-177.2200
345.000000	75.925	-177.0283
350.000000	75.900	-176.8261
355.000000	75.868	-176.6103
360.000000	75.844	-176.4402
365.000000	75.826	-176.2437
370.000000	75.799	-176.0052
375.000000	75.773	-175.8264
382.000000	75.756	-175.6921
387.000000	75.744	-175.5463
395.000000	75.706	-175.1904
400.000000	75.685	-174.9495
406.000000	75.664	-174.6731
412.000000	75.645	-174.4382
418.000000	75.629	-174.1997
425.000000	75.603	-173.8873
431.000000	75.581	-173.5591
437.000000	75.564	-173.2390
444.000000	75.549	-172.8463
450.000000	75.536	-172.5043
455.000000	75.526	-172.2332
462.000000	75.511	-171.8525
468.000000	75.503	-171.5300
475.000000	75.492	-171.1846
482.000000	75.480	-170.8606
487.000000	75.474	-170.6147
494.000000	75.467	-170.2325
500.000000	75.460	-169.9075
508.000000	75.451	-169.5015
515.000000	75.452	-169.1254
522.000000	75.451	-168.7437
530.000000	75.445	-168.3390
538.000000	75.438	-167.9691
545.000000	75.432	-167.5911
552.000000	75.436	-167.1836
560.000000	75.437	-166.7694
570.000000	75.426	-166.2424
580.000000	75.420	-165.6677
590.000000	75.421	-165.1035
600.000000	75.416	-164.5236
608.000000	75.415	-164.0644
615.000000	75.418	-163.6653
622.000000	75.423	-163.3078
630.000000	75.421	-162.9399
640.000000	75.420	-162.4089
650.000000	75.432	-161.8098
660.000000	75.443	-161.2021
670.000000	75.448	-160.6117
680.000000	75.461	-160.0381
690.000000	75.482	-159.4538
700.000000	75.497	-158.8563
710.000000	75.515	-158.2111
720.000000	75.535	-157.5773
730.000000	75.558	-156.9740
740.000000	75.586	-156.3783
750.000000	75.620	-155.7800
762.000000	75.656	-155.1322
775.000000	75.685	-154.3784
788.000000	75.728	-153.5778
800.000000	75.771	-152.8212
812.000000	75.817	-152.0314
825.000000	75.868	-151.2376
838.000000	75.922	-150.4996
850.000000	75.982	-149.8097
862.000000	76.043	-149.1039
875.000000	76.108	-148.3535
885.000000	76.163	-147.7694
900.000000	76.252	-146.8771
912.000000	76.322	-146.2000
925.000000	76.405	-145.5516
938.000000	76.489	-144.9420
950.000000	76.570	-144.3594
962.000000	76.658	-143.7757
975.000000	76.758	-143.1756
988.000000	76.857	-142.5953
1000.000000	76.951	-142.1283
1015.000000	77.074	-141.6014
1030.000000	77.195	-141.1176
1044.000000	77.310	-140.6931
1060.000000	77.441	-140.2224
1075.000000	77.556	-139.8268
1090.000000	77.667	-139.4860
1106.000000	77.784	-139.2070
1120.000000	77.887	-138.9987
1138.000000	78.019	-138.7369
1150.000000	78.103	-138.5749
1172.000000	78.253	-138.3592
1180.000000	78.306	-138.3017
1206.000000	78.478	-138.1529
1220.000000	78.575	-138.0887
1241.000000	78.724	-138.0017
1250.000000	78.788	-137.9706
1265.000000	78.892	-137.9387
1280.000000	78.993	-137.9241
1315.000000	79.220	-137.8936
1320.000000	79.251	-137.8835
1340.000000	79.374	-137.8573
1360.000000	79.497	-137.8586
1380.000000	79.624	-137.8449
1400.000000	79.749	-137.8269
1430.000000	79.932	-137.7858
1450.000000	80.054	-137.7768
1475.000000	80.203	-137.7406
1500.000000	80.352	-137.6743
1525.000000	80.495	-137.6166
1550.000000	80.629	-137.5739
1575.000000	80.757	-137.5311
1600.000000	80.887	-137.4938
1625.000000	81.019	-137.4696
1650.000000	81.153	-137.4533
1675.000000	81.288	-137.4433
1700.000000	81.424	-137.4469
1725.000000	81.563	-137.4663
1750.000000	81.707	-137.4942
1775.000000	81.856	-137.5288
1800.000000	82.006	-137.5998
1825.000000	82.155	-137.7066
1850.000000	82.306	-137.8297
1875.000000	82.458	-137.9817
1900.000000	82.612	-138.1696
1925.000000	82.767	-138.4002
1950.000000	82.924	-138.6691
1975.000000	83.080	-138.9737
2000.000000	83.235	-139.3093
2030.000000	83.420	-139.7484
2060.000000	83.605	-140.2541
2090.000000	83.790	-140.8452
2120.000000	83.972	-141.4982
2140.000000	84.092	-141.9662
2180.000000	84.324	-143.0091
2200.000000	84.436	-143.5764
2240.000000	84.651	-144.7836
2270.000000	84.804	-145.7596
2300.000000	84.946	-146.8011
2330.000000	85.079	-147.8818
2360.000000	85.203	-149.0024
2400.000000	85.356	-150.5588
2430.000000	85.464	-151.7641
2470.000000	85.602	-153.4654
2500.000000	85.694	-154.8223
2540.000000	85.794	-156.7313
2580.000000	85.864	-158.7205
2620.000000	85.902	-160.7393
2650.000000	85.909	-162.2474
2690.000000	85.892	-164.2214
2720.000000	85.863	-165.6715
2760.000000	85.801	-167.5416
2800.000000	85.716	-169.3256
2850.000000	85.584	-171.4207
2900.000000	85.429	-173.3528
2950.000000	85.257	-175.1220
3000.000000	85.067	-176.7365
3040.000000	84.904	-177.9107
3070.000000	84.777	-178.7326
3110.000000	84.605	-179.7451
3150.000000	84.429	179.3477
3200.000000	84.204	178.3613
3250.000000	83.974	177.5333
3300.000000	83.743	176.8373
3350.000000	83.514	176.2858
3400.000000	83.288	175.8708
3450.000000	83.068	175.5688
3500.000000	82.855	175.3948
3550.000000	82.648	175.3495
3600.000000	82.454	175.4375
3650.000000	82.277	175.6396
3700.000000	82.122	175.9113
3750.000000	81.994	176.1819
3820.000000	81.847	176.4298
3870.000000	81.751	176.4846
3950.000000	81.593	176.4538
4000.000000	81.490	176.4617
4060.000000	81.366	176.5479
4120.000000	81.251	176.6883
4180.000000	81.151	176.8191
4250.000000	81.047	176.9102
4310.000000	80.964	176.9060
4370.000000	80.879	176.8180
4440.000000	80.773	176.6312
4500.000000	80.676	176.4432
4550.000000	80.591	176.2642
4620.000000	80.464	175.9790
4680.000000	80.349	175.7129
4750.000000	80.207	175.3688
4820.000000	80.051	174.9904
4870.000000	79.925	174.7028
4940.000000	79.727	174.2832
5000.000000	79.541	173.9268
5080.000000	79.269	173.4842
5150.000000	79.006	173.1879
5220.000000	78.724	172.9889
5300.000000	78.380	172.8505
5380.000000	78.006	172.8301
5450.000000	77.642	172.9958
5520.000000	77.235	173.4537
5600.000000	76.728	174.5143
5700.000000	76.071	177.0129
5800.000000	75.513	-178.8282
5900.000000	75.264	-173.4283
6000.000000	75.445	-168.5215
6080.000000	75.790	-166.1835
6150.000000	76.098	-165.5020
6220.000000	76.325	-165.7807
6300.000000	76.449	-166.6575
6400.000000	76.434	-167.7917
6500.000000	76.305	-168.4843
6600.000000	76.145	-168.6344
6700.000000	75.997	-168.4035
6800.000000	75.886	-167.9799
6900.000000	75.824	-167.4846
7000.000000	75.816	-166.9787
7100.000000	75.867	-166.4795
7200.000000	75.991	-166.0935
7300.000000	76.205	-165.9683
7400.000000	76.527	-166.3049
7500.000000	76.967	-167.4321
7620.000000	77.635	-170.4747
7750.000000	78.451	-177.0304
7880.000000	79.078	171.5840
8000.000000	79.103	156.7877
8120.000000	78.303	140.4253
8250.000000	76.500	125.2173
8380.000000	74.047	115.0674
8500.000000	71.570	109.8640
8620.000000	69.109	107.5195
8750.000000	66.545	107.0570
8850.000000	64.645	107.6430
9000.000000	61.906	109.5454
9120.000000	59.796	111.7488
9250.000000	57.545	114.4822
9380.000000	55.265	117.2755
9500.000000	53.063	119.9966
9620.000000	50.681	121.8500
9750.000000	47.861	112.2466
9880.000000	44.672	6.4643
10000.000000	41.167	-132.3245
10150.000000	36.958	-143.6873
10300.000000	37.621	115.8413
10440.000000	40.747	-153.9834
10600.000000	43.551	-12.6479
10750.000000	45.480	-28.7939
10900.000000	46.958	-26.7842
11060.000000	48.186	-23.9473
11200.000000	48.997	-21.5938
11380.000000	49.767	-18.5024
11500.000000	50.151	-16.3354
11720.000000	50.738	-12.2227
11800.000000	50.939	-10.7266
12060.000000	51.527	-5.8989
12200.000000	51.816	-3.4917
12410.000000	52.214	-0.0645
12500.000000	52.354	1.3628
12650.000000	52.458	3.4307
12800.000000	52.323	5.6553
13150.000000	52.264	17.4067
13200.000000	52.362	19.1973
13400.000000	52.822	25.2427
13600.000000	53.365	30.6846
13800.000000	54.012	36.1440
14000.000000	54.811	40.9927
14300.000000	56.316	47.6089
14500.000000	57.615	51.1855
14750.000000	59.686	53.6094
15000.000000	62.221	52.0098
15250.000000	64.962	42.8765
15500.000000	67.192	22.5010
15750.000000	68.003	-9.0571
16000.000000	66.878	-44.1445
16250.000000	63.873	-72.3652
16500.000000	59.525	-89.0723
16750.000000	54.573	-99.7861
17000.000000	49.649	-160.9546
17250.000000	45.250	96.0781
17500.000000	41.791	25.4141
17750.000000	39.437	-113.6660
18000.000000	38.078	-140.2109
18250.000000	37.266	126.1230
18500.000000	37.038	-151.6602
18750.000000	36.986	-53.0430
19000.000000	36.682	-50.5781
19250.000000	36.481	-154.5312
19500.000000	36.445	125.3281
19750.000000	36.142	107.1016
20000.000000	35.616	-160.1406
