* Measurement data measured by REW V5.20.13
* Source: Analog (1+2)(2- RME ADI-2 Pro), LINE_IN (마스), L, volume: 0.250. Timing signal peak level -33.6 dBFS, measurement signal peak level -24.8 dBFS
* Format: 128k Log Swept Sine, 1 sweep at -12.0 dBFS using an acoustic timing reference
* Dated: 2023. 1. 5 오후 12:56:36
* REW Settings:
*  C-weighting compensation: Off
*  Target level: 75.0 dB
* Note: Delay -0.0145 ms (-5.0 mm, -0.2 in) using estimated IR delay relative to Acoustic reference played from LINE_OUT L with no timing offset
* Measurement: L (정착용)
* Smoothing: 1/24 octave
* Frequency Step: 1/48 octave
* Start Frequency: 20.000 Hz
*
* Freq(Hz)	SPL(dB)	Phase(degrees)
20.000000	53.877	-40.5402
20.299999	54.025	-36.7637
20.600000	55.312	-29.9529
20.900000	57.348	-26.1810
21.200001	59.068	-28.6841
21.400000	59.896	-32.5975
21.799999	60.840	-42.3491
22.000000	61.005	-46.6481
22.400000	61.042	-52.3083
22.700001	61.003	-54.0881
23.000000	61.130	-54.7368
23.299999	61.428	-55.5557
23.600000	61.792	-57.2350
24.000000	62.200	-60.9354
24.299999	62.379	-64.1600
24.700001	62.495	-68.0815
25.000000	62.585	-70.4576
25.400000	62.819	-73.1589
25.799999	63.210	-76.0973
26.200001	63.667	-79.8361
26.500000	63.978	-83.1274
26.900000	64.279	-87.7009
27.200001	64.414	-90.7440
27.600000	64.526	-93.6194
28.000000	64.717	-94.9086
28.500000	65.274	-95.5031
29.000000	66.049	-97.4617
29.500000	66.621	-101.5610
30.000000	66.761	-105.4670
30.400000	66.721	-106.5055
30.700001	66.794	-105.9642
31.100000	67.195	-104.9329
31.500000	67.812	-105.3511
32.000000	68.437	-108.8118
32.500000	68.647	-113.1414
33.000000	68.721	-115.4387
33.500000	69.140	-116.5227
34.000000	69.846	-119.9661
34.500000	70.266	-127.1206
35.000000	70.029	-135.0144
35.500000	69.227	-138.6038
36.000000	68.572	-136.1230
36.500000	68.848	-131.5428
37.000000	69.714	-130.3025
37.500000	70.396	-133.0798
38.200001	70.711	-137.9670
38.700001	70.770	-139.5803
39.500000	71.078	-140.5089
40.000000	71.352	-141.2904
40.599998	71.684	-142.4728
41.200001	72.032	-143.9512
41.799999	72.344	-145.9741
42.500000	72.582	-148.5728
43.099998	72.723	-150.3334
43.700001	72.893	-151.6691
44.400002	73.152	-153.1643
45.000000	73.396	-154.6292
45.500000	73.589	-155.9884
46.200001	73.818	-157.9268
46.799999	73.983	-159.3497
47.500000	74.201	-160.6664
48.200001	74.471	-162.0339
48.700001	74.667	-163.2333
49.400002	74.899	-165.1110
50.000000	75.059	-166.6384
50.799999	75.267	-168.3099
51.500000	75.495	-169.6123
52.200001	75.753	-171.1556
53.000000	76.009	-173.2479
53.799999	76.206	-175.2793
54.500000	76.350	-176.9033
55.200001	76.469	-178.3716
56.000000	76.596	-179.8091
57.000000	76.736	178.4160
58.000000	76.808	177.3638
59.000000	77.091	177.2777
60.000000	77.546	175.7006
60.799999	77.785	173.6333
61.500000	77.933	172.1316
62.200001	78.092	170.8889
63.000000	78.277	169.5135
64.000000	78.485	167.9619
65.000000	78.693	166.6860
66.000000	78.922	165.5013
67.000000	79.160	164.1656
68.000000	79.378	162.6692
69.000000	79.576	161.1875
70.000000	79.778	159.7662
71.000000	79.990	158.3047
72.000000	80.196	156.7919
73.000000	80.393	155.2607
74.000000	80.573	153.7253
75.000000	80.737	152.2554
76.199997	80.924	150.5531
77.500000	81.120	148.7719
78.800003	81.320	146.9679
80.000000	81.488	145.1887
81.199997	81.606	143.4363
82.500000	81.702	141.9971
83.800003	81.841	140.8784
85.000000	81.997	139.8033
86.199997	82.159	138.6477
87.500000	82.328	137.4030
88.500000	82.462	136.4912
90.000000	82.668	135.1053
91.199997	82.826	133.9065
92.500000	82.972	132.5654
93.800003	83.110	131.2773
95.000000	83.242	130.0583
96.199997	83.374	128.7808
97.500000	83.510	127.4072
98.800003	83.642	126.1503
100.000000	83.766	125.0854
101.500000	83.923	123.8137
103.000000	84.073	122.5176
104.400002	84.198	121.2625
106.000000	84.330	119.8197
107.500000	84.452	118.5269
109.000000	84.584	117.2643
110.599998	84.724	115.9058
112.000000	84.834	114.7267
113.800003	84.958	113.2523
115.000000	85.034	112.2997
117.199997	85.172	110.6069
118.000000	85.226	110.0045
120.599998	85.406	108.0757
122.000000	85.502	107.0741
124.099998	85.637	105.5566
125.000000	85.688	104.9056
126.500000	85.768	103.8257
128.000000	85.843	102.7466
131.500000	86.014	100.3204
132.000000	86.041	99.9872
134.000000	86.146	98.6444
136.000000	86.238	97.3284
138.000000	86.317	96.0953
140.000000	86.394	94.9423
143.000000	86.501	93.2919
145.000000	86.575	92.2904
147.500000	86.676	91.0245
150.000000	86.775	89.6860
152.500000	86.872	88.3464
155.000000	86.969	87.0222
157.500000	87.058	85.7389
160.000000	87.141	84.4617
162.500000	87.215	83.1663
165.000000	87.286	81.8704
167.500000	87.359	80.6372
170.000000	87.435	79.4369
172.500000	87.507	78.2223
175.000000	87.581	76.9806
177.500000	87.658	75.7053
180.000000	87.732	74.3864
182.500000	87.799	72.9559
185.000000	87.856	71.3735
187.500000	87.891	69.6442
190.000000	87.887	67.7866
192.500000	87.825	65.8539
195.000000	87.696	63.9717
197.500000	87.494	62.3535
200.000000	87.227	61.2810
203.000000	86.876	61.0304
206.000000	86.591	61.8978
209.000000	86.460	63.3484
212.000000	86.486	64.6908
214.000000	86.560	65.3358
218.000000	86.758	65.9421
220.000000	86.858	65.9609
224.000000	87.045	65.6548
227.000000	87.172	65.2238
230.000000	87.284	64.6595
233.000000	87.378	64.0282
236.000000	87.452	63.3643
240.000000	87.522	62.4812
243.000000	87.560	61.8719
247.000000	87.594	61.1937
250.000000	87.621	60.7668
254.000000	87.673	60.2339
258.000000	87.734	59.7061
262.000000	87.789	59.1536
265.000000	87.829	58.7380
269.000000	87.884	58.1836
272.000000	87.925	57.7563
276.000000	87.975	57.1495
280.000000	88.016	56.5249
285.000000	88.058	55.8014
290.000000	88.095	55.1062
295.000000	88.136	54.4714
300.000000	88.184	53.8428
304.000000	88.214	53.3152
307.000000	88.229	52.9222
311.000000	88.244	52.4301
315.000000	88.260	51.9762
320.000000	88.277	51.3898
325.000000	88.285	50.8778
330.000000	88.296	50.5007
335.000000	88.323	50.1420
340.000000	88.356	49.7200
345.000000	88.380	49.2408
350.000000	88.390	48.7875
355.000000	88.390	48.4203
360.000000	88.390	48.1353
365.000000	88.397	47.8987
370.000000	88.410	47.6747
375.000000	88.427	47.4600
382.000000	88.463	47.2054
387.000000	88.494	47.0300
395.000000	88.548	46.6915
400.000000	88.585	46.4371
406.000000	88.628	46.0825
412.000000	88.664	45.7113
418.000000	88.695	45.3466
425.000000	88.726	44.9299
431.000000	88.746	44.5819
437.000000	88.761	44.2344
444.000000	88.774	43.8555
450.000000	88.780	43.5717
455.000000	88.782	43.3634
462.000000	88.782	43.1304
468.000000	88.783	42.9841
475.000000	88.791	42.8630
482.000000	88.810	42.7562
487.000000	88.828	42.6727
494.000000	88.852	42.5466
500.000000	88.872	42.4301
508.000000	88.898	42.2704
515.000000	88.919	42.1406
522.000000	88.942	42.0164
530.000000	88.976	41.8599
538.000000	89.012	41.6389
545.000000	89.033	41.3887
552.000000	89.042	41.1542
560.000000	89.045	40.9573
570.000000	89.045	40.7922
580.000000	89.044	40.7166
590.000000	89.052	40.7156
600.000000	89.069	40.7128
608.000000	89.083	40.6819
615.000000	89.093	40.6556
622.000000	89.102	40.6541
630.000000	89.112	40.6823
640.000000	89.124	40.7281
650.000000	89.138	40.8071
660.000000	89.157	40.9323
670.000000	89.187	41.0695
680.000000	89.226	41.1743
690.000000	89.268	41.2190
700.000000	89.301	41.2125
710.000000	89.325	41.1866
720.000000	89.339	41.1995
730.000000	89.348	41.2858
740.000000	89.358	41.4473
750.000000	89.377	41.6538
762.000000	89.410	41.9092
775.000000	89.454	42.1477
788.000000	89.498	42.3505
800.000000	89.536	42.5430
812.000000	89.576	42.7715
825.000000	89.625	43.0242
838.000000	89.677	43.2651
850.000000	89.728	43.4723
862.000000	89.777	43.6494
875.000000	89.826	43.8293
885.000000	89.863	43.9818
900.000000	89.922	44.2307
912.000000	89.971	44.4198
925.000000	90.023	44.6151
938.000000	90.074	44.8127
950.000000	90.117	44.9894
962.000000	90.155	45.1897
975.000000	90.196	45.4442
988.000000	90.239	45.7203
1000.000000	90.281	45.9854
1015.000000	90.338	46.3284
1030.000000	90.395	46.6990
1044.000000	90.448	47.0811
1060.000000	90.518	47.5583
1075.000000	90.592	47.9968
1090.000000	90.670	48.4120
1106.000000	90.754	48.8629
1120.000000	90.828	49.2800
1138.000000	90.934	49.8242
1150.000000	91.011	50.1642
1172.000000	91.160	50.7070
1180.000000	91.214	50.8894
1206.000000	91.386	51.4308
1220.000000	91.469	51.6926
1241.000000	91.586	52.2428
1250.000000	91.645	52.5371
1265.000000	91.757	53.0117
1280.000000	91.877	53.3958
1315.000000	92.152	54.1097
1320.000000	92.191	54.2063
1340.000000	92.342	54.6046
1360.000000	92.492	55.0756
1380.000000	92.656	55.6165
1400.000000	92.838	56.0851
1430.000000	93.099	56.7238
1450.000000	93.294	57.2981
1475.000000	93.582	57.8407
1500.000000	93.879	58.1654
1525.000000	94.180	58.3562
1550.000000	94.488	58.4225
1575.000000	94.804	58.4325
1600.000000	95.170	58.2343
1625.000000	95.534	57.2830
1650.000000	95.784	55.6401
1675.000000	95.829	54.2869
1700.000000	95.844	54.4572
1725.000000	96.007	55.1803
1750.000000	96.259	55.8564
1775.000000	96.597	56.2391
1800.000000	96.941	56.0773
1825.000000	97.259	55.7383
1850.000000	97.581	55.4790
1875.000000	97.953	55.1724
1900.000000	98.357	54.4469
1925.000000	98.728	53.1980
1950.000000	99.028	51.8461
1975.000000	99.312	50.8031
2000.000000	99.648	49.8997
2030.000000	100.094	48.3442
2060.000000	100.501	46.4204
2090.000000	100.906	44.5211
2120.000000	101.357	42.4781
2140.000000	101.684	40.8273
2180.000000	102.316	36.5106
2200.000000	102.598	33.9502
2240.000000	103.109	28.0829
2270.000000	103.399	22.6844
2300.000000	103.499	16.4202
2330.000000	103.291	10.1711
2360.000000	102.806	5.6077
2400.000000	102.147	3.1205
2430.000000	101.899	2.6545
2470.000000	101.936	1.9697
2500.000000	102.153	0.3252
2540.000000	102.425	-3.9252
2580.000000	102.507	-9.5367
2620.000000	102.395	-15.5830
2650.000000	102.214	-20.2317
2690.000000	101.832	-26.8152
2720.000000	101.380	-31.9534
2760.000000	100.468	-38.2467
2800.000000	99.181	-41.8254
2850.000000	97.694	-41.8510
2900.000000	96.432	-43.4604
2950.000000	94.331	-36.3195
3000.000000	93.863	-22.5649
3040.000000	94.279	-18.5570
3070.000000	94.292	-17.1151
3110.000000	94.257	-12.9426
3150.000000	94.757	-7.9062
3200.000000	95.814	-5.6221
3250.000000	96.699	-7.7166
3300.000000	97.237	-12.1501
3350.000000	97.406	-17.1772
3400.000000	97.330	-21.7942
3450.000000	97.050	-25.6837
3500.000000	96.659	-28.4026
3550.000000	96.236	-29.8445
3600.000000	95.943	-30.1138
3650.000000	95.920	-30.6663
3700.000000	95.988	-33.4177
3750.000000	95.775	-38.1340
3820.000000	94.707	-43.7776
3870.000000	93.498	-43.9756
3950.000000	91.696	-33.1750
4000.000000	91.951	-21.5432
4060.000000	93.943	-12.2620
4120.000000	96.125	-14.1219
4180.000000	97.533	-25.1094
4250.000000	97.940	-42.5320
4310.000000	97.370	-56.5173
4370.000000	96.208	-67.3116
4440.000000	94.489	-75.3690
4500.000000	93.004	-79.7218
4550.000000	91.802	-82.6853
4620.000000	90.009	-85.9738
4680.000000	88.248	-86.8740
4750.000000	85.977	-83.7751
4820.000000	83.853	-76.2262
4870.000000	82.636	-69.1947
4940.000000	81.461	-58.2610
5000.000000	80.976	-49.4136
5080.000000	80.727	-40.0715
5150.000000	80.599	-33.5070
5220.000000	80.493	-27.9432
5300.000000	80.327	-22.4951
5380.000000	80.051	-17.1379
5450.000000	79.769	-11.7545
5520.000000	79.543	-5.4750
5600.000000	79.460	2.7589
5700.000000	79.962	14.0334
5800.000000	81.239	21.8618
5900.000000	82.296	22.5026
6000.000000	82.384	21.4403
6080.000000	82.245	24.0841
6150.000000	82.355	27.2483
6220.000000	82.517	29.8577
6300.000000	82.655	33.1597
6400.000000	82.981	38.4037
6500.000000	83.606	43.8188
6600.000000	84.572	48.4678
6700.000000	85.783	50.7373
6800.000000	86.937	49.8430
6900.000000	87.826	46.5844
7000.000000	88.422	42.3311
7100.000000	88.797	37.8015
7200.000000	88.956	33.0482
7300.000000	88.883	28.6479
7400.000000	88.650	24.8442
7500.000000	88.234	21.6379
7620.000000	87.498	19.7151
7750.000000	86.621	19.7606
7880.000000	85.405	23.5637
8000.000000	84.554	35.3545
8120.000000	85.546	50.6960
8250.000000	88.383	61.3273
8380.000000	91.386	59.7972
8500.000000	93.312	47.7783
8620.000000	94.049	30.6853
8750.000000	93.694	13.6851
8850.000000	92.903	3.8467
9000.000000	91.310	-5.1289
9120.000000	90.056	-8.3889
9250.000000	88.945	-10.1998
9380.000000	88.007	-11.7255
9500.000000	87.142	-12.7594
9620.000000	86.286	-13.1375
9750.000000	85.377	-13.3391
9880.000000	84.349	-12.9716
10000.000000	83.242	-10.6307
10150.000000	81.987	-3.4413
10300.000000	81.638	5.1320
10440.000000	81.788	8.3933
10600.000000	81.187	9.6292
10750.000000	80.063	19.1786
10900.000000	80.426	34.8999
11060.000000	82.125	45.1752
11200.000000	83.666	49.4631
11380.000000	86.313	52.9838
11500.000000	88.308	50.8645
11720.000000	91.054	33.4377
11800.000000	91.576	23.9722
12060.000000	91.469	-8.2152
12200.000000	90.477	-22.5488
12410.000000	88.242	-37.1532
12500.000000	87.162	-40.8685
12650.000000	85.411	-44.1357
12800.000000	84.016	-45.2151
13150.000000	82.649	-57.5238
13200.000000	82.460	-61.6981
13400.000000	81.111	-84.2848
13600.000000	78.795	-114.8087
13800.000000	77.334	-153.9025
14000.000000	79.330	160.5344
14300.000000	83.202	98.1569
14500.000000	84.398	68.4148
14750.000000	84.896	45.3079
15000.000000	85.332	32.9025
15250.000000	86.398	25.1174
15500.000000	88.263	15.9192
15750.000000	90.104	-0.1885
16000.000000	91.257	-22.0414
16250.000000	91.663	-46.1917
16500.000000	91.337	-70.4487
16750.000000	90.359	-92.2637
17000.000000	89.155	-111.3630
17250.000000	87.818	-129.4963
17500.000000	86.196	-145.2451
17750.000000	84.533	-157.2275
18000.000000	83.419	-167.2815
18250.000000	82.968	-179.6147
18500.000000	82.683	164.6147
18750.000000	82.422	146.1863
19000.000000	82.231	124.5754
19250.000000	81.940	98.2456
19500.000000	81.196	67.5808
19750.000000	79.811	38.0566
20000.000000	78.537	21.2603
