* Measurement data measured by REW V5.20.5
* Source: 마이크(7- USB Sound Device       , MICROPHONE (마스), L, volume: 0.560
* Format: 128k Log Swept Sine, 2 sweeps at -15.0 dBFS with no timing reference
* Dated: 2022. 4. 19 오후 8:46:12
* REW Settings:
*  C-weighting compensation: Off
*  Target level: 75.0 dB
* Note: 
* Measurement: R
* Smoothing: 1/24 octave
* Frequency Step: 1/48 octave
* Start Frequency: 20.300 Hz
*
* Freq(Hz)	SPL(dB)	Phase(degrees)
20.299999	119.039	-138.8540
20.600000	119.060	-139.1984
20.900000	119.099	-139.8086
21.200001	119.129	-140.3776
21.400000	119.145	-140.7408
21.799999	119.169	-141.4734
22.000000	119.178	-141.8560
22.400000	119.194	-142.6498
22.700001	119.203	-143.2654
23.000000	119.211	-143.8974
23.299999	119.219	-144.5425
23.600000	119.228	-145.1974
24.000000	119.242	-146.0804
24.299999	119.254	-146.7452
24.700001	119.274	-147.6277
25.000000	119.291	-148.2817
25.400000	119.317	-149.1357
25.799999	119.346	-149.9605
26.200001	119.376	-150.7489
26.500000	119.400	-151.3141
26.900000	119.433	-152.0339
27.200001	119.458	-152.5507
27.600000	119.490	-153.2120
28.000000	119.518	-153.8419
28.500000	119.548	-154.5821
29.000000	119.573	-155.2714
29.500000	119.592	-155.9252
30.000000	119.607	-156.5683
30.400000	119.615	-157.0858
30.700001	119.618	-157.4761
31.100000	119.619	-157.9962
31.500000	119.618	-158.5140
32.000000	119.614	-159.1607
32.500000	119.611	-159.8148
33.000000	119.608	-160.4786
33.500000	119.607	-161.1452
34.000000	119.607	-161.8054
34.500000	119.610	-162.4572
35.000000	119.617	-163.1020
35.500000	119.623	-163.7364
36.000000	119.630	-164.3502
36.500000	119.635	-164.9335
37.000000	119.639	-165.4831
37.500000	119.643	-166.0034
38.200001	119.646	-166.6965
38.700001	119.645	-167.1747
39.500000	119.640	-167.9266
40.000000	119.633	-168.3955
40.599998	119.622	-168.9601
41.200001	119.608	-169.5240
41.799999	119.594	-170.0840
42.500000	119.579	-170.7331
43.099998	119.568	-171.2877
43.700001	119.558	-171.8381
44.400002	119.549	-172.4664
45.000000	119.542	-172.9871
45.500000	119.536	-173.4070
46.200001	119.528	-173.9726
46.799999	119.518	-174.4355
47.500000	119.506	-174.9514
48.200001	119.490	-175.4504
48.700001	119.478	-175.8018
49.400002	119.459	-176.2905
50.000000	119.441	-176.7091
50.799999	119.417	-177.2711
51.500000	119.395	-177.7635
52.200001	119.374	-178.2505
53.000000	119.352	-178.7991
53.799999	119.332	-179.3358
54.500000	119.314	-179.7879
55.200001	119.297	179.7758
56.000000	119.278	179.2886
57.000000	119.250	178.6981
58.000000	119.219	178.1333
59.000000	119.186	177.5891
60.000000	119.154	177.0543
60.799999	119.128	176.6238
61.500000	119.106	176.2470
62.200001	119.083	175.8754
63.000000	119.057	175.4611
64.000000	119.025	174.9611
65.000000	118.992	174.4774
66.000000	118.959	174.0058
67.000000	118.925	173.5450
68.000000	118.891	173.0894
69.000000	118.856	172.6398
70.000000	118.821	172.2024
71.000000	118.786	171.7821
72.000000	118.752	171.3776
73.000000	118.717	170.9822
74.000000	118.681	170.5943
75.000000	118.645	170.2142
76.199997	118.601	169.7675
77.500000	118.553	169.2962
78.800003	118.507	168.8373
80.000000	118.465	168.4274
81.199997	118.423	168.0263
82.500000	118.375	167.6030
83.800003	118.326	167.1954
85.000000	118.283	166.8229
86.199997	118.240	166.4552
87.500000	118.195	166.0737
88.500000	118.164	165.7830
90.000000	118.113	165.3237
91.199997	118.064	164.9936
92.500000	118.012	164.6918
93.800003	117.964	164.3915
95.000000	117.919	164.1077
96.199997	117.873	163.8202
97.500000	117.824	163.5125
98.800003	117.775	163.2151
100.000000	117.732	162.9489
101.500000	117.677	162.6280
103.000000	117.623	162.3227
104.400002	117.573	162.0496
106.000000	117.514	161.7451
107.500000	117.458	161.4662
109.000000	117.402	161.1921
110.599998	117.344	160.9062
112.000000	117.294	160.6658
113.800003	117.230	160.3700
115.000000	117.187	160.1860
117.199997	117.110	159.8752
118.000000	117.082	159.7638
120.599998	116.991	159.4033
122.000000	116.941	159.2155
124.099998	116.867	158.9486
125.000000	116.836	158.8385
126.500000	116.784	158.6586
128.000000	116.734	158.4807
131.500000	116.616	158.0916
132.000000	116.599	158.0411
134.000000	116.532	157.8458
136.000000	116.465	157.6609
138.000000	116.400	157.4845
140.000000	116.335	157.3122
143.000000	116.234	157.0786
145.000000	116.167	156.9333
147.500000	116.087	156.7482
150.000000	116.011	156.5753
152.500000	115.935	156.4466
155.000000	115.856	156.3552
157.500000	115.777	156.2536
160.000000	115.699	156.1375
162.500000	115.624	156.0312
165.000000	115.548	155.9498
167.500000	115.472	155.8851
170.000000	115.399	155.8308
172.500000	115.327	155.7886
175.000000	115.254	155.7570
177.500000	115.183	155.7250
180.000000	115.114	155.6985
182.500000	115.046	155.6867
185.000000	114.977	155.6920
187.500000	114.909	155.7027
190.000000	114.844	155.7225
192.500000	114.782	155.7678
195.000000	114.719	155.8319
197.500000	114.656	155.8974
200.000000	114.596	155.9550
203.000000	114.530	156.0163
206.000000	114.467	156.0826
209.000000	114.406	156.1500
212.000000	114.344	156.2177
214.000000	114.305	156.2632
218.000000	114.227	156.3504
220.000000	114.187	156.3961
224.000000	114.110	156.4627
227.000000	114.053	156.5025
230.000000	113.997	156.5584
233.000000	113.937	156.6163
236.000000	113.878	156.6676
240.000000	113.805	156.7262
243.000000	113.749	156.7838
247.000000	113.674	156.8784
250.000000	113.619	156.9612
254.000000	113.544	157.0885
258.000000	113.470	157.2039
262.000000	113.395	157.3235
265.000000	113.340	157.4209
269.000000	113.269	157.5585
272.000000	113.216	157.6746
276.000000	113.145	157.8397
280.000000	113.075	158.0041
285.000000	112.990	158.2238
290.000000	112.909	158.4579
295.000000	112.829	158.7025
300.000000	112.750	158.9513
304.000000	112.689	159.1537
307.000000	112.644	159.3066
311.000000	112.584	159.5095
315.000000	112.526	159.7141
320.000000	112.454	159.9755
325.000000	112.385	160.2451
330.000000	112.316	160.5242
335.000000	112.248	160.8087
340.000000	112.183	161.0987
345.000000	112.121	161.3969
350.000000	112.058	161.6941
355.000000	111.996	161.9863
360.000000	111.935	162.2790
365.000000	111.876	162.5815
370.000000	111.819	162.8887
375.000000	111.763	163.1962
382.000000	111.687	163.6343
387.000000	111.633	163.9515
395.000000	111.550	164.4612
400.000000	111.499	164.7804
406.000000	111.440	165.1680
412.000000	111.382	165.5543
418.000000	111.326	165.9338
425.000000	111.263	166.3862
431.000000	111.210	166.7857
437.000000	111.158	167.1804
444.000000	111.099	167.6441
450.000000	111.051	168.0514
455.000000	111.012	168.3876
462.000000	110.957	168.8508
468.000000	110.910	169.2544
475.000000	110.858	169.7301
482.000000	110.809	170.2023
487.000000	110.775	170.5381
494.000000	110.727	171.0139
500.000000	110.686	171.4265
508.000000	110.635	171.9749
515.000000	110.592	172.4505
522.000000	110.550	172.9233
530.000000	110.504	173.4746
538.000000	110.459	174.0301
545.000000	110.421	174.5160
552.000000	110.384	175.0031
560.000000	110.343	175.5651
570.000000	110.295	176.2692
580.000000	110.250	176.9789
590.000000	110.207	177.6943
600.000000	110.165	178.3988
608.000000	110.133	178.9607
615.000000	110.107	179.4541
622.000000	110.081	179.9518
630.000000	110.054	-179.4776
640.000000	110.021	-178.7601
650.000000	109.990	-178.0378
660.000000	109.961	-177.3126
670.000000	109.935	-176.5880
680.000000	109.912	-175.8606
690.000000	109.890	-175.1225
700.000000	109.870	-174.3779
710.000000	109.853	-173.6297
720.000000	109.838	-172.8859
730.000000	109.827	-172.1461
740.000000	109.818	-171.4023
750.000000	109.812	-170.6584
762.000000	109.808	-169.7707
775.000000	109.808	-168.8092
788.000000	109.812	-167.8407
800.000000	109.820	-166.9431
812.000000	109.831	-166.0466
825.000000	109.848	-165.0852
838.000000	109.870	-164.1381
850.000000	109.895	-163.2731
862.000000	109.924	-162.4178
875.000000	109.958	-161.4912
885.000000	109.988	-160.7897
900.000000	110.038	-159.7653
912.000000	110.080	-158.9595
925.000000	110.128	-158.1009
938.000000	110.178	-157.2443
950.000000	110.227	-156.4375
962.000000	110.282	-155.5957
975.000000	110.361	-154.6698
988.000000	110.465	-153.8692
1000.000000	110.558	-153.3042
1015.000000	110.652	-152.6899
1030.000000	110.735	-152.0627
1044.000000	110.813	-151.4674
1060.000000	110.905	-150.7989
1075.000000	110.992	-150.2061
1090.000000	111.079	-149.6479
1106.000000	111.170	-149.0777
1120.000000	111.249	-148.5894
1138.000000	111.350	-147.9903
1150.000000	111.416	-147.6169
1172.000000	111.536	-146.9723
1180.000000	111.579	-146.7440
1206.000000	111.716	-146.0200
1220.000000	111.787	-145.6497
1241.000000	111.893	-145.1102
1250.000000	111.937	-144.8840
1265.000000	112.009	-144.5126
1280.000000	112.080	-144.1474
1315.000000	112.245	-143.3156
1320.000000	112.268	-143.1983
1340.000000	112.360	-142.7294
1360.000000	112.452	-142.2578
1380.000000	112.543	-141.7927
1400.000000	112.634	-141.3348
1430.000000	112.771	-140.6484
1450.000000	112.863	-140.1927
1475.000000	112.980	-139.6251
1500.000000	113.099	-139.0620
1525.000000	113.221	-138.5099
1550.000000	113.346	-137.9680
1575.000000	113.474	-137.4377
1600.000000	113.604	-136.9167
1625.000000	113.737	-136.4137
1650.000000	113.874	-135.9336
1675.000000	114.014	-135.4678
1700.000000	114.158	-135.0199
1725.000000	114.305	-134.5953
1750.000000	114.455	-134.1992
1775.000000	114.609	-133.8350
1800.000000	114.766	-133.5048
1825.000000	114.925	-133.2068
1850.000000	115.088	-132.9429
1875.000000	115.254	-132.7163
1900.000000	115.423	-132.5319
1925.000000	115.594	-132.3949
1950.000000	115.768	-132.3059
1975.000000	115.943	-132.2649
2000.000000	116.120	-132.2738
2030.000000	116.334	-132.3521
2060.000000	116.549	-132.5134
2090.000000	116.764	-132.7673
2120.000000	116.979	-133.1116
2140.000000	117.121	-133.3907
2180.000000	117.402	-134.0768
2200.000000	117.540	-134.4858
2240.000000	117.807	-135.4339
2270.000000	117.999	-136.2565
2300.000000	118.184	-137.1735
2330.000000	118.360	-138.1812
2360.000000	118.524	-139.2759
2400.000000	118.722	-140.8625
2430.000000	118.853	-142.1417
2470.000000	119.005	-143.9485
2500.000000	119.099	-145.3622
2540.000000	119.198	-147.2997
2580.000000	119.265	-149.2715
2620.000000	119.299	-151.2417
2650.000000	119.305	-152.6968
2690.000000	119.287	-154.5820
2720.000000	119.256	-155.9393
2760.000000	119.192	-157.6533
2800.000000	119.105	-159.2371
2850.000000	118.970	-161.0116
2900.000000	118.812	-162.5432
2950.000000	118.636	-163.8138
3000.000000	118.450	-164.8213
3040.000000	118.298	-165.4452
3070.000000	118.184	-165.8078
3110.000000	118.036	-166.1575
3150.000000	117.895	-166.3759
3200.000000	117.731	-166.5107
3250.000000	117.579	-166.5406
3300.000000	117.438	-166.4960
3350.000000	117.300	-166.3730
3400.000000	117.167	-166.1561
3450.000000	117.039	-165.8341
3500.000000	116.919	-165.4010
3550.000000	116.809	-164.8639
3600.000000	116.712	-164.2388
3650.000000	116.628	-163.5352
3700.000000	116.557	-162.7618
3750.000000	116.500	-161.9296
3820.000000	116.446	-160.6916
3870.000000	116.426	-159.7639
3950.000000	116.424	-158.2211
4000.000000	116.443	-157.2346
4060.000000	116.486	-156.0373
4120.000000	116.551	-154.8412
4180.000000	116.639	-153.6608
4250.000000	116.768	-152.3219
4310.000000	116.900	-151.2171
4370.000000	117.054	-150.1581
4440.000000	117.259	-149.0024
4500.000000	117.459	-148.1024
4550.000000	117.642	-147.4248
4620.000000	117.921	-146.6073
4680.000000	118.181	-146.0567
4750.000000	118.510	-145.6236
4820.000000	118.861	-145.4561
4870.000000	119.124	-145.5312
4940.000000	119.499	-145.9574
5000.000000	119.816	-146.6291
5080.000000	120.221	-147.8388
5150.000000	120.588	-149.1315
5220.000000	120.972	-150.9074
5300.000000	121.379	-153.7535
5380.000000	121.707	-157.3781
5450.000000	121.913	-161.0340
5520.000000	122.031	-164.9881
5600.000000	122.050	-169.6560
5700.000000	121.903	-175.2953
5800.000000	121.593	179.7521
5900.000000	121.165	175.8032
6000.000000	120.669	172.9653
6080.000000	120.254	171.4649
6150.000000	119.894	170.6597
6220.000000	119.547	170.2719
6300.000000	119.175	170.2664
6400.000000	118.760	170.8044
6500.000000	118.410	171.8207
6600.000000	118.133	173.1920
6700.000000	117.935	174.8139
6800.000000	117.820	176.6033
6900.000000	117.791	178.4749
7000.000000	117.857	-179.6665
7100.000000	118.022	-177.9278
7200.000000	118.294	-176.4442
7300.000000	118.675	-175.3716
7400.000000	119.172	-174.9028
7500.000000	119.785	-175.3189
7620.000000	120.657	-177.5910
7750.000000	121.665	176.6346
7880.000000	122.480	166.1868
8000.000000	122.734	152.5500
8120.000000	122.294	137.5410
8250.000000	121.074	123.8351
8380.000000	119.376	115.1737
8500.000000	117.667	111.3168
8620.000000	116.001	110.2430
8750.000000	114.339	111.1018
8850.000000	113.179	112.7043
9000.000000	111.629	116.1271
9120.000000	110.537	119.4829
9250.000000	109.487	123.5473
9380.000000	108.559	127.9419
9500.000000	107.800	132.2132
9620.000000	107.128	136.6388
9750.000000	106.490	141.5611
9880.000000	105.939	146.5759
10000.000000	105.501	151.2640
10150.000000	105.042	157.1802
10300.000000	104.679	163.1356
10440.000000	104.425	168.7184
10600.000000	104.233	175.1060
10750.000000	104.147	-178.9263
10900.000000	104.157	-172.9949
11060.000000	104.276	-166.7557
11200.000000	104.474	-161.3968
11380.000000	104.870	-154.7084
11500.000000	105.230	-150.4225
11720.000000	106.122	-143.1021
11800.000000	106.532	-140.6805
12060.000000	108.246	-134.2544
12200.000000	109.443	-132.2858
12410.000000	111.560	-133.0577
12500.000000	112.503	-135.5026
12650.000000	113.890	-143.4508
12800.000000	114.718	-156.2707
13150.000000	113.437	171.8849
13200.000000	112.954	169.0613
13400.000000	110.769	163.1902
13600.000000	108.686	163.5870
13800.000000	107.036	167.2340
14000.000000	105.841	172.2518
14300.000000	104.700	-179.5502
14500.000000	104.258	-173.9737
14750.000000	104.049	-166.9466
15000.000000	104.294	-160.2609
15250.000000	105.114	-154.8285
15500.000000	106.610	-152.6533
15750.000000	108.495	-157.8490
16000.000000	109.724	-174.5983
16250.000000	109.197	162.4045
16500.000000	106.875	146.7599
16750.000000	103.745	142.7557
17000.000000	100.857	145.8228
17250.000000	98.588	151.8832
17500.000000	96.859	159.3454
17750.000000	95.590	167.5300
18000.000000	94.776	175.6526
18250.000000	94.407	-177.4333
18500.000000	94.389	-173.3198
18750.000000	94.431	-173.6973
19000.000000	94.041	-178.8392
19250.000000	92.770	174.7310
19500.000000	90.540	172.6588
19750.000000	87.792	176.5652
20000.000000	85.786	-178.9604
