* Measurement data measured by REW V5.20.13
* Source: EXCL: Mic in at rear panel (Pink)(Realtek(R) Audio), MICROPHONE (마스), L, volume: 1.000
* Format: 256k Log Swept Sine, 1 sweep at -12.0 dBFS with no timing reference
* Dated: 2022. 12. 24 오후 6:33:56
* REW Settings:
*  C-weighting compensation: Off
*  Target level: 75.0 dB
* Note: 
* Measurement: L_111_SD++
* Smoothing: 1/24 octave
* Frequency Step: 1/48 octave
* Start Frequency: 20.300 Hz
*
* Freq(Hz)	SPL(dB)	Phase(degrees)
20.299999	88.449	-171.8827
20.600000	88.437	-172.0311
20.900000	88.416	-172.2667
21.200001	88.409	-172.4285
21.400000	88.414	-172.5428
21.799999	88.439	-172.9025
22.000000	88.451	-173.1827
22.400000	88.459	-173.9240
22.700001	88.440	-174.5408
23.000000	88.404	-175.0987
23.299999	88.362	-175.5422
23.600000	88.330	-175.8855
24.000000	88.313	-176.2849
24.299999	88.319	-176.6384
24.700001	88.332	-177.2379
25.000000	88.331	-177.7367
25.400000	88.312	-178.3349
25.799999	88.288	-178.7374
26.200001	88.285	-178.9736
26.500000	88.302	-179.1424
26.900000	88.338	-179.4849
27.200001	88.361	-179.8614
27.600000	88.365	179.5416
28.000000	88.336	178.9962
28.500000	88.276	178.5736
29.000000	88.231	178.3976
29.500000	88.217	178.2370
30.000000	88.214	177.9171
30.400000	88.204	177.5604
30.700001	88.190	177.2739
31.100000	88.165	176.9059
31.500000	88.140	176.5585
32.000000	88.112	176.1179
32.500000	88.089	175.6308
33.000000	88.065	175.0972
33.500000	88.040	174.5460
34.000000	88.011	174.0092
34.500000	87.979	173.5150
35.000000	87.948	173.0808
35.500000	87.924	172.6907
36.000000	87.907	172.2954
36.500000	87.887	171.8694
37.000000	87.854	171.4728
37.500000	87.813	171.2142
38.200001	87.781	171.1075
38.700001	87.798	171.0056
39.500000	87.841	170.3445
40.000000	87.828	169.7224
40.599998	87.763	169.1176
41.200001	87.689	168.8786
41.799999	87.655	168.8704
42.500000	87.681	168.7142
43.099998	87.714	168.1749
43.700001	87.698	167.3729
44.400002	87.599	166.6540
45.000000	87.506	166.5449
45.500000	87.473	166.6360
46.200001	87.487	166.5313
46.799999	87.493	166.1083
47.500000	87.461	165.5900
48.200001	87.427	165.2273
48.700001	87.412	164.9727
49.400002	87.393	164.5497
50.000000	87.372	164.1768
50.799999	87.344	163.6491
51.500000	87.308	163.1137
52.200001	87.247	162.6346
53.000000	87.168	162.3126
53.799999	87.111	162.1538
54.500000	87.084	162.0179
55.200001	87.075	161.7898
56.000000	87.070	161.3206
57.000000	87.021	160.5555
58.000000	86.930	160.0618
59.000000	86.860	159.8863
60.000000	86.825	159.7474
60.799999	86.814	159.5356
61.500000	86.803	159.2174
62.200001	86.773	158.8204
63.000000	86.715	158.4089
64.000000	86.628	158.0850
65.000000	86.557	157.9308
66.000000	86.519	157.7950
67.000000	86.507	157.5075
68.000000	86.490	156.9644
69.000000	86.428	156.3704
70.000000	86.338	156.0521
71.000000	86.266	155.9833
72.000000	86.227	155.9508
73.000000	86.211	155.7617
74.000000	86.188	155.3317
75.000000	86.132	154.8210
76.199997	86.033	154.3902
77.500000	85.937	154.2657
78.800003	85.890	154.2368
80.000000	85.874	154.0497
81.199997	85.852	153.6005
82.500000	85.771	152.9998
83.800003	85.655	152.7071
85.000000	85.574	152.7101
86.199997	85.542	152.7485
87.500000	85.540	152.5831
88.500000	85.534	152.3002
90.000000	85.479	151.7646
91.199997	85.383	151.4277
92.500000	85.249	151.3372
93.800003	85.133	151.4596
95.000000	85.059	151.5090
96.199997	85.005	151.4542
97.500000	84.987	151.3102
98.800003	84.996	150.8751
100.000000	84.989	150.2987
101.500000	84.936	149.5358
103.000000	84.821	148.9734
104.400002	84.684	148.8083
106.000000	84.544	149.0362
107.500000	84.462	149.4560
109.000000	84.438	149.8928
110.599998	84.464	150.1088
112.000000	84.492	149.9489
113.800003	84.495	149.3386
115.000000	84.466	148.7767
117.199997	84.351	147.7571
118.000000	84.296	147.4562
120.599998	84.092	146.8699
122.000000	83.984	146.8288
124.099998	83.843	146.8979
125.000000	83.785	146.9414
126.500000	83.689	147.0504
128.000000	83.598	147.2024
131.500000	83.403	147.5840
132.000000	83.377	147.6558
134.000000	83.293	147.9500
136.000000	83.219	148.1469
138.000000	83.130	148.3929
140.000000	83.039	148.7607
143.000000	82.933	149.1696
145.000000	82.861	149.3216
147.500000	82.761	149.6225
150.000000	82.632	150.0208
152.500000	82.463	150.4770
155.000000	82.311	150.9040
157.500000	82.204	151.1460
160.000000	82.124	151.1364
162.500000	82.069	150.7297
165.000000	82.051	149.8292
167.500000	82.089	148.6761
170.000000	82.175	147.5171
172.500000	82.293	146.6368
175.000000	82.431	146.2734
177.500000	82.558	146.6266
180.000000	82.626	147.5580
182.500000	82.585	148.6095
185.000000	82.434	149.3743
187.500000	82.232	149.5580
190.000000	82.052	149.1115
192.500000	81.954	148.3412
195.000000	81.950	147.7713
197.500000	81.983	147.7607
200.000000	81.971	148.2390
203.000000	81.858	148.7711
206.000000	81.719	148.6079
209.000000	81.656	148.1400
212.000000	81.646	148.2274
214.000000	81.615	148.5631
218.000000	81.471	148.9155
220.000000	81.414	148.8304
224.000000	81.375	148.8061
227.000000	81.312	149.0178
230.000000	81.225	149.1110
233.000000	81.178	149.1538
236.000000	81.141	149.3763
240.000000	81.049	149.6805
243.000000	80.990	149.7703
247.000000	80.914	149.9031
250.000000	80.844	150.0193
254.000000	80.780	150.2561
258.000000	80.717	150.5961
262.000000	80.642	150.7899
265.000000	80.594	150.9006
269.000000	80.538	151.0765
272.000000	80.498	151.2396
276.000000	80.443	151.5316
280.000000	80.378	151.8526
285.000000	80.304	152.1182
290.000000	80.242	152.3288
295.000000	80.175	152.6519
300.000000	80.111	152.9849
304.000000	80.069	153.3199
307.000000	80.035	153.5979
311.000000	79.981	153.9174
315.000000	79.931	154.1501
320.000000	79.884	154.4553
325.000000	79.835	154.8194
330.000000	79.784	155.1974
335.000000	79.742	155.5974
340.000000	79.705	155.9658
345.000000	79.664	156.2484
350.000000	79.616	156.5231
355.000000	79.572	156.8799
360.000000	79.537	157.2854
365.000000	79.509	157.6680
370.000000	79.478	158.0384
375.000000	79.445	158.4028
382.000000	79.390	158.8771
387.000000	79.345	159.2547
395.000000	79.281	159.8155
400.000000	79.249	160.1434
406.000000	79.207	160.5609
412.000000	79.161	160.9969
418.000000	79.117	161.4297
425.000000	79.079	161.8941
431.000000	79.049	162.3199
437.000000	79.023	162.8373
444.000000	78.994	163.4543
450.000000	78.971	163.8823
455.000000	78.961	164.2179
462.000000	78.947	164.6662
468.000000	78.933	165.0816
475.000000	78.916	165.6266
482.000000	78.891	166.1084
487.000000	78.876	166.4371
494.000000	78.862	166.8822
500.000000	78.855	167.2536
508.000000	78.854	167.7984
515.000000	78.848	168.2679
522.000000	78.836	168.7206
530.000000	78.823	169.1931
538.000000	78.809	169.6925
545.000000	78.796	170.1451
552.000000	78.787	170.5984
560.000000	78.781	171.1579
570.000000	78.786	171.7881
580.000000	78.793	172.4372
590.000000	78.780	173.1811
600.000000	78.765	173.8975
608.000000	78.755	174.3813
615.000000	78.752	174.8378
622.000000	78.757	175.3317
630.000000	78.768	175.8792
640.000000	78.778	176.5587
650.000000	78.778	177.3127
660.000000	78.788	178.0361
670.000000	78.807	178.7851
680.000000	78.830	179.5143
690.000000	78.849	-179.7583
700.000000	78.868	-179.0493
710.000000	78.884	-178.3387
720.000000	78.908	-177.6418
730.000000	78.941	-176.9622
740.000000	78.980	-176.2764
750.000000	79.018	-175.5777
762.000000	79.062	-174.7380
775.000000	79.123	-173.7959
788.000000	79.186	-172.8697
800.000000	79.247	-172.0291
812.000000	79.308	-171.1905
825.000000	79.381	-170.2932
838.000000	79.466	-169.4153
850.000000	79.552	-168.6140
862.000000	79.642	-167.8620
875.000000	79.739	-167.1162
885.000000	79.822	-166.5276
900.000000	79.953	-165.6240
912.000000	80.056	-164.9210
925.000000	80.170	-164.1922
938.000000	80.294	-163.4926
950.000000	80.417	-162.8894
962.000000	80.541	-162.3018
975.000000	80.676	-161.6935
988.000000	80.815	-161.1624
1000.000000	80.948	-160.7259
1015.000000	81.111	-160.1702
1030.000000	81.280	-159.6403
1044.000000	81.444	-159.2232
1060.000000	81.632	-158.7852
1075.000000	81.804	-158.4064
1090.000000	81.979	-158.0847
1106.000000	82.174	-157.7802
1120.000000	82.350	-157.5635
1138.000000	82.576	-157.3425
1150.000000	82.724	-157.2195
1172.000000	82.999	-157.0472
1180.000000	83.101	-157.0007
1206.000000	83.427	-156.9124
1220.000000	83.601	-156.8934
1241.000000	83.863	-156.9295
1250.000000	83.976	-156.9597
1265.000000	84.164	-157.0231
1280.000000	84.353	-157.1247
1315.000000	84.796	-157.5208
1320.000000	84.860	-157.5902
1340.000000	85.114	-157.8876
1360.000000	85.363	-158.2328
1380.000000	85.613	-158.6661
1400.000000	85.868	-159.1922
1430.000000	86.255	-160.0544
1450.000000	86.509	-160.7294
1475.000000	86.826	-161.7229
1500.000000	87.138	-162.8645
1525.000000	87.441	-164.1273
1550.000000	87.733	-165.5456
1575.000000	88.016	-167.1151
1600.000000	88.283	-168.8316
1625.000000	88.531	-170.7037
1650.000000	88.752	-172.6900
1675.000000	88.943	-174.8079
1700.000000	89.105	-177.0311
1725.000000	89.233	-179.3226
1750.000000	89.324	178.3565
1775.000000	89.375	176.0505
1800.000000	89.387	173.8343
1825.000000	89.376	171.7683
1850.000000	89.354	169.7779
1875.000000	89.308	167.7946
1900.000000	89.232	165.8920
1925.000000	89.132	164.1357
1950.000000	89.012	162.5289
1975.000000	88.874	161.0778
2000.000000	88.721	159.7927
2030.000000	88.518	158.4915
2060.000000	88.300	157.5425
2090.000000	88.090	157.0139
2120.000000	87.916	156.7819
2140.000000	87.825	156.6845
2180.000000	87.674	156.5139
2200.000000	87.605	156.4478
2240.000000	87.479	156.4090
2270.000000	87.400	156.4691
2300.000000	87.337	156.5912
2330.000000	87.291	156.7466
2360.000000	87.264	156.9237
2400.000000	87.256	157.1906
2430.000000	87.271	157.3894
2470.000000	87.324	157.5988
2500.000000	87.390	157.6767
2540.000000	87.501	157.6367
2580.000000	87.635	157.3580
2620.000000	87.782	156.7794
2650.000000	87.892	156.1301
2690.000000	88.030	154.9760
2720.000000	88.120	153.9074
2760.000000	88.209	152.2228
2800.000000	88.247	150.2860
2850.000000	88.210	147.6384
2900.000000	88.066	144.9543
2950.000000	87.808	142.4655
3000.000000	87.450	140.4362
3040.000000	87.117	139.2654
3070.000000	86.849	138.6765
3110.000000	86.477	138.2850
3150.000000	86.104	138.3367
3200.000000	85.650	138.9998
3250.000000	85.231	140.2425
3300.000000	84.863	141.9471
3350.000000	84.555	144.0377
3400.000000	84.315	146.3900
3450.000000	84.147	148.9120
3500.000000	84.049	151.5614
3550.000000	84.018	154.2418
3600.000000	84.047	156.8934
3650.000000	84.129	159.4537
3700.000000	84.260	161.9028
3750.000000	84.433	164.2428
3820.000000	84.736	167.2892
3870.000000	84.990	169.3053
3950.000000	85.470	172.1682
4000.000000	85.820	173.6565
4060.000000	86.282	175.0454
4120.000000	86.775	175.9124
4180.000000	87.281	176.2083
4250.000000	87.862	175.8326
4310.000000	88.325	174.9070
4370.000000	88.735	173.4672
4440.000000	89.131	171.2524
4500.000000	89.391	169.0060
4550.000000	89.545	166.9711
4620.000000	89.663	164.0070
4680.000000	89.673	161.4883
4750.000000	89.582	158.7452
4820.000000	89.387	156.3964
4870.000000	89.192	155.0933
4940.000000	88.866	153.9391
5000.000000	88.573	153.6099
5080.000000	88.218	154.0305
5150.000000	87.979	154.9652
5220.000000	87.819	156.1462
5300.000000	87.722	157.5096
5380.000000	87.694	158.6934
5450.000000	87.703	159.5070
5520.000000	87.726	160.0943
5600.000000	87.749	160.5020
5700.000000	87.749	160.6889
5800.000000	87.696	160.6758
5900.000000	87.578	160.6796
6000.000000	87.395	160.9124
6080.000000	87.215	161.4064
6150.000000	87.041	162.1159
6220.000000	86.864	163.1020
6300.000000	86.673	164.5723
6400.000000	86.464	166.8820
6500.000000	86.306	169.6367
6600.000000	86.217	172.7472
6700.000000	86.206	176.0978
6800.000000	86.286	179.6228
6900.000000	86.480	-176.7668
7000.000000	86.805	-173.1972
7100.000000	87.254	-169.8457
7200.000000	87.824	-166.9436
7300.000000	88.505	-164.7424
7400.000000	89.268	-163.5127
7500.000000	90.072	-163.5092
7620.000000	91.016	-165.3577
7750.000000	91.864	-169.5738
7880.000000	92.347	-175.4295
8000.000000	92.453	178.5852
8120.000000	92.278	172.7396
8250.000000	91.820	167.0247
8380.000000	91.120	162.2404
8500.000000	90.284	158.9601
8620.000000	89.299	157.0853
8750.000000	88.128	156.8579
8850.000000	87.208	157.9500
9000.000000	85.896	161.3929
9120.000000	84.966	165.3779
9250.000000	84.118	170.5422
9380.000000	83.450	176.1884
9500.000000	82.986	-178.5070
9620.000000	82.657	-173.3687
9750.000000	82.422	-168.2198
9880.000000	82.277	-163.7051
10000.000000	82.187	-160.1855
10150.000000	82.072	-156.7243
10300.000000	81.879	-154.1846
10440.000000	81.576	-152.3165
10600.000000	81.052	-150.2544
10750.000000	80.390	-147.8580
10900.000000	79.600	-144.5880
11060.000000	78.682	-139.8813
11200.000000	77.865	-134.7156
11380.000000	76.850	-126.7725
11500.000000	76.223	-120.7447
11720.000000	75.236	-108.3648
11800.000000	74.943	-103.5509
12060.000000	74.262	-87.2099
12200.000000	74.060	-78.1235
12410.000000	73.966	-64.4337
12500.000000	74.010	-58.6305
12650.000000	74.208	-49.1969
12800.000000	74.568	-40.2093
13150.000000	76.078	-21.9427
13200.000000	76.376	-19.7662
13400.000000	77.790	-12.9045
13600.000000	79.438	-10.7024
13800.000000	80.843	-15.6896
14000.000000	81.298	-27.5641
14300.000000	79.490	-44.1999
14500.000000	77.137	-46.5201
14750.000000	73.985	-40.5293
15000.000000	71.216	-28.9491
15250.000000	68.957	-14.4311
15500.000000	67.156	2.0200
15750.000000	65.770	20.0992
16000.000000	64.807	40.0735
16250.000000	64.456	62.2522
16500.000000	65.231	85.0687
16750.000000	67.261	103.7031
17000.000000	69.467	112.3821
17250.000000	70.761	111.9879
17500.000000	71.087	110.0931
17750.000000	71.018	110.5845
18000.000000	70.908	112.0647
18250.000000	70.705	112.9292
18500.000000	70.310	113.2359
18750.000000	69.714	113.3027
19000.000000	68.898	113.3534
19250.000000	67.829	114.0902
19500.000000	66.544	116.1774
19750.000000	65.228	119.4006
20000.000000	64.291	122.0432
