* Measurement data measured by REW V5.20.13
* Source: EXCL: Mic in at rear panel (Pink)(Realtek(R) Audio), MICROPHONE (마스), L, volume: 1.000
* Format: 256k Log Swept Sine, 1 sweep at -12.0 dBFS with no timing reference
* Dated: 2022. 12. 24 오후 6:26:10
* REW Settings:
*  C-weighting compensation: Off
*  Target level: 75.0 dB
* Note: 
* Measurement: R_011
* Smoothing: 1/24 octave
* Frequency Step: 1/48 octave
* Start Frequency: 20.300 Hz
*
* Freq(Hz)	SPL(dB)	Phase(degrees)
20.299999	85.593	-170.0762
20.600000	85.598	-170.1544
20.900000	85.610	-170.3183
21.200001	85.624	-170.5473
21.400000	85.632	-170.7504
21.799999	85.635	-171.2662
22.000000	85.627	-171.5600
22.400000	85.595	-172.1543
22.700001	85.560	-172.5633
23.000000	85.525	-172.9246
23.299999	85.494	-173.2491
23.600000	85.471	-173.5545
24.000000	85.455	-173.9625
24.299999	85.454	-174.2896
24.700001	85.465	-174.7753
25.000000	85.478	-175.1886
25.400000	85.497	-175.8078
25.799999	85.508	-176.4741
26.200001	85.506	-177.1185
26.500000	85.497	-177.5432
26.900000	85.483	-178.0070
27.200001	85.475	-178.2932
27.600000	85.474	-178.6444
28.000000	85.480	-179.0199
28.500000	85.483	-179.5441
29.000000	85.473	179.9302
29.500000	85.457	179.4443
30.000000	85.438	178.9627
30.400000	85.419	178.5558
30.700001	85.399	178.2501
31.100000	85.364	177.8829
31.500000	85.327	177.5924
32.000000	85.290	177.3201
32.500000	85.271	177.0588
33.000000	85.264	176.7322
33.500000	85.261	176.3474
34.000000	85.258	175.9428
34.500000	85.255	175.5291
35.000000	85.249	175.1061
35.500000	85.239	174.6984
36.000000	85.230	174.3247
36.500000	85.226	173.9532
37.000000	85.220	173.5298
37.500000	85.201	173.0646
38.200001	85.145	172.5239
38.700001	85.100	172.3109
39.500000	85.068	172.0938
40.000000	85.067	171.8510
40.599998	85.061	171.3959
41.200001	85.032	170.8920
41.799999	84.989	170.4793
42.500000	84.949	170.1097
43.099998	84.929	169.7681
43.700001	84.908	169.3731
44.400002	84.877	168.9219
45.000000	84.852	168.5494
45.500000	84.826	168.2247
46.200001	84.777	167.8465
46.799999	84.739	167.7208
47.500000	84.743	167.6486
48.200001	84.781	167.2709
48.700001	84.791	166.7982
49.400002	84.757	166.1689
50.000000	84.711	165.8530
50.799999	84.672	165.6188
51.500000	84.651	165.3924
52.200001	84.628	165.1422
53.000000	84.598	164.8804
53.799999	84.572	164.6100
54.500000	84.547	164.3035
55.200001	84.511	163.9347
56.000000	84.452	163.5696
57.000000	84.392	163.2572
58.000000	84.353	162.8333
59.000000	84.298	162.4011
60.000000	84.259	162.0730
60.799999	84.240	161.7018
61.500000	84.213	161.2993
62.200001	84.169	160.9163
63.000000	84.107	160.5858
64.000000	84.038	160.3507
65.000000	83.994	160.0716
66.000000	83.932	159.6918
67.000000	83.862	159.5737
68.000000	83.844	159.5131
69.000000	83.839	159.1969
70.000000	83.819	158.7838
71.000000	83.784	158.3412
72.000000	83.734	157.9680
73.000000	83.689	157.6501
74.000000	83.640	157.2831
75.000000	83.576	156.9993
76.199997	83.513	156.7948
77.500000	83.463	156.5128
78.800003	83.403	156.1422
80.000000	83.335	155.8638
81.199997	83.284	155.6376
82.500000	83.234	155.2650
83.800003	83.169	154.9381
85.000000	83.112	154.7784
86.199997	83.064	154.6942
87.500000	83.018	154.5793
88.500000	82.969	154.4203
90.000000	82.864	154.2795
91.199997	82.799	154.3379
92.500000	82.783	154.2194
93.800003	82.752	153.7208
95.000000	82.687	153.4931
96.199997	82.664	153.4811
97.500000	82.660	153.1628
98.800003	82.590	152.6902
100.000000	82.496	152.5557
101.500000	82.420	152.4848
103.000000	82.363	152.2643
104.400002	82.318	152.0220
106.000000	82.264	151.7704
107.500000	82.217	151.6337
109.000000	82.175	151.4545
110.599998	82.121	151.1932
112.000000	82.074	150.9325
113.800003	82.010	150.5581
115.000000	81.959	150.3819
117.199997	81.871	150.3094
118.000000	81.843	150.3055
120.599998	81.734	150.2271
122.000000	81.681	150.2191
124.099998	81.630	149.9464
125.000000	81.602	149.7168
126.500000	81.526	149.3558
128.000000	81.435	149.2694
131.500000	81.308	149.3069
132.000000	81.288	149.3064
134.000000	81.216	149.3979
136.000000	81.149	149.5533
138.000000	81.091	149.7166
140.000000	81.038	149.7345
143.000000	80.942	149.7131
145.000000	80.890	149.6942
147.500000	80.821	149.4888
150.000000	80.747	149.2901
152.500000	80.689	149.2219
155.000000	80.639	149.2980
157.500000	80.583	149.3226
160.000000	80.519	149.1664
162.500000	80.462	149.0278
165.000000	80.429	148.9846
167.500000	80.384	148.9053
170.000000	80.304	148.8043
172.500000	80.213	148.6787
175.000000	80.131	148.5870
177.500000	80.063	148.5654
180.000000	79.987	148.5818
182.500000	79.898	148.6389
185.000000	79.810	148.7087
187.500000	79.734	148.7751
190.000000	79.663	148.8073
192.500000	79.577	148.8655
195.000000	79.480	149.0649
197.500000	79.390	149.4575
200.000000	79.317	150.0159
203.000000	79.271	150.7530
206.000000	79.283	151.3908
209.000000	79.341	151.7946
212.000000	79.390	151.9006
214.000000	79.403	151.8397
218.000000	79.391	151.4903
220.000000	79.373	151.2998
224.000000	79.321	150.9932
227.000000	79.267	150.7328
230.000000	79.200	150.4336
233.000000	79.132	150.2697
236.000000	79.074	150.2966
240.000000	78.987	150.4202
243.000000	78.922	150.5052
247.000000	78.868	150.5881
250.000000	78.824	150.6224
254.000000	78.730	150.7172
258.000000	78.634	150.8536
262.000000	78.558	151.0093
265.000000	78.512	151.1608
269.000000	78.449	151.4203
272.000000	78.394	151.5905
276.000000	78.318	151.6929
280.000000	78.259	151.8568
285.000000	78.192	152.1973
290.000000	78.134	152.4716
295.000000	78.082	152.7288
300.000000	78.018	152.9543
304.000000	77.971	153.1603
307.000000	77.934	153.3419
311.000000	77.882	153.5934
315.000000	77.833	153.8419
320.000000	77.780	154.1373
325.000000	77.738	154.3858
330.000000	77.697	154.6613
335.000000	77.647	155.0113
340.000000	77.584	155.2314
345.000000	77.533	155.4989
350.000000	77.494	155.8690
355.000000	77.456	156.2755
360.000000	77.412	156.7244
365.000000	77.364	157.0879
370.000000	77.317	157.2866
375.000000	77.282	157.5334
382.000000	77.242	158.0829
387.000000	77.205	158.4563
395.000000	77.147	158.9286
400.000000	77.113	159.2744
406.000000	77.086	159.6045
412.000000	77.070	159.8851
418.000000	77.036	160.2662
425.000000	76.996	160.6916
431.000000	76.971	161.0281
437.000000	76.943	161.3884
444.000000	76.909	161.7086
450.000000	76.876	161.9647
455.000000	76.845	162.2841
462.000000	76.800	162.7173
468.000000	76.778	162.9962
475.000000	76.759	163.3516
482.000000	76.725	163.8043
487.000000	76.698	164.1423
494.000000	76.667	164.5921
500.000000	76.643	164.9870
508.000000	76.614	165.4977
515.000000	76.590	165.8950
522.000000	76.566	166.3105
530.000000	76.539	166.8465
538.000000	76.517	167.3999
545.000000	76.507	167.8661
552.000000	76.503	168.3135
560.000000	76.490	168.8145
570.000000	76.461	169.5318
580.000000	76.452	170.2334
590.000000	76.452	170.8224
600.000000	76.453	171.4718
608.000000	76.451	172.0654
615.000000	76.446	172.6298
622.000000	76.445	173.1885
630.000000	76.445	173.7460
640.000000	76.440	174.3026
650.000000	76.445	174.9185
660.000000	76.472	175.6694
670.000000	76.485	176.3759
680.000000	76.488	176.9982
690.000000	76.508	177.6539
700.000000	76.527	178.4159
710.000000	76.544	179.1822
720.000000	76.569	179.8933
730.000000	76.595	-179.4127
740.000000	76.622	-178.7080
750.000000	76.652	-178.0486
762.000000	76.690	-177.2494
775.000000	76.745	-176.3906
788.000000	76.807	-175.4633
800.000000	76.857	-174.6546
812.000000	76.910	-173.8724
825.000000	76.987	-173.0117
838.000000	77.073	-172.1461
850.000000	77.152	-171.3402
862.000000	77.237	-170.5753
875.000000	77.333	-169.8022
885.000000	77.410	-169.2043
900.000000	77.530	-168.3400
912.000000	77.626	-167.6627
925.000000	77.736	-166.9058
938.000000	77.852	-166.2031
950.000000	77.966	-165.6483
962.000000	78.082	-165.1137
975.000000	78.207	-164.4857
988.000000	78.332	-163.8335
1000.000000	78.458	-163.3041
1015.000000	78.638	-162.8234
1030.000000	78.812	-162.4173
1044.000000	78.965	-162.0358
1060.000000	79.146	-161.6291
1075.000000	79.313	-161.2528
1090.000000	79.482	-160.8990
1106.000000	79.675	-160.6021
1120.000000	79.843	-160.3912
1138.000000	80.060	-160.1704
1150.000000	80.207	-160.0437
1172.000000	80.476	-159.8179
1180.000000	80.574	-159.7673
1206.000000	80.889	-159.7008
1220.000000	81.061	-159.6801
1241.000000	81.313	-159.7118
1250.000000	81.418	-159.7394
1265.000000	81.592	-159.7990
1280.000000	81.773	-159.8793
1315.000000	82.202	-160.2115
1320.000000	82.262	-160.2671
1340.000000	82.500	-160.5047
1360.000000	82.736	-160.8314
1380.000000	82.973	-161.2393
1400.000000	83.216	-161.7049
1430.000000	83.580	-162.5080
1450.000000	83.822	-163.1252
1475.000000	84.120	-163.9818
1500.000000	84.416	-164.9703
1525.000000	84.707	-166.1048
1550.000000	84.987	-167.3443
1575.000000	85.255	-168.7180
1600.000000	85.507	-170.2477
1625.000000	85.742	-171.9046
1650.000000	85.958	-173.6564
1675.000000	86.145	-175.5078
1700.000000	86.304	-177.4599
1725.000000	86.432	-179.4848
1750.000000	86.522	178.4774
1775.000000	86.581	176.4946
1800.000000	86.613	174.5745
1825.000000	86.616	172.6842
1850.000000	86.583	170.9297
1875.000000	86.528	169.4786
1900.000000	86.482	168.2578
1925.000000	86.449	167.0466
1950.000000	86.405	165.8000
1975.000000	86.343	164.5998
2000.000000	86.263	163.5147
2030.000000	86.153	162.4177
2060.000000	86.041	161.5262
2090.000000	85.932	160.8091
2120.000000	85.829	160.2955
2140.000000	85.765	160.0492
2180.000000	85.654	159.7186
2200.000000	85.608	159.6311
2240.000000	85.534	159.6147
2270.000000	85.498	159.6917
2300.000000	85.488	159.8116
2330.000000	85.502	159.9723
2360.000000	85.536	160.1400
2400.000000	85.612	160.3129
2430.000000	85.697	160.3942
2470.000000	85.841	160.3672
2500.000000	85.969	160.2030
2540.000000	86.164	159.7572
2580.000000	86.377	158.9905
2620.000000	86.593	157.8242
2650.000000	86.746	156.6810
2690.000000	86.924	154.7861
2720.000000	87.026	153.0909
2760.000000	87.105	150.5312
2800.000000	87.107	147.7629
2850.000000	86.982	144.2299
2900.000000	86.718	140.9391
2950.000000	86.333	138.1837
3000.000000	85.856	136.1335
3040.000000	85.436	135.0914
3070.000000	85.110	134.6489
3110.000000	84.673	134.4927
3150.000000	84.247	134.8095
3200.000000	83.746	135.8162
3250.000000	83.299	137.3466
3300.000000	82.910	139.3376
3350.000000	82.573	141.6688
3400.000000	82.296	144.2148
3450.000000	82.091	146.9646
3500.000000	81.955	149.8934
3550.000000	81.882	152.9171
3600.000000	81.864	155.9565
3650.000000	81.900	158.9933
3700.000000	81.990	162.0136
3750.000000	82.139	164.9823
3820.000000	82.442	168.9630
3870.000000	82.715	171.5895
3950.000000	83.228	175.2718
4000.000000	83.594	177.2500
4060.000000	84.072	179.2483
4120.000000	84.589	-179.2271
4180.000000	85.132	-178.2253
4250.000000	85.780	-177.7640
4310.000000	86.322	-178.0427
4370.000000	86.825	-178.9604
4440.000000	87.336	179.2086
4500.000000	87.686	177.0548
4550.000000	87.904	174.9653
4620.000000	88.075	171.8309
4680.000000	88.094	169.1483
4750.000000	87.974	166.3220
4820.000000	87.719	164.1631
4870.000000	87.477	163.1788
4940.000000	87.097	162.6764
5000.000000	86.778	163.0180
5080.000000	86.414	164.3759
5150.000000	86.176	166.1368
5220.000000	86.017	168.1759
5300.000000	85.926	170.6249
5380.000000	85.920	173.0396
5450.000000	85.971	175.0623
5520.000000	86.064	176.9391
5600.000000	86.213	178.8584
5700.000000	86.447	-179.1710
5800.000000	86.701	-177.7495
5900.000000	86.942	-176.9050
6000.000000	87.129	-176.5345
6080.000000	87.221	-176.4330
6150.000000	87.258	-176.3655
6220.000000	87.254	-176.2094
6300.000000	87.207	-175.8350
6400.000000	87.102	-174.9655
6500.000000	86.973	-173.5095
6600.000000	86.856	-171.4667
6700.000000	86.782	-168.9002
6800.000000	86.784	-165.9144
6900.000000	86.897	-162.6679
7000.000000	87.135	-159.3271
7100.000000	87.494	-156.0892
7200.000000	87.968	-153.2120
7300.000000	88.540	-150.9931
7400.000000	89.174	-149.6714
7500.000000	89.820	-149.4091
7620.000000	90.544	-150.4952
7750.000000	91.169	-153.0370
7880.000000	91.529	-156.3383
8000.000000	91.667	-159.6171
8120.000000	91.671	-163.0051
8250.000000	91.528	-166.8705
8380.000000	91.190	-170.8944
8500.000000	90.661	-174.3541
8620.000000	89.916	-176.9769
8750.000000	88.915	-178.3085
8850.000000	88.070	-178.0822
9000.000000	86.798	-175.8001
9120.000000	85.853	-172.5805
9250.000000	84.954	-168.1221
9380.000000	84.208	-163.0829
9500.000000	83.659	-158.2160
9620.000000	83.235	-153.4214
9750.000000	82.887	-148.6683
9880.000000	82.601	-144.5712
10000.000000	82.338	-141.3947
10150.000000	81.941	-138.0923
10300.000000	81.421	-135.1465
10440.000000	80.801	-132.2377
10600.000000	79.942	-128.1973
10750.000000	79.034	-123.3890
10900.000000	78.086	-117.4301
11060.000000	77.083	-109.7874
11200.000000	76.262	-102.0130
11380.000000	75.377	-90.8070
11500.000000	74.918	-83.0205
11720.000000	74.259	-68.5415
11800.000000	74.071	-63.1199
12060.000000	73.720	-44.9822
12200.000000	73.701	-35.2289
12410.000000	73.868	-21.1054
12500.000000	74.008	-15.3075
12650.000000	74.329	-6.0328
12800.000000	74.753	2.7209
13150.000000	76.198	20.7990
13200.000000	76.469	23.0350
13400.000000	77.740	30.4816
13600.000000	79.229	34.0993
13800.000000	80.560	31.5870
14000.000000	81.095	22.6697
14300.000000	79.599	9.1079
14500.000000	77.459	8.1275
14750.000000	74.561	15.9662
15000.000000	72.100	29.5733
15250.000000	70.222	46.0994
15500.000000	68.922	64.5608
15750.000000	68.251	84.7229
16000.000000	68.414	105.8695
16250.000000	69.727	125.8734
16500.000000	71.947	139.9040
16750.000000	73.923	143.1021
17000.000000	74.672	138.5740
17250.000000	74.323	135.4790
17500.000000	73.687	136.6889
17750.000000	73.215	139.0003
18000.000000	72.754	139.9661
18250.000000	72.001	139.7257
18500.000000	70.822	139.9411
18750.000000	69.262	142.1708
19000.000000	67.498	147.0448
19250.000000	65.780	154.0765
19500.000000	64.288	161.7906
19750.000000	63.062	168.2415
20000.000000	62.221	171.8126
