* Measurement data measured by REW V5.20.13
* Source: EXCL: Microphone(High Definition Audio Device), MICROPHONE (마스), R, volume: 1.000
* Format: 256k Log Swept Sine, 1 sweep at -12.0 dBFS with no timing reference
* Dated: 2023. 4. 13 오후 10:13:17
* REW Settings:
*  C-weighting compensation: Off
*  Target level: 75.0 dB
* Note: 
* Measurement: L
* Smoothing: 1/24 octave
* Frequency Step: 1/48 octave
* Start Frequency: 20.300 Hz
*
* Freq(Hz)	SPL(dB)	Phase(degrees)
20.299999	90.596	-132.8648
20.600000	90.648	-133.7082
20.900000	90.715	-135.1628
21.200001	90.690	-136.3501
21.400000	90.634	-136.8687
21.799999	90.488	-137.2399
22.000000	90.428	-137.1400
22.400000	90.379	-136.6133
22.700001	90.407	-136.2336
23.000000	90.471	-136.1003
23.299999	90.538	-136.2410
23.600000	90.590	-136.5723
24.000000	90.624	-137.1063
24.299999	90.633	-137.4348
24.700001	90.645	-137.7182
25.000000	90.668	-137.8615
25.400000	90.720	-138.0645
25.799999	90.787	-138.3613
26.200001	90.853	-138.7492
26.500000	90.898	-139.0652
26.900000	90.951	-139.4769
27.200001	90.986	-139.7608
27.600000	91.035	-140.1038
28.000000	91.086	-140.4237
28.500000	91.156	-140.8357
29.000000	91.224	-141.2996
29.500000	91.278	-141.7952
30.000000	91.316	-142.2395
30.400000	91.342	-142.5132
30.700001	91.363	-142.6732
31.100000	91.398	-142.8608
31.500000	91.438	-143.0596
32.000000	91.491	-143.3569
32.500000	91.538	-143.6920
33.000000	91.582	-144.0274
33.500000	91.625	-144.3504
34.000000	91.669	-144.6642
34.500000	91.712	-144.9626
35.000000	91.755	-145.2344
35.500000	91.804	-145.4879
36.000000	91.860	-145.7574
36.500000	91.919	-146.0721
37.000000	91.972	-146.4220
37.500000	92.019	-146.7639
38.200001	92.082	-147.1913
38.700001	92.128	-147.5058
39.500000	92.183	-148.0648
40.000000	92.202	-148.3251
40.599998	92.231	-148.4556
41.200001	92.295	-148.5736
41.799999	92.369	-148.9323
42.500000	92.409	-149.5509
43.099998	92.403	-149.8610
43.700001	92.413	-149.8670
44.400002	92.484	-149.8465
45.000000	92.568	-150.0896
45.500000	92.626	-150.4616
46.200001	92.677	-151.0519
46.799999	92.703	-151.4937
47.500000	92.733	-151.9106
48.200001	92.771	-152.2775
48.700001	92.802	-152.5342
49.400002	92.847	-152.8873
50.000000	92.887	-153.1740
50.799999	92.943	-153.5257
51.500000	92.996	-153.8346
52.200001	93.044	-154.1813
53.000000	93.081	-154.5166
53.799999	93.125	-154.6541
54.500000	93.196	-154.8158
55.200001	93.267	-155.2388
56.000000	93.303	-155.8406
57.000000	93.318	-156.2944
58.000000	93.361	-156.6003
59.000000	93.414	-156.9736
60.000000	93.462	-157.4103
60.799999	93.491	-157.7566
61.500000	93.514	-158.0093
62.200001	93.541	-158.2367
63.000000	93.576	-158.5090
64.000000	93.621	-158.8750
65.000000	93.669	-159.2921
66.000000	93.714	-159.7932
67.000000	93.747	-160.2965
68.000000	93.777	-160.7564
69.000000	93.803	-161.1727
70.000000	93.833	-161.5054
71.000000	93.874	-161.8538
72.000000	93.909	-162.2589
73.000000	93.936	-162.6606
74.000000	93.962	-163.0494
75.000000	93.991	-163.4532
76.199997	94.020	-164.0036
77.500000	94.039	-164.5255
78.800003	94.071	-164.9427
80.000000	94.110	-165.3757
81.199997	94.137	-165.8249
82.500000	94.160	-166.2130
83.800003	94.187	-166.5529
85.000000	94.213	-166.8507
86.199997	94.238	-167.1527
87.500000	94.270	-167.4411
88.500000	94.313	-167.7673
90.000000	94.344	-168.5910
91.199997	94.333	-169.1554
92.500000	94.330	-169.6013
93.800003	94.345	-170.0212
95.000000	94.366	-170.4473
96.199997	94.380	-170.8766
97.500000	94.389	-171.2667
98.800003	94.404	-171.6181
100.000000	94.420	-171.9789
101.500000	94.432	-172.4551
103.000000	94.436	-172.8950
104.400002	94.438	-173.2637
106.000000	94.444	-173.6840
107.500000	94.449	-174.1026
109.000000	94.455	-174.5420
110.599998	94.460	-175.0220
112.000000	94.463	-175.4332
113.800003	94.466	-175.8948
115.000000	94.472	-176.1901
117.199997	94.488	-176.7772
118.000000	94.492	-177.0070
120.599998	94.491	-177.7060
122.000000	94.489	-178.0079
124.099998	94.477	-178.4992
125.000000	94.467	-178.6980
126.500000	94.453	-179.0011
128.000000	94.449	-179.2973
131.500000	94.451	179.9840
132.000000	94.450	179.8864
134.000000	94.440	179.4972
136.000000	94.429	179.0799
138.000000	94.420	178.6227
140.000000	94.410	178.2146
143.000000	94.388	177.7076
145.000000	94.365	177.3845
147.500000	94.344	176.9358
150.000000	94.331	176.4527
152.500000	94.317	176.0463
155.000000	94.294	175.6372
157.500000	94.264	175.2109
160.000000	94.243	174.8072
162.500000	94.225	174.4511
165.000000	94.197	174.1315
167.500000	94.162	173.7774
170.000000	94.131	173.3969
172.500000	94.112	173.0942
175.000000	94.100	172.8478
177.500000	94.077	172.5633
180.000000	94.049	172.2289
182.500000	94.021	171.8433
185.000000	93.987	171.4987
187.500000	93.944	171.2595
190.000000	93.905	171.1124
192.500000	93.885	170.9528
195.000000	93.874	170.7375
197.500000	93.859	170.5273
200.000000	93.834	170.3306
203.000000	93.794	170.0836
206.000000	93.760	169.7982
209.000000	93.735	169.5551
212.000000	93.710	169.3927
214.000000	93.692	169.2476
218.000000	93.653	168.8975
220.000000	93.636	168.7662
224.000000	93.600	168.5209
227.000000	93.564	168.2768
230.000000	93.528	168.0410
233.000000	93.497	167.8322
236.000000	93.466	167.6539
240.000000	93.427	167.5095
243.000000	93.396	167.3845
247.000000	93.349	167.1823
250.000000	93.317	167.0536
254.000000	93.280	166.9272
258.000000	93.245	166.7798
262.000000	93.206	166.6022
265.000000	93.177	166.5091
269.000000	93.138	166.4013
272.000000	93.108	166.3039
276.000000	93.076	166.1797
280.000000	93.048	166.0778
285.000000	93.010	165.9953
290.000000	92.969	165.8965
295.000000	92.927	165.6876
300.000000	92.895	165.5145
304.000000	92.870	165.4833
307.000000	92.842	165.4677
311.000000	92.797	165.4103
315.000000	92.767	165.3671
320.000000	92.747	165.3179
325.000000	92.717	165.2226
330.000000	92.687	165.2069
335.000000	92.661	165.1942
340.000000	92.630	165.1248
345.000000	92.591	165.0711
350.000000	92.542	165.0858
355.000000	92.512	165.1236
360.000000	92.486	165.1352
365.000000	92.448	165.1387
370.000000	92.413	165.1818
375.000000	92.379	165.2269
382.000000	92.334	165.2207
387.000000	92.307	165.1688
395.000000	92.265	165.2158
400.000000	92.239	165.2798
406.000000	92.194	165.3685
412.000000	92.153	165.4389
418.000000	92.115	165.5074
425.000000	92.078	165.5601
431.000000	92.050	165.5959
437.000000	92.019	165.6602
444.000000	91.982	165.8638
450.000000	91.959	166.0374
455.000000	91.954	166.1100
462.000000	91.941	166.2331
468.000000	91.912	166.3535
475.000000	91.880	166.4697
482.000000	91.865	166.6262
487.000000	91.858	166.7705
494.000000	91.839	166.9486
500.000000	91.819	167.0609
508.000000	91.805	167.2361
515.000000	91.795	167.4293
522.000000	91.787	167.5544
530.000000	91.785	167.6390
538.000000	91.783	167.7921
545.000000	91.776	167.9455
552.000000	91.768	168.1263
560.000000	91.760	168.3644
570.000000	91.754	168.5016
580.000000	91.747	168.5525
590.000000	91.727	168.7122
600.000000	91.714	169.0182
608.000000	91.721	169.2635
615.000000	91.720	169.4347
622.000000	91.715	169.5760
630.000000	91.714	169.7600
640.000000	91.719	169.9452
650.000000	91.717	170.1124
660.000000	91.713	170.2915
670.000000	91.712	170.4825
680.000000	91.718	170.6943
690.000000	91.728	170.9128
700.000000	91.734	171.1558
710.000000	91.738	171.4358
720.000000	91.745	171.6701
730.000000	91.757	171.8772
740.000000	91.768	172.0827
750.000000	91.772	172.2972
762.000000	91.784	172.6080
775.000000	91.819	172.9086
788.000000	91.859	173.1793
800.000000	91.886	173.4195
812.000000	91.923	173.6656
825.000000	91.968	173.9544
838.000000	92.017	174.2284
850.000000	92.061	174.4435
862.000000	92.110	174.6437
875.000000	92.170	174.8063
885.000000	92.215	174.9146
900.000000	92.280	175.0894
912.000000	92.340	175.2177
925.000000	92.410	175.2602
938.000000	92.482	175.2389
950.000000	92.554	175.1989
962.000000	92.625	175.1198
975.000000	92.702	174.9879
988.000000	92.784	174.7878
1000.000000	92.857	174.5318
1015.000000	92.943	174.1684
1030.000000	93.023	173.7614
1044.000000	93.092	173.2779
1060.000000	93.172	172.5815
1075.000000	93.232	171.8772
1090.000000	93.274	171.1394
1106.000000	93.307	170.2794
1120.000000	93.324	169.5135
1138.000000	93.317	168.5036
1150.000000	93.295	167.8215
1172.000000	93.232	166.6828
1180.000000	93.203	166.2897
1206.000000	93.081	165.1660
1220.000000	92.999	164.6993
1241.000000	92.862	164.1319
1250.000000	92.799	163.9385
1265.000000	92.689	163.7003
1280.000000	92.578	163.5770
1315.000000	92.330	163.6535
1320.000000	92.295	163.7053
1340.000000	92.162	163.9771
1360.000000	92.032	164.3503
1380.000000	91.910	164.8627
1400.000000	91.804	165.4786
1430.000000	91.676	166.6131
1450.000000	91.617	167.4447
1475.000000	91.564	168.5701
1500.000000	91.529	169.7437
1525.000000	91.514	170.9427
1550.000000	91.526	172.1522
1575.000000	91.557	173.3380
1600.000000	91.612	174.5054
1625.000000	91.686	175.6200
1650.000000	91.773	176.6793
1675.000000	91.879	177.7199
1700.000000	91.998	178.7244
1725.000000	92.128	179.6622
1750.000000	92.265	-179.4857
1775.000000	92.408	-178.7294
1800.000000	92.557	-178.0509
1825.000000	92.717	-177.4599
1850.000000	92.885	-176.9272
1875.000000	93.061	-176.4213
1900.000000	93.237	-175.9915
1925.000000	93.417	-175.6717
1950.000000	93.602	-175.3949
1975.000000	93.788	-175.1629
2000.000000	93.977	-175.0095
2030.000000	94.210	-174.9855
2060.000000	94.440	-175.0978
2090.000000	94.664	-175.2961
2120.000000	94.885	-175.6203
2140.000000	95.032	-175.8963
2180.000000	95.311	-176.5691
2200.000000	95.442	-176.9508
2240.000000	95.696	-177.8509
2270.000000	95.877	-178.6101
2300.000000	96.051	-179.4365
2330.000000	96.212	179.6703
2360.000000	96.365	178.7201
2400.000000	96.546	177.3610
2430.000000	96.667	176.2865
2470.000000	96.813	174.7883
2500.000000	96.902	173.6376
2540.000000	97.000	172.0632
2580.000000	97.075	170.4391
2620.000000	97.129	168.8336
2650.000000	97.154	167.6513
2690.000000	97.166	166.0770
2720.000000	97.164	164.9065
2760.000000	97.140	163.3943
2800.000000	97.096	161.9448
2850.000000	97.022	160.1989
2900.000000	96.919	158.5348
2950.000000	96.789	156.9695
3000.000000	96.636	155.5448
3040.000000	96.500	154.5422
3070.000000	96.391	153.8689
3110.000000	96.239	153.0561
3150.000000	96.082	152.3449
3200.000000	95.875	151.6033
3250.000000	95.656	151.0367
3300.000000	95.423	150.6978
3350.000000	95.181	150.6064
3400.000000	94.941	150.7922
3450.000000	94.717	151.2584
3500.000000	94.518	151.9861
3550.000000	94.349	152.9077
3600.000000	94.210	153.9831
3650.000000	94.103	155.1775
3700.000000	94.028	156.4297
3750.000000	93.983	157.7188
3820.000000	93.966	159.5528
3870.000000	93.983	160.8510
3950.000000	94.056	162.8223
4000.000000	94.128	163.9617
4060.000000	94.233	165.2118
4120.000000	94.356	166.3427
4180.000000	94.495	167.3859
4250.000000	94.680	168.4950
4310.000000	94.849	169.3177
4370.000000	95.025	169.9619
4440.000000	95.233	170.4642
4500.000000	95.406	170.7014
4550.000000	95.539	170.7975
4620.000000	95.710	170.8699
4680.000000	95.849	170.9740
4750.000000	96.032	171.1874
4820.000000	96.267	171.3557
4870.000000	96.463	171.2677
4940.000000	96.748	170.7179
5000.000000	96.983	169.8550
5080.000000	97.258	168.1642
5150.000000	97.442	166.2584
5220.000000	97.557	164.0874
5300.000000	97.597	161.4780
5380.000000	97.544	158.9064
5450.000000	97.429	156.7980
5520.000000	97.259	154.8936
5600.000000	97.006	153.0314
5700.000000	96.626	151.2338
5800.000000	96.199	150.1210
5900.000000	95.753	149.6942
6000.000000	95.313	149.9006
6080.000000	94.983	150.4746
6150.000000	94.717	151.2347
6220.000000	94.474	152.1990
6300.000000	94.227	153.5078
6400.000000	93.970	155.3917
6500.000000	93.771	157.4622
6600.000000	93.627	159.6719
6700.000000	93.543	162.0199
6800.000000	93.528	164.4562
6900.000000	93.601	166.8944
7000.000000	93.767	169.2760
7100.000000	94.023	171.5188
7200.000000	94.363	173.4922
7300.000000	94.783	175.0485
7400.000000	95.275	176.0318
7500.000000	95.829	176.2726
7620.000000	96.552	175.3200
7750.000000	97.303	172.3470
7880.000000	97.803	167.3801
8000.000000	97.969	161.7437
8120.000000	97.845	155.7903
8250.000000	97.372	149.9131
8380.000000	96.626	145.6271
8500.000000	95.810	143.4486
8620.000000	94.970	142.8728
8750.000000	94.109	143.7060
8850.000000	93.519	145.0971
9000.000000	92.770	147.9991
9120.000000	92.287	150.8880
9250.000000	91.898	154.5001
9380.000000	91.689	158.4118
9500.000000	91.681	161.9489
9620.000000	91.853	165.0431
9750.000000	92.227	167.4834
9880.000000	92.754	168.4032
10000.000000	93.274	167.3674
10150.000000	93.755	163.4288
10300.000000	93.887	157.6418
10440.000000	93.682	151.7162
10600.000000	93.084	145.1362
10750.000000	92.173	140.0045
10900.000000	90.978	136.8283
11060.000000	89.542	136.1207
11200.000000	88.288	137.5700
11380.000000	86.819	141.6348
11500.000000	85.975	145.3799
11720.000000	84.781	153.4413
11800.000000	84.466	156.4756
12060.000000	83.776	165.4161
12200.000000	83.478	169.4477
12410.000000	82.930	175.4589
12500.000000	82.670	178.4268
12650.000000	82.300	-175.8320
12800.000000	82.123	-169.4673
13150.000000	82.449	-156.3944
13200.000000	82.527	-154.7844
13400.000000	82.936	-148.2113
13600.000000	83.713	-141.5127
13800.000000	85.054	-135.9833
14000.000000	86.942	-133.8519
14300.000000	89.792	-144.1242
14500.000000	90.534	-161.2190
14750.000000	89.446	177.9265
15000.000000	87.014	168.9495
15250.000000	84.741	168.7198
15500.000000	83.264	170.3247
15750.000000	82.206	170.1285
16000.000000	80.865	168.9979
16250.000000	78.938	171.4046
16500.000000	76.807	-179.7045
16750.000000	75.168	-165.7003
17000.000000	74.398	-149.5681
17250.000000	74.472	-133.3697
17500.000000	75.262	-118.2915
17750.000000	76.639	-104.8920
18000.000000	78.551	-93.5296
18250.000000	80.988	-84.9759
18500.000000	83.823	-80.6057
18750.000000	86.710	-82.3479
19000.000000	89.138	-91.8756
19250.000000	90.644	-108.5491
19500.000000	91.033	-128.4536
19750.000000	90.493	-145.9685
20000.000000	89.802	-155.3006
