* Measurement data measured by REW V5.20.9
* Source: Mic in at rear panel (Pink)(Realtek(R) Audio), MICROPHONE (마스), L, volume: 0.500
* Format: 256k Log Swept Sine, 1 sweep at -12.0 dBFS with no timing reference
* Dated: 2022. 9. 24 오후 9:12:26
* REW Settings:
*  C-weighting compensation: Off
*  Target level: 75.0 dB
* Note: 
* Measurement: R
* Smoothing: 1/24 octave
* Frequency Step: 1/48 octave
* Start Frequency: 20.300 Hz
*
* Freq(Hz)	SPL(dB)	Phase(degrees)
20.299999	67.261	29.2275
20.600000	67.265	29.3473
20.900000	67.281	29.5984
21.200001	67.320	29.9116
21.400000	67.360	30.0953
21.799999	67.458	30.3086
22.000000	67.509	30.3114
22.400000	67.601	30.1276
22.700001	67.656	29.8853
23.000000	67.699	29.6103
23.299999	67.733	29.3329
23.600000	67.761	29.0703
24.000000	67.795	28.7677
24.299999	67.822	28.5969
24.700001	67.865	28.4626
25.000000	67.909	28.4208
25.400000	67.991	28.3860
25.799999	68.098	28.2710
26.200001	68.215	27.9932
26.500000	68.295	27.6807
26.900000	68.380	27.1922
27.200001	68.424	26.8432
27.600000	68.464	26.4783
28.000000	68.497	26.2563
28.500000	68.546	26.1227
29.000000	68.607	26.0353
29.500000	68.674	25.9259
30.000000	68.742	25.7794
30.400000	68.796	25.6299
30.700001	68.837	25.4907
31.100000	68.890	25.2564
31.500000	68.938	24.9649
32.000000	68.982	24.5517
32.500000	69.009	24.1632
33.000000	69.029	23.8874
33.500000	69.061	23.7450
34.000000	69.115	23.6638
34.500000	69.190	23.5289
35.000000	69.273	23.2735
35.500000	69.349	22.9152
36.000000	69.411	22.5264
36.500000	69.463	22.1625
37.000000	69.509	21.8293
37.500000	69.549	21.5097
38.200001	69.590	21.1078
38.700001	69.613	20.8997
39.500000	69.662	20.6810
40.000000	69.706	20.5196
40.599998	69.764	20.2267
41.200001	69.817	19.8377
41.799999	69.860	19.3974
42.500000	69.899	18.8726
43.099998	69.927	18.4613
43.700001	69.957	18.0939
44.400002	69.995	17.6714
45.000000	70.024	17.3115
45.500000	70.044	17.0557
46.200001	70.081	16.7591
46.799999	70.122	16.4589
47.500000	70.156	16.0218
48.200001	70.172	15.6797
48.700001	70.191	15.5409
49.400002	70.242	15.3348
50.000000	70.292	15.0265
50.799999	70.344	14.5282
51.500000	70.387	14.0959
52.200001	70.428	13.5854
53.000000	70.446	12.9891
53.799999	70.450	12.6125
54.500000	70.469	12.3757
55.200001	70.491	12.1000
56.000000	70.511	11.8508
57.000000	70.565	11.5960
58.000000	70.611	11.0842
59.000000	70.613	10.6836
60.000000	70.636	10.5061
60.799999	70.676	10.2440
61.500000	70.710	9.8817
62.200001	70.735	9.4149
63.000000	70.737	8.7926
64.000000	70.693	8.1741
65.000000	70.668	7.9720
66.000000	70.709	7.7238
67.000000	70.751	7.2051
68.000000	70.780	6.6788
69.000000	70.805	6.1466
70.000000	70.814	5.6636
71.000000	70.817	5.2948
72.000000	70.820	5.0036
73.000000	70.827	4.7448
74.000000	70.835	4.4643
75.000000	70.842	4.1638
76.199997	70.852	3.7394
77.500000	70.856	3.2189
78.800003	70.857	2.7540
80.000000	70.864	2.3419
81.199997	70.865	1.9313
82.500000	70.861	1.5664
83.800003	70.858	1.2058
85.000000	70.848	0.8683
86.199997	70.841	0.5416
87.500000	70.844	0.1478
88.500000	70.846	-0.2185
90.000000	70.837	-0.7634
91.199997	70.828	-1.1288
92.500000	70.824	-1.5005
93.800003	70.815	-1.8904
95.000000	70.799	-2.1957
96.199997	70.787	-2.4463
97.500000	70.782	-2.7420
98.800003	70.775	-3.0965
100.000000	70.766	-3.4448
101.500000	70.751	-3.8895
103.000000	70.730	-4.3273
104.400002	70.706	-4.6731
106.000000	70.681	-5.0173
107.500000	70.660	-5.3518
109.000000	70.641	-5.7431
110.599998	70.624	-6.1892
112.000000	70.617	-6.5648
113.800003	70.617	-6.9525
115.000000	70.610	-7.0971
117.199997	70.577	-7.0710
118.000000	70.563	-6.9998
120.599998	70.555	-7.3396
122.000000	70.513	-8.0263
124.099998	70.434	-8.8549
125.000000	70.416	-9.1197
126.500000	70.403	-9.4675
128.000000	70.394	-9.7153
131.500000	70.345	-10.1683
132.000000	70.335	-10.2387
134.000000	70.294	-10.5596
136.000000	70.254	-10.8978
138.000000	70.217	-11.2465
140.000000	70.178	-11.5915
143.000000	70.113	-12.0735
145.000000	70.066	-12.3093
147.500000	70.020	-12.5722
150.000000	69.977	-12.8994
152.500000	69.927	-13.1590
155.000000	69.876	-13.3608
157.500000	69.820	-13.6439
160.000000	69.768	-13.9974
162.500000	69.727	-14.2640
165.000000	69.699	-14.4023
167.500000	69.665	-14.5251
170.000000	69.630	-14.6940
172.500000	69.604	-14.9286
175.000000	69.585	-15.2230
177.500000	69.554	-15.5681
180.000000	69.506	-15.8821
182.500000	69.452	-16.1466
185.000000	69.399	-16.4133
187.500000	69.345	-16.7020
190.000000	69.293	-16.9604
192.500000	69.243	-17.1682
195.000000	69.189	-17.3287
197.500000	69.137	-17.4883
200.000000	69.086	-17.6874
203.000000	69.022	-17.9055
206.000000	68.955	-18.1113
209.000000	68.881	-18.3473
212.000000	68.810	-18.5507
214.000000	68.766	-18.6471
218.000000	68.681	-18.7711
220.000000	68.637	-18.8283
224.000000	68.549	-18.9609
227.000000	68.485	-19.0445
230.000000	68.419	-19.0907
233.000000	68.349	-19.1067
236.000000	68.274	-19.1122
240.000000	68.172	-19.1296
243.000000	68.095	-19.1119
247.000000	67.991	-18.9426
250.000000	67.909	-18.7416
254.000000	67.793	-18.3956
258.000000	67.679	-17.8749
262.000000	67.585	-17.0864
265.000000	67.547	-16.3748
269.000000	67.577	-15.2755
272.000000	67.670	-14.3896
276.000000	67.845	-13.6995
280.000000	68.017	-14.0065
285.000000	68.186	-15.2065
290.000000	68.227	-16.5138
295.000000	68.169	-17.6884
300.000000	68.080	-18.5753
304.000000	67.994	-19.1167
307.000000	67.926	-19.4215
311.000000	67.836	-19.7149
315.000000	67.747	-19.9320
320.000000	67.643	-20.1209
325.000000	67.544	-20.2641
330.000000	67.451	-20.3672
335.000000	67.366	-20.4171
340.000000	67.280	-20.4344
345.000000	67.192	-20.4575
350.000000	67.106	-20.4933
355.000000	67.022	-20.5081
360.000000	66.941	-20.4808
365.000000	66.856	-20.4197
370.000000	66.773	-20.3316
375.000000	66.696	-20.2382
382.000000	66.590	-20.1078
387.000000	66.513	-20.0090
395.000000	66.389	-19.8435
400.000000	66.313	-19.7031
406.000000	66.224	-19.4768
412.000000	66.139	-19.2168
418.000000	66.069	-18.9312
425.000000	66.007	-18.6338
431.000000	65.958	-18.4527
437.000000	65.909	-18.3877
444.000000	65.836	-18.3435
450.000000	65.763	-18.2377
455.000000	65.702	-18.1261
462.000000	65.614	-17.9319
468.000000	65.544	-17.7216
475.000000	65.466	-17.4848
482.000000	65.387	-17.2553
487.000000	65.334	-17.0922
494.000000	65.268	-16.8699
500.000000	65.210	-16.6841
508.000000	65.128	-16.3723
515.000000	65.057	-16.0454
522.000000	64.982	-15.7638
530.000000	64.898	-15.4581
538.000000	64.822	-15.1368
545.000000	64.760	-14.8363
552.000000	64.694	-14.5482
560.000000	64.616	-14.2259
570.000000	64.524	-13.7866
580.000000	64.432	-13.3214
590.000000	64.341	-12.8120
600.000000	64.251	-12.2688
608.000000	64.182	-11.8334
615.000000	64.123	-11.4376
622.000000	64.067	-11.0557
630.000000	64.003	-10.6573
640.000000	63.929	-10.1326
650.000000	63.855	-9.5546
660.000000	63.777	-8.9811
670.000000	63.701	-8.3917
680.000000	63.628	-7.7748
690.000000	63.560	-7.1318
700.000000	63.492	-6.5009
710.000000	63.427	-5.8495
720.000000	63.365	-5.1715
730.000000	63.305	-4.5000
740.000000	63.246	-3.8531
750.000000	63.192	-3.2072
762.000000	63.131	-2.3904
775.000000	63.065	-1.4779
788.000000	63.011	-0.5171
800.000000	62.968	0.3509
812.000000	62.925	1.1603
825.000000	62.889	2.0696
838.000000	62.865	3.0129
850.000000	62.846	3.8575
862.000000	62.822	4.7098
875.000000	62.799	5.6241
885.000000	62.791	6.3179
900.000000	62.789	7.3639
912.000000	62.786	8.1940
925.000000	62.788	9.0725
938.000000	62.799	9.9111
950.000000	62.817	10.6439
962.000000	62.838	11.3591
975.000000	62.865	12.1245
988.000000	62.897	12.8756
1000.000000	62.930	13.5239
1015.000000	62.967	14.2497
1030.000000	63.001	14.9862
1044.000000	63.040	15.6459
1060.000000	63.088	16.3244
1075.000000	63.133	16.9140
1090.000000	63.180	17.4659
1106.000000	63.238	18.0340
1120.000000	63.291	18.5094
1138.000000	63.360	19.0639
1150.000000	63.402	19.4166
1172.000000	63.478	20.0271
1180.000000	63.506	20.2289
1206.000000	63.590	20.8540
1220.000000	63.632	21.1839
1241.000000	63.694	21.6723
1250.000000	63.719	21.8735
1265.000000	63.757	22.1930
1280.000000	63.798	22.4996
1315.000000	63.877	23.2224
1320.000000	63.887	23.3296
1340.000000	63.924	23.7593
1360.000000	63.962	24.1851
1380.000000	64.002	24.6167
1400.000000	64.043	25.0490
1430.000000	64.106	25.6713
1450.000000	64.146	26.1102
1475.000000	64.194	26.6646
1500.000000	64.246	27.1939
1525.000000	64.300	27.7265
1550.000000	64.354	28.2687
1575.000000	64.407	28.7811
1600.000000	64.456	29.2960
1625.000000	64.501	29.8206
1650.000000	64.553	30.3581
1675.000000	64.605	30.8716
1700.000000	64.650	31.3816
1725.000000	64.697	31.9097
1750.000000	64.744	32.4315
1775.000000	64.788	32.9556
1800.000000	64.833	33.4829
1825.000000	64.876	34.0285
1850.000000	64.918	34.5635
1875.000000	64.966	35.0983
1900.000000	65.014	35.6839
1925.000000	65.064	36.3128
1950.000000	65.116	36.9354
1975.000000	65.169	37.5429
2000.000000	65.228	38.1673
2030.000000	65.304	38.9404
2060.000000	65.380	39.7423
2090.000000	65.465	40.5614
2120.000000	65.557	41.3979
2140.000000	65.624	41.9584
2180.000000	65.769	43.1123
2200.000000	65.848	43.7087
2240.000000	66.017	44.8695
2270.000000	66.162	45.7229
2300.000000	66.318	46.5832
2330.000000	66.485	47.4201
2360.000000	66.666	48.2122
2400.000000	66.931	49.2049
2430.000000	67.148	49.8989
2470.000000	67.460	50.7073
2500.000000	67.710	51.2174
2540.000000	68.070	51.7769
2580.000000	68.457	52.1197
2620.000000	68.866	52.2060
2650.000000	69.188	52.0854
2690.000000	69.630	51.6360
2720.000000	69.968	51.0520
2760.000000	70.417	49.9075
2800.000000	70.856	48.3176
2850.000000	71.367	45.6711
2900.000000	71.804	42.3486
2950.000000	72.137	38.4870
3000.000000	72.345	34.2685
3040.000000	72.414	30.8003
3070.000000	72.409	28.2407
3110.000000	72.334	24.9793
3150.000000	72.189	21.9689
3200.000000	71.931	18.6630
3250.000000	71.615	15.9078
3300.000000	71.261	13.6919
3350.000000	70.890	12.0261
3400.000000	70.522	10.8399
3450.000000	70.169	10.0178
3500.000000	69.837	9.4881
3550.000000	69.522	9.2688
3600.000000	69.223	9.3174
3650.000000	68.944	9.5749
3700.000000	68.690	10.0152
3750.000000	68.463	10.6082
3820.000000	68.185	11.6301
3870.000000	68.014	12.4640
3950.000000	67.779	13.9188
4000.000000	67.655	14.8769
4060.000000	67.532	16.0571
4120.000000	67.435	17.2570
4180.000000	67.360	18.4464
4250.000000	67.293	19.8374
4310.000000	67.248	21.0159
4370.000000	67.209	22.1887
4440.000000	67.172	23.5971
4500.000000	67.153	24.8638
4550.000000	67.153	25.9556
4620.000000	67.182	27.5034
4680.000000	67.235	28.8120
4750.000000	67.329	30.2824
4820.000000	67.449	31.6990
4870.000000	67.551	32.7096
4940.000000	67.721	34.0894
5000.000000	67.894	35.1996
5080.000000	68.169	36.5581
5150.000000	68.451	37.6166
5220.000000	68.771	38.5161
5300.000000	69.187	39.2884
5380.000000	69.660	39.7025
5450.000000	70.117	39.6830
5520.000000	70.608	39.2343
5600.000000	71.202	38.0710
5700.000000	71.964	35.4535
5800.000000	72.684	31.3450
5900.000000	73.268	25.6837
6000.000000	73.627	18.8010
6080.000000	73.709	12.8857
6150.000000	73.623	7.7764
6220.000000	73.403	3.0441
6300.000000	73.022	-1.6254
6400.000000	72.431	-6.1632
6500.000000	71.803	-9.3053
6600.000000	71.195	-11.2463
6700.000000	70.643	-12.2609
6800.000000	70.173	-12.5690
6900.000000	69.836	-12.2142
7000.000000	69.637	-11.5212
7100.000000	69.594	-10.8012
7200.000000	69.705	-10.0844
7300.000000	69.937	-9.7545
7400.000000	70.309	-9.9697
7500.000000	70.774	-11.0264
7620.000000	71.447	-14.1654
7750.000000	72.220	-19.9865
7880.000000	72.815	-28.8598
8000.000000	73.016	-39.7878
8120.000000	72.649	-51.9839
8250.000000	71.616	-64.2444
8380.000000	70.115	-73.4318
8500.000000	68.582	-78.9268
8620.000000	67.018	-82.0630
8750.000000	65.425	-83.5502
8850.000000	64.301	-84.0153
9000.000000	62.803	-84.2314
9120.000000	61.718	-84.0140
9250.000000	60.580	-83.8055
9380.000000	59.541	-83.6356
9500.000000	58.633	-83.4166
9620.000000	57.746	-83.2815
9750.000000	56.773	-83.1802
9880.000000	55.751	-82.8826
10000.000000	54.741	-82.1908
10150.000000	53.437	-81.0164
10300.000000	52.110	-78.8959
10440.000000	50.846	-75.6849
10600.000000	49.431	-71.4838
10750.000000	48.147	-66.7017
10900.000000	46.895	-60.9916
11060.000000	45.706	-54.1428
11200.000000	44.805	-47.4560
11380.000000	43.791	-38.1791
11500.000000	43.264	-31.7314
11720.000000	42.554	-19.9698
11800.000000	42.331	-15.8666
12060.000000	41.856	-2.5290
12200.000000	41.773	5.0876
12410.000000	41.852	16.0393
12500.000000	41.929	20.6762
12650.000000	42.076	28.5624
12800.000000	42.353	35.8967
13150.000000	43.605	49.1275
13200.000000	43.851	50.9636
13400.000000	45.026	57.5506
13600.000000	46.590	60.9415
13800.000000	48.263	60.6011
14000.000000	49.505	55.5250
14300.000000	50.621	44.2896
14500.000000	50.834	37.6210
14750.000000	50.410	30.7963
15000.000000	49.721	26.3697
15250.000000	49.723	25.5495
15500.000000	50.570	24.0891
15750.000000	51.726	16.5500
16000.000000	52.542	-0.5339
16250.000000	52.018	-22.2780
16500.000000	50.025	-39.8660
16750.000000	47.338	-48.8565
17000.000000	44.710	-51.5095
17250.000000	42.572	-52.5310
17500.000000	40.988	-56.0671
17750.000000	39.246	-65.5235
18000.000000	36.797	-92.2721
18250.000000	33.471	120.0872
18500.000000	29.452	60.0975
18750.000000	25.666	-11.5044
19000.000000	23.526	-4.7324
19250.000000	22.999	35.1445
19500.000000	23.279	23.6230
19750.000000	23.524	-100.8320
20000.000000	23.251	-1.4648
