* Measurement data measured by REW V5.20.9
* Source: Mic in at rear panel (Pink)(Realtek(R) Audio), MICROPHONE (마스), L, volume: 0.500
* Format: 256k Log Swept Sine, 1 sweep at -12.0 dBFS with no timing reference
* Dated: 2022. 9. 18 오전 12:11:11
* REW Settings:
*  C-weighting compensation: Off
*  Target level: 75.0 dB
* Note: 
* Measurement: R
* Smoothing: 1/24 octave
* Frequency Step: 1/48 octave
* Start Frequency: 20.300 Hz
*
* Freq(Hz)	SPL(dB)	Phase(degrees)
20.299999	68.759	-151.7394
20.600000	68.777	-152.0438
20.900000	68.811	-152.6420
21.200001	68.837	-153.3540
21.400000	68.844	-153.8771
21.799999	68.835	-154.9786
22.000000	68.819	-155.5156
22.400000	68.774	-156.4701
22.700001	68.741	-157.0539
23.000000	68.723	-157.5472
23.299999	68.725	-158.0154
23.600000	68.748	-158.5254
24.000000	68.800	-159.3547
24.299999	68.840	-160.1064
24.700001	68.878	-161.2281
25.000000	68.888	-162.0822
25.400000	68.879	-163.1324
25.799999	68.857	-164.0023
26.200001	68.835	-164.6838
26.500000	68.827	-165.1069
26.900000	68.829	-165.6220
27.200001	68.839	-166.0233
27.600000	68.856	-166.6287
28.000000	68.867	-167.3302
28.500000	68.859	-168.2814
29.000000	68.823	-169.1735
29.500000	68.776	-169.9025
30.000000	68.740	-170.4935
30.400000	68.727	-170.9477
30.700001	68.724	-171.3122
31.100000	68.722	-171.8395
31.500000	68.719	-172.3953
32.000000	68.712	-173.0947
32.500000	68.702	-173.7881
33.000000	68.687	-174.4671
33.500000	68.665	-175.0849
34.000000	68.643	-175.5930
34.500000	68.630	-176.0316
35.000000	68.627	-176.5067
35.500000	68.619	-177.0709
36.000000	68.592	-177.6487
36.500000	68.556	-178.1411
37.000000	68.527	-178.5592
37.500000	68.511	-179.0114
38.200001	68.487	-179.8034
38.700001	68.458	179.5917
39.500000	68.411	178.6605
40.000000	68.380	178.0444
40.599998	68.325	177.3159
41.200001	68.254	176.8067
41.799999	68.206	176.5593
42.500000	68.209	176.2464
43.099998	68.221	175.6797
43.700001	68.195	174.9990
44.400002	68.133	174.4542
45.000000	68.111	174.1695
45.500000	68.124	173.7755
46.200001	68.132	172.7776
46.799999	68.083	171.7484
47.500000	67.975	170.7538
48.200001	67.842	170.1176
48.700001	67.742	170.0307
49.400002	67.673	170.5973
50.000000	67.768	171.1709
50.799999	68.008	170.5773
51.500000	68.081	168.9024
52.200001	67.986	167.4626
53.000000	67.824	166.4575
53.799999	67.613	165.6511
54.500000	67.370	165.6035
55.200001	67.210	166.2318
56.000000	67.180	166.5266
57.000000	67.089	165.8418
58.000000	66.899	166.1966
59.000000	66.982	167.7739
60.000000	67.371	167.7758
60.799999	67.569	165.9372
61.500000	67.533	164.1144
62.200001	67.356	163.0477
63.000000	67.110	163.0081
64.000000	66.916	164.2073
65.000000	66.953	165.3211
66.000000	67.058	165.0917
67.000000	67.056	164.1119
68.000000	66.963	163.3067
69.000000	66.859	163.1429
70.000000	66.875	163.3895
71.000000	66.995	162.9274
72.000000	67.051	161.6495
73.000000	67.000	160.2224
74.000000	66.860	159.0358
75.000000	66.666	158.4255
76.199997	66.471	158.5431
77.500000	66.394	158.9265
78.800003	66.373	158.9502
80.000000	66.347	158.6404
81.199997	66.256	158.1431
82.500000	66.097	158.0729
83.800003	66.024	158.5401
85.000000	66.065	158.6878
86.199997	66.137	158.2659
87.500000	66.142	157.4003
88.500000	66.087	156.9285
90.000000	65.979	156.6819
91.199997	65.925	156.6966
92.500000	65.909	156.4807
93.800003	65.897	155.9460
95.000000	65.869	155.4350
96.199997	65.842	154.8271
97.500000	65.700	154.0352
98.800003	65.443	154.1478
100.000000	65.264	154.8449
101.500000	65.157	155.3020
103.000000	65.114	154.7990
104.400002	65.063	153.7010
106.000000	64.944	152.6573
107.500000	64.855	152.8302
109.000000	64.884	153.3040
110.599998	64.879	153.4922
112.000000	64.829	153.7265
113.800003	64.736	153.9396
115.000000	64.668	154.1086
117.199997	64.571	154.3324
118.000000	64.534	154.3984
120.599998	64.441	154.8395
122.000000	64.401	154.9478
124.099998	64.314	155.2968
125.000000	64.288	155.5282
126.500000	64.270	155.8178
128.000000	64.258	155.9482
131.500000	64.304	155.6434
132.000000	64.307	155.4684
134.000000	64.284	154.6978
136.000000	64.243	153.9478
138.000000	64.220	153.2299
140.000000	64.216	152.7568
143.000000	64.159	152.6821
145.000000	64.053	153.0461
147.500000	63.957	153.0661
150.000000	63.883	152.6138
152.500000	63.882	152.3978
155.000000	63.809	151.9420
157.500000	63.645	151.7221
160.000000	63.556	151.6355
162.500000	63.516	151.4810
165.000000	63.447	151.4424
167.500000	63.362	151.3599
170.000000	63.285	151.2492
172.500000	63.224	151.3237
175.000000	63.160	151.4549
177.500000	63.086	151.5033
180.000000	63.016	151.4731
182.500000	62.947	151.4907
185.000000	62.875	151.5534
187.500000	62.808	151.5561
190.000000	62.756	151.4860
192.500000	62.717	151.4987
195.000000	62.676	151.6757
197.500000	62.624	151.9318
200.000000	62.572	152.1067
203.000000	62.506	152.1120
206.000000	62.431	152.1449
209.000000	62.355	152.3011
212.000000	62.279	152.4592
214.000000	62.237	152.5344
218.000000	62.186	152.6304
220.000000	62.163	152.7013
224.000000	62.087	152.9482
227.000000	62.026	153.1458
230.000000	61.984	153.2680
233.000000	61.948	153.3721
236.000000	61.901	153.4867
240.000000	61.812	153.6102
243.000000	61.756	153.7523
247.000000	61.702	153.9528
250.000000	61.653	154.0850
254.000000	61.590	154.3053
258.000000	61.523	154.5438
262.000000	61.455	154.8038
265.000000	61.422	154.9929
269.000000	61.384	155.0768
272.000000	61.349	155.1542
276.000000	61.299	155.3983
280.000000	61.251	155.6421
285.000000	61.211	155.9158
290.000000	61.160	156.1595
295.000000	61.101	156.3998
300.000000	61.060	156.6966
304.000000	61.032	156.9311
307.000000	61.003	157.1241
311.000000	60.966	157.3577
315.000000	60.939	157.5209
320.000000	60.901	157.7628
325.000000	60.864	158.0909
330.000000	60.823	158.3717
335.000000	60.772	158.5816
340.000000	60.739	158.8641
345.000000	60.712	159.1508
350.000000	60.666	159.4989
355.000000	60.631	159.8467
360.000000	60.595	160.0854
365.000000	60.558	160.3062
370.000000	60.528	160.5421
375.000000	60.504	160.8020
382.000000	60.467	161.2657
387.000000	60.435	161.5918
395.000000	60.379	162.0969
400.000000	60.342	162.3850
406.000000	60.308	162.6977
412.000000	60.284	163.0557
418.000000	60.249	163.4593
425.000000	60.207	163.8661
431.000000	60.184	164.1648
437.000000	60.168	164.5359
444.000000	60.151	164.9290
450.000000	60.122	165.2087
455.000000	60.098	165.4835
462.000000	60.077	165.9001
468.000000	60.065	166.2491
475.000000	60.042	166.5934
482.000000	60.016	166.9505
487.000000	60.002	167.2405
494.000000	59.990	167.6061
500.000000	59.980	167.9476
508.000000	59.970	168.4593
515.000000	59.967	168.8407
522.000000	59.957	169.2158
530.000000	59.943	169.6614
538.000000	59.932	170.1840
545.000000	59.926	170.6071
552.000000	59.918	170.9679
560.000000	59.914	171.4327
570.000000	59.910	172.0283
580.000000	59.912	172.5019
590.000000	59.907	173.0309
600.000000	59.895	173.6943
608.000000	59.892	174.1610
615.000000	59.892	174.5386
622.000000	59.894	174.9497
630.000000	59.899	175.4249
640.000000	59.901	175.9675
650.000000	59.898	176.5176
660.000000	59.902	177.0768
670.000000	59.915	177.5757
680.000000	59.928	178.1503
690.000000	59.940	178.7809
700.000000	59.955	179.3855
710.000000	59.971	179.9786
720.000000	59.984	-179.4143
730.000000	59.991	-178.8374
740.000000	60.001	-178.2680
750.000000	60.020	-177.6526
762.000000	60.058	-176.8929
775.000000	60.104	-176.1625
788.000000	60.144	-175.3950
800.000000	60.187	-174.6471
812.000000	60.227	-173.9206
825.000000	60.277	-173.1161
838.000000	60.342	-172.3624
850.000000	60.401	-171.6974
862.000000	60.455	-170.9941
875.000000	60.524	-170.2225
885.000000	60.586	-169.6641
900.000000	60.681	-168.8456
912.000000	60.764	-168.1438
925.000000	60.854	-167.4253
938.000000	60.947	-166.7584
950.000000	61.039	-166.1881
962.000000	61.138	-165.6635
975.000000	61.245	-165.0973
988.000000	61.345	-164.5397
1000.000000	61.446	-164.0465
1015.000000	61.601	-163.4606
1030.000000	61.762	-162.9171
1044.000000	61.906	-162.4601
1060.000000	62.070	-161.9800
1075.000000	62.223	-161.6152
1090.000000	62.379	-161.3663
1106.000000	62.552	-161.1922
1120.000000	62.707	-161.0461
1138.000000	62.903	-160.8951
1150.000000	63.031	-160.8664
1172.000000	63.261	-160.9151
1180.000000	63.341	-160.9408
1206.000000	63.587	-161.1242
1220.000000	63.710	-161.2961
1241.000000	63.879	-161.5749
1250.000000	63.948	-161.6976
1265.000000	64.061	-161.8738
1280.000000	64.167	-161.9751
1315.000000	64.390	-162.0840
1320.000000	64.423	-162.1008
1340.000000	64.558	-162.1393
1360.000000	64.695	-162.1454
1380.000000	64.836	-162.1786
1400.000000	64.987	-162.2278
1430.000000	65.212	-162.3124
1450.000000	65.360	-162.3674
1475.000000	65.541	-162.4671
1500.000000	65.729	-162.6027
1525.000000	65.921	-162.7327
1550.000000	66.111	-162.8751
1575.000000	66.301	-163.0581
1600.000000	66.493	-163.2774
1625.000000	66.686	-163.5215
1650.000000	66.882	-163.7994
1675.000000	67.080	-164.0948
1700.000000	67.276	-164.4186
1725.000000	67.466	-164.7969
1750.000000	67.655	-165.2146
1775.000000	67.840	-165.6799
1800.000000	68.022	-166.1809
1825.000000	68.198	-166.6948
1850.000000	68.362	-167.2043
1875.000000	68.513	-167.6412
1900.000000	68.662	-167.9229
1925.000000	68.831	-167.9633
1950.000000	69.057	-167.8176
1975.000000	69.368	-167.7905
2000.000000	69.741	-168.3015
2030.000000	70.170	-169.8075
2060.000000	70.508	-171.8974
2090.000000	70.767	-174.1152
2120.000000	70.976	-176.2876
2140.000000	71.099	-177.7054
2180.000000	71.310	179.5077
2200.000000	71.400	178.1227
2240.000000	71.551	175.3333
2270.000000	71.640	173.2257
2300.000000	71.708	171.1320
2330.000000	71.754	169.0640
2360.000000	71.777	167.0292
2400.000000	71.779	164.3769
2430.000000	71.759	162.4420
2470.000000	71.702	159.9838
2500.000000	71.641	158.2402
2540.000000	71.541	156.0470
2580.000000	71.420	154.0114
2620.000000	71.280	152.1499
2650.000000	71.167	150.8754
2690.000000	71.006	149.3163
2720.000000	70.880	148.2589
2760.000000	70.707	147.0156
2800.000000	70.532	145.9547
2850.000000	70.327	144.8578
2900.000000	70.144	143.9012
2950.000000	69.975	142.9456
3000.000000	69.804	141.9590
3040.000000	69.659	141.1467
3070.000000	69.542	140.5261
3110.000000	69.363	139.6816
3150.000000	69.139	138.8905
3200.000000	68.780	138.3344
3250.000000	68.380	138.7958
3300.000000	68.063	140.2901
3350.000000	67.909	142.1181
3400.000000	67.879	143.6369
3450.000000	67.901	144.7125
3500.000000	67.938	145.4768
3550.000000	67.974	146.0843
3600.000000	68.008	146.6172
3650.000000	68.047	147.0980
3700.000000	68.090	147.5516
3750.000000	68.136	148.0113
3820.000000	68.210	148.6229
3870.000000	68.268	148.9947
3950.000000	68.358	149.5150
4000.000000	68.409	149.8919
4060.000000	68.480	150.5062
4120.000000	68.595	151.2985
4180.000000	68.784	152.0580
4250.000000	69.074	152.4709
4310.000000	69.332	152.2955
4370.000000	69.570	151.7467
4440.000000	69.816	150.8087
4500.000000	70.007	149.7886
4550.000000	70.156	148.7749
4620.000000	70.344	147.1147
4680.000000	70.482	145.4631
4750.000000	70.606	143.2784
4820.000000	70.680	140.8380
4870.000000	70.695	138.9692
4940.000000	70.654	136.2570
5000.000000	70.561	133.9220
5080.000000	70.356	130.9178
5150.000000	70.105	128.4995
5220.000000	69.797	126.3669
5300.000000	69.393	124.3625
5380.000000	68.951	122.8550
5450.000000	68.549	121.9341
5520.000000	68.145	121.3787
5600.000000	67.694	121.1343
5700.000000	67.148	121.2719
5800.000000	66.619	121.8426
5900.000000	66.115	122.8768
6000.000000	65.648	124.3776
6080.000000	65.310	125.8640
6150.000000	65.042	127.2909
6220.000000	64.803	128.8234
6300.000000	64.565	130.7217
6400.000000	64.322	133.2701
6500.000000	64.140	135.9415
6600.000000	64.018	138.6971
6700.000000	63.959	141.4608
6800.000000	63.970	144.2180
6900.000000	64.067	146.9333
7000.000000	64.251	149.5527
7100.000000	64.517	152.0171
7200.000000	64.870	154.1980
7300.000000	65.312	155.9437
7400.000000	65.838	157.0957
7500.000000	66.440	157.4399
7620.000000	67.246	156.4403
7750.000000	68.125	153.0952
7880.000000	68.785	146.9572
8000.000000	69.033	139.0959
8120.000000	68.822	130.2713
8250.000000	68.057	121.5213
8380.000000	66.867	115.1776
8500.000000	65.572	111.8615
8620.000000	64.232	110.7202
8750.000000	62.815	111.3760
8850.000000	61.781	112.8931
9000.000000	60.355	116.4144
9120.000000	59.332	120.0427
9250.000000	58.332	124.5432
9380.000000	57.437	129.4861
9500.000000	56.697	134.3974
9620.000000	56.036	139.6040
9750.000000	55.405	145.5074
9880.000000	54.855	151.5814
10000.000000	54.413	157.3291
10150.000000	53.946	164.6978
10300.000000	53.575	172.2507
10440.000000	53.306	179.4459
10600.000000	53.080	-172.1518
10750.000000	52.964	-164.0802
10900.000000	52.946	-155.6430
11060.000000	53.048	-146.2153
11200.000000	53.282	-137.4621
11380.000000	53.914	-125.3909
11500.000000	54.653	-117.0146
11720.000000	56.977	-102.5502
11800.000000	58.141	-98.4282
12060.000000	62.438	-93.9614
12200.000000	64.599	-98.8788
12410.000000	66.927	-116.5170
12500.000000	67.412	-127.1862
12650.000000	67.372	-146.2631
12800.000000	66.310	-162.5259
13150.000000	61.704	-177.5815
13200.000000	61.015	-177.6152
13400.000000	58.523	-174.7992
13600.000000	56.522	-169.0455
13800.000000	54.968	-161.7407
14000.000000	53.785	-153.6153
14300.000000	52.577	-140.6304
14500.000000	52.089	-131.6644
14750.000000	51.823	-120.4752
15000.000000	51.975	-109.7326
15250.000000	52.632	-100.0928
15500.000000	53.955	-92.7115
15750.000000	55.898	-90.2639
16000.000000	57.802	-97.1950
16250.000000	58.512	-114.7527
16500.000000	57.339	-133.1217
16750.000000	54.734	-141.5852
17000.000000	51.754	-140.3252
17250.000000	49.156	-133.7589
17500.000000	47.120	-124.8027
17750.000000	45.598	-114.8534
18000.000000	44.460	-104.4685
18250.000000	43.636	-94.5205
18500.000000	43.059	-85.8582
18750.000000	42.429	-78.6053
19000.000000	41.544	-69.8680
19250.000000	40.894	-59.9341
19500.000000	40.589	-52.5101
19750.000000	40.236	-47.1809
20000.000000	39.563	-42.5298
