* Measurement data measured by REW V5.20.8
* Source: C:\Users\DABKING\Downloads\harman_over-ear_2018.csv
* Format: Comma/Tab/Space delimited data
* Dated: 2022. 7. 13 ���� 8:04:15
* REW Settings:
*  C-weighting compensation: Off
*  Target level: 75.0 dB
* Note: Measurement imported from C:\Users\DABKING\Downloads\harman_over-ear_2018.csv Format: Comma/Tab/Space delimited data 695 values loaded, 20 Hz to 19,896 Hz log spaced
* Measurement: harman_over-ear_2018
* Smoothing: 1/24 octave
* Frequency Step: 1/48 octave
* Start Frequency: 20.000 Hz
*
* Freq(Hz)	SPL(dB)
20.299999	89.742
20.600000	89.779
20.900000	89.817
21.200001	89.844
21.400000	89.854
21.799999	89.868
22.000000	89.872
22.400000	89.877
22.700001	89.875
23.000000	89.870
23.299999	89.868
23.600000	89.867
24.000000	89.867
24.299999	89.866
24.700001	89.859
25.000000	89.858
25.400000	89.857
25.799999	89.852
26.200001	89.848
26.500000	89.847
26.900000	89.845
27.200001	89.840
27.600000	89.833
28.000000	89.826
28.500000	89.818
29.000000	89.813
29.500000	89.805
30.000000	89.796
30.400000	89.789
30.700001	89.784
31.100000	89.774
31.500000	89.766
32.000000	89.755
32.500000	89.746
33.000000	89.735
33.500000	89.725
34.000000	89.714
34.500000	89.699
35.000000	89.685
35.500000	89.671
36.000000	89.657
36.500000	89.643
37.000000	89.629
37.500000	89.615
38.200001	89.597
38.700001	89.583
39.500000	89.555
40.000000	89.541
40.599998	89.526
41.200001	89.511
41.799999	89.496
42.500000	89.479
43.099998	89.461
43.700001	89.436
44.400002	89.405
45.000000	89.379
45.500000	89.361
46.200001	89.337
46.799999	89.317
47.500000	89.290
48.200001	89.261
48.700001	89.234
49.400002	89.192
50.000000	89.159
50.799999	89.122
51.500000	89.089
52.200001	89.059
53.000000	89.026
53.799999	88.989
54.500000	88.956
55.200001	88.924
56.000000	88.889
57.000000	88.848
58.000000	88.808
59.000000	88.772
60.000000	88.733
60.799999	88.693
61.500000	88.654
62.200001	88.617
63.000000	88.578
64.000000	88.533
65.000000	88.492
66.000000	88.448
67.000000	88.402
68.000000	88.358
69.000000	88.314
70.000000	88.270
71.000000	88.226
72.000000	88.179
73.000000	88.131
74.000000	88.083
75.000000	88.036
76.199997	87.984
77.500000	87.930
78.800003	87.874
80.000000	87.823
81.199997	87.771
82.500000	87.715
83.800003	87.658
85.000000	87.605
86.199997	87.554
87.500000	87.494
88.500000	87.449
90.000000	87.378
91.199997	87.318
92.500000	87.254
93.800003	87.194
95.000000	87.137
96.199997	87.075
97.500000	87.008
98.800003	86.946
100.000000	86.889
101.500000	86.816
103.000000	86.744
104.400002	86.681
106.000000	86.607
107.500000	86.537
109.000000	86.467
110.599998	86.393
112.000000	86.327
113.800003	86.240
115.000000	86.182
117.199997	86.077
118.000000	86.041
120.599998	85.929
122.000000	85.871
124.099998	85.785
125.000000	85.749
126.500000	85.688
128.000000	85.625
131.500000	85.485
132.000000	85.467
134.000000	85.398
136.000000	85.331
138.000000	85.262
140.000000	85.198
143.000000	85.119
145.000000	85.065
147.500000	85.002
150.000000	84.937
152.500000	84.871
155.000000	84.806
157.500000	84.742
160.000000	84.678
162.500000	84.618
165.000000	84.562
167.500000	84.504
170.000000	84.445
172.500000	84.391
175.000000	84.337
177.500000	84.281
180.000000	84.227
182.500000	84.178
185.000000	84.130
187.500000	84.083
190.000000	84.040
192.500000	84.001
195.000000	83.962
197.500000	83.924
200.000000	83.891
203.000000	83.860
206.000000	83.834
209.000000	83.811
212.000000	83.788
214.000000	83.779
218.000000	83.766
220.000000	83.758
224.000000	83.749
227.000000	83.748
230.000000	83.752
233.000000	83.757
236.000000	83.761
240.000000	83.775
243.000000	83.787
247.000000	83.804
250.000000	83.819
254.000000	83.845
258.000000	83.870
262.000000	83.898
265.000000	83.921
269.000000	83.951
272.000000	83.974
276.000000	84.003
280.000000	84.032
285.000000	84.067
290.000000	84.102
295.000000	84.137
300.000000	84.171
304.000000	84.202
307.000000	84.227
311.000000	84.261
315.000000	84.295
320.000000	84.330
325.000000	84.361
330.000000	84.392
335.000000	84.422
340.000000	84.452
345.000000	84.481
350.000000	84.510
355.000000	84.536
360.000000	84.558
365.000000	84.582
370.000000	84.603
375.000000	84.623
382.000000	84.650
387.000000	84.665
395.000000	84.692
400.000000	84.707
406.000000	84.723
412.000000	84.738
418.000000	84.752
425.000000	84.769
431.000000	84.783
437.000000	84.800
444.000000	84.822
450.000000	84.839
455.000000	84.855
462.000000	84.874
468.000000	84.893
475.000000	84.915
482.000000	84.937
487.000000	84.954
494.000000	84.979
500.000000	84.997
508.000000	85.022
515.000000	85.047
522.000000	85.071
530.000000	85.096
538.000000	85.125
545.000000	85.150
552.000000	85.171
560.000000	85.195
570.000000	85.223
580.000000	85.246
590.000000	85.272
600.000000	85.298
608.000000	85.321
615.000000	85.343
622.000000	85.365
630.000000	85.385
640.000000	85.409
650.000000	85.433
660.000000	85.455
670.000000	85.476
680.000000	85.493
690.000000	85.512
700.000000	85.530
710.000000	85.545
720.000000	85.559
730.000000	85.574
740.000000	85.592
750.000000	85.605
762.000000	85.616
775.000000	85.632
788.000000	85.645
800.000000	85.655
812.000000	85.665
825.000000	85.674
838.000000	85.682
850.000000	85.689
862.000000	85.696
875.000000	85.706
885.000000	85.716
900.000000	85.728
912.000000	85.736
925.000000	85.746
938.000000	85.756
950.000000	85.768
962.000000	85.784
975.000000	85.803
988.000000	85.820
1000.000000	85.841
1015.000000	85.870
1030.000000	85.900
1044.000000	85.927
1060.000000	85.961
1075.000000	86.000
1090.000000	86.042
1106.000000	86.087
1120.000000	86.131
1138.000000	86.197
1150.000000	86.244
1172.000000	86.326
1180.000000	86.358
1206.000000	86.470
1220.000000	86.532
1241.000000	86.623
1250.000000	86.664
1265.000000	86.735
1280.000000	86.808
1315.000000	86.986
1320.000000	87.012
1340.000000	87.118
1360.000000	87.225
1380.000000	87.333
1400.000000	87.436
1430.000000	87.592
1450.000000	87.692
1475.000000	87.814
1500.000000	87.944
1525.000000	88.084
1550.000000	88.226
1575.000000	88.369
1600.000000	88.511
1625.000000	88.664
1650.000000	88.822
1675.000000	88.978
1700.000000	89.134
1725.000000	89.296
1750.000000	89.462
1775.000000	89.626
1800.000000	89.789
1825.000000	89.955
1850.000000	90.124
1875.000000	90.288
1900.000000	90.451
1925.000000	90.617
1950.000000	90.783
1975.000000	90.944
2000.000000	91.098
2030.000000	91.264
2060.000000	91.423
2090.000000	91.576
2120.000000	91.726
2140.000000	91.825
2180.000000	92.016
2200.000000	92.109
2240.000000	92.296
2270.000000	92.427
2300.000000	92.555
2330.000000	92.683
2360.000000	92.800
2400.000000	92.935
2430.000000	93.029
2470.000000	93.152
2500.000000	93.241
2540.000000	93.347
2580.000000	93.447
2620.000000	93.544
2650.000000	93.613
2690.000000	93.698
2720.000000	93.759
2760.000000	93.836
2800.000000	93.906
2850.000000	93.978
2900.000000	94.040
2950.000000	94.096
3000.000000	94.155
3040.000000	94.201
3070.000000	94.236
3110.000000	94.280
3150.000000	94.318
3200.000000	94.349
3250.000000	94.374
3300.000000	94.396
3350.000000	94.411
3400.000000	94.416
3450.000000	94.412
3500.000000	94.407
3550.000000	94.397
3600.000000	94.372
3650.000000	94.341
3700.000000	94.308
3750.000000	94.271
3820.000000	94.203
3870.000000	94.152
3950.000000	94.075
4000.000000	94.020
4060.000000	93.939
4120.000000	93.856
4180.000000	93.773
4250.000000	93.670
4310.000000	93.569
4370.000000	93.463
4440.000000	93.340
4500.000000	93.232
4550.000000	93.140
4620.000000	93.009
4680.000000	92.896
4750.000000	92.765
4820.000000	92.631
4870.000000	92.535
4940.000000	92.402
5000.000000	92.292
5080.000000	92.161
5150.000000	92.055
5220.000000	91.950
5300.000000	91.828
5380.000000	91.708
5450.000000	91.609
5520.000000	91.511
5600.000000	91.404
5700.000000	91.287
5800.000000	91.179
5900.000000	91.073
6000.000000	90.956
6080.000000	90.846
6150.000000	90.745
6220.000000	90.643
6300.000000	90.532
6400.000000	90.404
6500.000000	90.285
6600.000000	90.164
6700.000000	90.042
6800.000000	89.913
6900.000000	89.776
7000.000000	89.644
7100.000000	89.510
7200.000000	89.367
7300.000000	89.216
7400.000000	89.066
7500.000000	88.920
7620.000000	88.755
7750.000000	88.584
7880.000000	88.417
8000.000000	88.261
8120.000000	88.097
8250.000000	87.916
8380.000000	87.740
8500.000000	87.574
8620.000000	87.396
8750.000000	87.201
8850.000000	87.053
9000.000000	86.833
9120.000000	86.644
9250.000000	86.433
9380.000000	86.227
9500.000000	86.030
9620.000000	85.820
9750.000000	85.586
9880.000000	85.354
10000.000000	85.146
10150.000000	84.892
10300.000000	84.641
10440.000000	84.410
10600.000000	84.142
10750.000000	83.876
10900.000000	83.606
11060.000000	83.316
11200.000000	83.063
11380.000000	82.723
11500.000000	82.496
11720.000000	82.086
11800.000000	81.944
12060.000000	81.511
12200.000000	81.289
12410.000000	80.963
12500.000000	80.825
12650.000000	80.597
12800.000000	80.372
13150.000000	79.863
13200.000000	79.795
13400.000000	79.544
13600.000000	79.307
13800.000000	79.073
14000.000000	78.849
14300.000000	78.548
14500.000000	78.356
14750.000000	78.120
15000.000000	77.869
15250.000000	77.585
15500.000000	77.287
15750.000000	76.990
16000.000000	76.662
16250.000000	76.252
16500.000000	75.811
16750.000000	75.366
17000.000000	74.874
17250.000000	74.252
17500.000000	73.574
17750.000000	72.886
18000.000000	72.133
18250.000000	71.224
18500.000000	70.230
18750.000000	69.220
19000.000000	68.148
19250.000000	66.893
19500.000000	65.555
19750.000000	64.328
