* Measurement data measured by REW V5.20.7
* Source: 마이크(Realtek High Definition Audi, MICROPHONE (마스), L, volume: 0.050
* Format: 128k Log Swept Sine, 1 sweep at -12.0 dBFS with no timing reference
* Dated: May 5, 2023 4:46:12 PM
* REW Settings:
*  C-weighting compensation: Off
*  Target level: 75.0 dB
* Note: ; 
* Measurement: Truthears Hexa L
* Smoothing: 1/48 octave
* Frequency Step: 1/96 octave
* Start Frequency: 20.145 Hz
*
* Freq(Hz)	SPL(dB)	Phase(degrees)
20.144928	82.085	11.1244
20.290907	82.052	10.9594
20.437943	82.019	10.7415
20.586044	81.984	10.5829
20.735220	81.947	10.4693
20.885475	81.915	10.3630
21.036821	81.891	10.2690
21.189262	81.873	10.1612
21.342808	81.863	9.9915
21.497467	81.860	9.7709
21.653246	81.853	9.4822
21.810154	81.844	9.1116
21.968201	81.828	8.7014
22.127390	81.800	8.2601
22.287735	81.763	7.8099
22.449242	81.718	7.4137
22.611917	81.666	7.0598
22.775772	81.618	6.7796
22.940815	81.573	6.5820
23.107054	81.541	6.4059
23.274498	81.526	6.2610
23.443153	81.524	6.0674
23.613033	81.538	5.7778
23.784142	81.557	5.3858
23.956491	81.572	4.8371
24.130091	81.578	4.1770
24.304947	81.557	3.4495
24.481071	81.511	2.6892
24.658470	81.433	2.0557
24.837156	81.326	1.5540
25.017136	81.206	1.3663
25.198421	81.078	1.4764
25.381020	80.980	1.9240
25.564941	80.913	2.6826
25.750195	80.913	3.5359
25.936790	80.975	4.4595
26.124741	81.094	5.1137
26.314051	81.262	5.5022
26.504732	81.437	5.4388
26.696796	81.612	4.9745
26.890253	81.743	4.1619
27.085112	81.831	3.0953
27.281382	81.856	1.9467
27.479073	81.827	0.8370
27.678198	81.743	-0.0773
27.878765	81.632	-0.7119
28.080786	81.500	-0.9838
28.284271	81.384	-0.9648
28.489231	81.292	-0.6592
28.695675	81.244	-0.3039
28.903616	81.234	0.0534
29.113064	81.250	0.1982
29.324028	81.274	0.1486
29.536524	81.286	-0.1517
29.750557	81.267	-0.5429
29.966141	81.213	-0.9818
30.183289	81.126	-1.2382
30.402010	81.022	-1.2760
30.622314	80.923	-0.9702
30.844217	80.860	-0.4391
31.067726	80.849	0.2781
31.292856	80.904	0.8717
31.519617	81.008	1.2248
31.748020	81.146	1.1326
31.978081	81.271	0.5934
32.209808	81.365	-0.3578
32.443211	81.395	-1.5450
32.678310	81.361	-2.7357
32.915108	81.261	-3.7782
33.153625	81.124	-4.4130
33.393871	80.981	-4.6368
33.635857	80.862	-4.4238
33.879597	80.806	-4.0162
34.125103	80.805	-3.6194
34.372387	80.857	-3.4361
34.621464	80.916	-3.6161
34.872345	80.957	-4.0633
35.125042	80.956	-4.6882
35.379574	80.907	-5.2151
35.635948	80.834	-5.5065
35.894180	80.758	-5.5030
36.154285	80.718	-5.2570
36.416275	80.724	-5.0454
36.680161	80.765	-5.0369
36.945961	80.814	-5.4032
37.213688	80.820	-6.0997
37.483353	80.763	-6.8758
37.754974	80.639	-7.4860
38.028561	80.467	-7.6212
38.304131	80.313	-7.1625
38.581699	80.228	-6.3327
38.861279	80.237	-5.4473
39.142883	80.334	-4.9568
39.426529	80.449	-5.1519
39.712231	80.519	-5.9017
40.000000	80.507	-6.9196
40.289856	80.403	-7.8059
40.581814	80.243	-8.1432
40.875885	80.105	-7.8538
41.172089	80.045	-7.2195
41.470440	80.079	-6.6558
41.770950	80.180	-6.5833
42.073643	80.271	-7.1822
42.378525	80.284	-8.1811
42.685616	80.202	-9.1075
42.994934	80.056	-9.5444
43.306492	79.911	-9.2983
43.620308	79.842	-8.5169
43.936401	79.893	-7.6991
44.254780	80.031	-7.4248
44.575470	80.172	-7.9039
44.898483	80.244	-8.9398
45.223835	80.214	-10.1005
45.551544	80.095	-10.9251
45.881630	79.941	-11.1295
46.214108	79.820	-10.7426
46.548996	79.781	-10.0965
46.886307	79.822	-9.6301
47.226067	79.895	-9.6124
47.568283	79.943	-10.0069
47.912983	79.936	-10.5573
48.260181	79.876	-10.9612
48.609894	79.796	-11.0227
48.962143	79.736	-10.7417
49.316940	79.730	-10.3109
49.674313	79.781	-10.0184
50.034271	79.861	-10.1020
50.396843	79.924	-10.6251
50.762039	79.926	-11.4307
51.129883	79.850	-12.1914
51.500389	79.712	-12.5485
51.873581	79.569	-12.3072
52.249481	79.488	-11.5986
52.628101	79.503	-10.8577
53.009464	79.588	-10.5591
53.393593	79.671	-10.8932
53.780506	79.683	-11.6435
54.170223	79.604	-12.3396
54.562763	79.469	-12.5614
54.958145	79.350	-12.2109
55.356396	79.308	-11.5761
55.757530	79.350	-11.1257
56.161572	79.425	-11.1753
56.568542	79.474	-11.7078
56.978462	79.458	-12.4499
57.391350	79.379	-13.0672
57.807232	79.262	-13.3215
58.226128	79.151	-13.1390
58.648056	79.086	-12.6172
59.073048	79.094	-12.0009
59.501114	79.170	-11.6149
59.932281	79.277	-11.7098
60.366577	79.355	-12.3053
60.804020	79.362	-13.1534
61.244629	79.290	-13.8756
61.688435	79.171	-14.1565
62.135452	79.062	-13.9318
62.585712	79.010	-13.4310
63.039234	79.021	-13.0103
63.496040	79.062	-12.9160
63.956161	79.086	-13.1619
64.419617	79.061	-13.5315
64.886421	78.992	-13.7361
65.356621	78.915	-13.6126
65.830215	78.875	-13.2512
66.307251	78.888	-12.9582
66.787743	78.926	-12.9916
67.271713	78.942	-13.3540
67.759193	78.908	-13.7886
68.250206	78.837	-14.0297
68.744774	78.767	-14.0074
69.242928	78.724	-13.8608
69.744690	78.705	-13.7528
70.250084	78.696	-13.7448
70.759148	78.685	-13.8141
71.271896	78.669	-13.9339
71.788361	78.645	-14.0761
72.308571	78.611	-14.1870
72.832550	78.576	-14.2138
73.360321	78.550	-14.1717
73.891922	78.539	-14.1381
74.427376	78.534	-14.1740
74.966705	78.524	-14.2652
75.509949	78.505	-14.3561
76.057121	78.480	-14.4104
76.608261	78.452	-14.4136
77.163399	78.426	-14.3599
77.722557	78.407	-14.2681
78.285767	78.400	-14.2018
78.853058	78.397	-14.2405
79.424461	78.381	-14.3902
80.000000	78.342	-14.5528
80.579712	78.285	-14.6064
81.163628	78.230	-14.5043
81.751770	78.193	-14.3162
82.344177	78.178	-14.1500
82.940880	78.174	-14.0774
83.541901	78.173	-14.1034
84.147285	78.165	-14.2014
84.757050	78.148	-14.3337
85.371231	78.119	-14.4497
85.989868	78.084	-14.4947
86.612984	78.056	-14.4716
87.240616	78.040	-14.4695
87.872803	78.025	-14.5668
88.509560	77.993	-14.7091
89.150940	77.948	-14.7601
89.796967	77.911	-14.6864
90.447670	77.899	-14.6079
91.103088	77.900	-14.6637
91.763260	77.890	-14.8488
92.428215	77.859	-15.0274
93.097992	77.818	-15.0752
93.772614	77.783	-14.9903
94.452133	77.761	-14.8415
95.136566	77.752	-14.6651
95.825966	77.760	-14.5205
96.520363	77.776	-14.5246
97.219788	77.772	-14.6832
97.924286	77.736	-14.8210
98.633881	77.688	-14.7951
99.348625	77.651	-14.6517
100.068542	77.633	-14.5184
100.793686	77.623	-14.4666
101.524078	77.613	-14.4929
102.259766	77.596	-14.5551
103.000778	77.573	-14.6079
103.747162	77.548	-14.6167
104.498962	77.529	-14.5898
105.256203	77.514	-14.5823
106.018929	77.496	-14.6033
106.787186	77.471	-14.5998
107.561012	77.445	-14.5492
108.340446	77.424	-14.4690
109.125526	77.409	-14.3908
109.916290	77.399	-14.3520
110.712791	77.387	-14.3514
111.515060	77.372	-14.3627
112.323143	77.356	-14.3919
113.137085	77.334	-14.4438
113.956924	77.301	-14.4671
114.782700	77.266	-14.4185
115.614464	77.233	-14.3017
116.452255	77.214	-14.1355
117.296112	77.213	-14.0232
118.146095	77.214	-14.0480
119.002228	77.205	-14.1405
119.864563	77.185	-14.2609
120.733154	77.148	-14.3439
121.608040	77.105	-14.2923
122.489258	77.070	-14.1405
123.376869	77.048	-13.9216
124.270905	77.044	-13.7296
125.171425	77.047	-13.6408
126.078468	77.050	-13.6313
126.992081	77.045	-13.7311
127.912323	77.021	-13.8420
128.839233	76.989	-13.8401
129.772842	76.969	-13.7590
130.713242	76.961	-13.6874
131.660431	76.958	-13.6508
132.614502	76.955	-13.6576
133.575485	76.945	-13.7413
134.543427	76.913	-13.8582
135.518387	76.855	-13.8734
136.500412	76.799	-13.6232
137.489548	76.784	-13.3242
138.485855	76.786	-13.1559
139.489380	76.799	-13.0873
140.500168	76.809	-13.1697
141.518295	76.801	-13.3023
142.543793	76.773	-13.4043
143.576721	76.734	-13.3485
144.617142	76.711	-13.1865
145.665100	76.703	-13.0452
146.720642	76.705	-13.0067
147.783844	76.702	-13.0856
148.854752	76.687	-13.2497
149.933411	76.644	-13.4225
151.019897	76.581	-13.4298
152.114243	76.516	-13.2445
153.216522	76.469	-12.8750
154.326797	76.450	-12.4516
155.445114	76.465	-12.1042
156.571533	76.486	-12.0353
157.706116	76.487	-12.0797
158.848923	76.471	-12.2213
160.000000	76.427	-12.3108
161.159424	76.376	-12.2793
162.327255	76.325	-12.0764
163.503540	76.300	-11.7817
164.688354	76.290	-11.4700
165.881760	76.306	-11.1870
167.083801	76.334	-11.0411
168.294571	76.364	-11.0940
169.514099	76.372	-11.2837
170.742462	76.357	-11.5812
171.979736	76.298	-11.7949
173.225967	76.221	-11.7398
174.481232	76.154	-11.2714
175.745605	76.148	-10.6833
177.019119	76.173	-10.1545
178.301880	76.231	-9.8751
179.593933	76.269	-9.8571
180.895340	76.275	-10.0273
182.206177	76.235	-9.9981
183.526520	76.209	-9.7796
184.856430	76.207	-9.4110
186.195984	76.237	-9.1073
187.545227	76.291	-8.8604
188.904266	76.352	-8.8694
190.273132	76.401	-9.0593
191.651932	76.408	-9.4336
193.040726	76.372	-9.6907
194.439575	76.313	-9.7249
195.848572	76.269	-9.5370
197.267761	76.241	-9.2729
198.697250	76.248	-8.9761
200.137085	76.282	-8.8277
201.587372	76.326	-8.9191
203.048157	76.351	-9.1687
204.519531	76.355	-9.4913
206.001556	76.331	-9.7563
207.494324	76.292	-9.9182
208.997925	76.247	-9.9425
210.512405	76.202	-9.8845
212.037857	76.163	-9.7312
213.574371	76.135	-9.5609
215.122025	76.116	-9.4189
216.680893	76.100	-9.2990
218.251053	76.093	-9.2216
219.832581	76.090	-9.1709
221.425583	76.091	-9.1370
223.030121	76.094	-9.0997
224.646286	76.092	-9.0580
226.274170	76.087	-8.9662
227.913849	76.080	-8.8627
229.565399	76.073	-8.7733
231.228928	76.061	-8.6998
232.904510	76.050	-8.6530
234.592224	76.036	-8.6304
236.292191	76.020	-8.6191
238.004456	76.003	-8.6096
239.729126	75.983	-8.5951
241.466309	75.963	-8.5602
243.216080	75.945	-8.5196
244.978516	75.929	-8.4984
246.753738	75.910	-8.4627
248.541809	75.893	-8.4078
250.342850	75.878	-8.3477
252.156937	75.864	-8.3115
253.984161	75.850	-8.3106
255.824646	75.833	-8.3005
257.678467	75.819	-8.2309
259.545685	75.812	-8.1069
261.426483	75.811	-7.9918
263.320862	75.811	-7.9288
265.229004	75.810	-7.9151
267.150970	75.807	-7.8990
269.086853	75.805	-7.8365
271.036774	75.801	-7.7328
273.000824	75.794	-7.6235
274.979095	75.780	-7.5401
276.971710	75.764	-7.4689
278.978760	75.750	-7.3834
281.000336	75.742	-7.2784
283.036591	75.737	-7.1852
285.087585	75.726	-7.1072
287.153442	75.714	-7.0278
289.234283	75.707	-6.9519
291.330200	75.704	-6.8648
293.441284	75.700	-6.7730
295.567688	75.690	-6.6848
297.709503	75.679	-6.6081
299.866821	75.671	-6.5446
302.039795	75.664	-6.4465
304.228485	75.655	-6.3187
306.433044	75.641	-6.2131
308.653595	75.622	-6.1483
310.890228	75.609	-6.0931
313.143066	75.601	-6.0042
315.412231	75.593	-5.8973
317.697845	75.579	-5.8289
320.000000	75.565	-5.8210
322.318848	75.558	-5.8313
324.654510	75.555	-5.7884
327.007080	75.552	-5.6790
329.376709	75.549	-5.5540
331.763519	75.545	-5.4283
334.167603	75.539	-5.3000
336.589142	75.528	-5.1822
339.028198	75.513	-5.0896
341.484924	75.504	-5.0113
343.959473	75.500	-4.9236
346.451935	75.490	-4.8190
348.962463	75.476	-4.7219
351.491211	75.462	-4.6380
354.038239	75.451	-4.5561
356.603760	75.440	-4.4749
359.187866	75.429	-4.3901
361.790680	75.421	-4.3010
364.412354	75.413	-4.2162
367.053040	75.403	-4.1406
369.712860	75.393	-4.0716
372.391968	75.384	-3.9949
375.090454	75.378	-3.9101
377.808533	75.371	-3.8174
380.546265	75.362	-3.7078
383.303864	75.350	-3.5988
386.081451	75.340	-3.5042
388.879150	75.333	-3.4127
391.697144	75.327	-3.3065
394.535522	75.317	-3.1984
397.394501	75.306	-3.1058
400.274170	75.298	-3.0067
403.174744	75.291	-2.8786
406.096313	75.284	-2.7341
409.039062	75.275	-2.5974
412.003113	75.266	-2.4796
414.988647	75.256	-2.3794
417.995850	75.247	-2.2920
421.024811	75.240	-2.1902
424.075714	75.234	-2.0796
427.148743	75.225	-1.9898
430.244049	75.215	-1.9067
433.361786	75.206	-1.8038
436.502106	75.199	-1.6878
439.665161	75.190	-1.5805
442.851166	75.179	-1.4629
446.060242	75.167	-1.3220
449.292572	75.155	-1.1777
452.548340	75.145	-1.0457
455.827698	75.136	-0.9135
459.130798	75.130	-0.7664
462.457855	75.125	-0.6148
465.809021	75.116	-0.4706
469.184448	75.105	-0.3150
472.584381	75.099	-0.1541
476.008911	75.093	-0.0105
479.458252	75.089	0.1338
482.932617	75.083	0.3003
486.432159	75.076	0.4753
489.957031	75.072	0.6360
493.507477	75.069	0.7929
497.083618	75.066	0.9407
500.685699	75.067	1.0750
504.313873	75.069	1.2008
507.968323	75.071	1.3248
511.649292	75.076	1.4411
515.356934	75.081	1.5567
519.091370	75.082	1.6775
522.852966	75.082	1.8138
526.641724	75.080	1.9503
530.458008	75.077	2.0771
534.301941	75.074	2.2084
538.173706	75.070	2.3621
542.073547	75.062	2.5307
546.001648	75.053	2.6957
549.958191	75.043	2.8448
553.943420	75.033	2.9778
557.957520	75.022	3.1020
562.000671	75.013	3.2298
566.073181	75.006	3.3622
570.175171	74.999	3.5066
574.306885	74.991	3.6577
578.468567	74.985	3.8183
582.660400	74.981	3.9855
586.882568	74.978	4.1471
591.135376	74.973	4.2932
595.419006	74.968	4.4324
599.733643	74.962	4.5846
604.079590	74.957	4.7489
608.456970	74.953	4.9191
612.866089	74.951	5.0923
617.307190	74.947	5.2815
621.780457	74.941	5.4837
626.286133	74.932	5.6786
630.824463	74.921	5.8706
635.395691	74.913	6.0636
640.000000	74.908	6.2570
644.637695	74.903	6.4580
649.309021	74.898	6.6603
654.014160	74.892	6.8648
658.753418	74.886	7.0845
663.527039	74.880	7.3106
668.335205	74.874	7.5343
673.178284	74.870	7.7516
678.056396	74.868	7.9645
682.969849	74.865	8.1798
687.918945	74.864	8.3872
692.903870	74.864	8.5939
697.924927	74.866	8.8218
702.982422	74.868	9.0560
708.076477	74.869	9.2812
713.207520	74.869	9.5118
718.375732	74.871	9.7528
723.581360	74.875	9.9967
728.824707	74.881	10.2428
734.106079	74.885	10.5003
739.425720	74.888	10.7645
744.783936	74.889	11.0070
750.180908	74.891	11.2509
755.617065	74.896	11.5204
761.092529	74.902	11.7988
766.607727	74.907	12.0637
772.162903	74.911	12.3197
777.758301	74.917	12.5848
783.394287	74.925	12.8636
789.071045	74.932	13.1608
794.789001	74.940	13.4694
800.548340	74.947	13.7648
806.349487	74.954	14.0412
812.192627	74.961	14.3234
818.078125	74.970	14.6154
824.006226	74.983	14.9173
829.977295	74.999	15.2247
835.991699	75.015	15.5283
842.049622	75.031	15.8284
848.151428	75.047	16.1305
854.297485	75.063	16.4244
860.488098	75.079	16.7076
866.723572	75.097	16.9923
873.004211	75.115	17.2939
879.330322	75.134	17.6025
885.702332	75.154	17.8977
892.120483	75.176	18.1910
898.585144	75.200	18.4969
905.096680	75.226	18.8020
911.655396	75.252	19.1008
918.261597	75.280	19.3937
924.915710	75.308	19.6789
931.618042	75.335	19.9507
938.368896	75.363	20.2330
945.168762	75.393	20.5176
952.017822	75.424	20.7957
958.916504	75.456	21.0636
965.865234	75.490	21.3240
972.864319	75.523	21.5926
979.914062	75.554	21.8619
987.014954	75.586	22.1226
994.167236	75.621	22.3692
1001.371399	75.660	22.6065
1008.627747	75.701	22.8404
1015.936646	75.740	23.0771
1023.298584	75.780	23.2978
1030.713867	75.823	23.5021
1038.182739	75.866	23.6995
1045.705933	75.910	23.8919
1053.283447	75.956	24.0719
1060.916016	76.000	24.2340
1068.603882	76.046	24.3950
1076.347412	76.089	24.5396
1084.147095	76.128	24.6665
1092.003296	76.167	24.7985
1099.916382	76.210	24.9341
1107.886841	76.255	25.0412
1115.915039	76.297	25.1170
1124.001343	76.336	25.2048
1132.146362	76.377	25.3189
1140.350342	76.420	25.4103
1148.613770	76.462	25.4489
1156.937134	76.501	25.4846
1165.320801	76.538	25.5545
1173.765137	76.578	25.6374
1182.270752	76.619	25.6932
1190.838013	76.659	25.7162
1199.467285	76.699	25.7371
1208.159180	76.742	25.7502
1216.913940	76.789	25.7386
1225.732178	76.838	25.7233
1234.614380	76.886	25.7132
1243.560913	76.935	25.6924
1252.572266	76.983	25.6607
1261.648926	77.029	25.6292
1270.791382	77.073	25.6090
1280.000000	77.115	25.5983
1289.275391	77.156	25.5867
1298.618042	77.197	25.5728
1308.028320	77.236	25.5580
1317.506836	77.276	25.5439
1327.054077	77.313	25.5283
1336.670410	77.349	25.4936
1346.356567	77.386	25.4492
1356.112793	77.426	25.4000
1365.939697	77.470	25.3449
1375.837891	77.515	25.2830
1385.807739	77.558	25.2379
1395.849854	77.600	25.2115
1405.964844	77.641	25.1818
1416.152954	77.680	25.1450
1426.415039	77.719	25.1271
1436.751465	77.759	25.1279
1447.162720	77.796	25.1163
1457.649414	77.832	25.0860
1468.212158	77.869	25.0622
1478.851440	77.904	25.0667
1489.567871	77.936	25.0737
1500.361816	77.969	25.0581
1511.234131	78.006	25.0577
1522.185059	78.040	25.0747
1533.215454	78.071	25.0737
1544.325806	78.102	25.0670
1555.516602	78.132	25.0695
1566.788574	78.160	25.0627
1578.142090	78.188	25.0479
1589.578003	78.220	25.0465
1601.096680	78.251	25.0594
1612.698975	78.281	25.0781
1624.385254	78.314	25.1016
1636.156250	78.347	25.1320
1648.012451	78.380	25.1600
1659.954590	78.412	25.1768
1671.983398	78.446	25.1910
1684.099243	78.480	25.2033
1696.302856	78.515	25.2115
1708.594971	78.552	25.2156
1720.976196	78.590	25.2378
1733.447144	78.628	25.2725
1746.008423	78.664	25.2986
1758.660645	78.701	25.3240
1771.404663	78.738	25.3609
1784.240967	78.773	25.4003
1797.170288	78.808	25.4346
1810.193359	78.846	25.4673
1823.310791	78.883	25.4985
1836.523193	78.920	25.5332
1849.831421	78.961	25.5683
1863.236084	79.004	25.5929
1876.737793	79.046	25.6161
1890.337524	79.090	25.6454
1904.035645	79.138	25.6657
1917.833008	79.186	25.6655
1931.730469	79.233	25.6657
1945.728638	79.282	25.6811
1959.828125	79.334	25.6994
1974.029907	79.389	25.7046
1988.334473	79.443	25.6992
2002.742798	79.497	25.6927
2017.255493	79.553	25.6792
2031.873291	79.608	25.6486
2046.597168	79.661	25.6087
2061.427734	79.714	25.5773
2076.365479	79.767	25.5582
2091.411865	79.820	25.5432
2106.566895	79.871	25.5316
2121.832031	79.922	25.5238
2137.207764	79.973	25.5069
2152.694824	80.026	25.4777
2168.294189	80.078	25.4312
2184.006592	80.131	25.3688
2199.832764	80.188	25.2962
2215.773682	80.247	25.2266
2231.830078	80.306	25.1657
2248.002686	80.366	25.1193
2264.292725	80.429	25.0863
2280.700684	80.495	25.0586
2297.227539	80.561	25.0270
2313.874268	80.631	24.9990
2330.641602	80.705	24.9991
2347.530273	80.785	25.0125
2364.541504	80.875	24.9898
2381.676025	80.973	24.9108
2398.934570	81.078	24.7872
2416.318359	81.184	24.6053
2433.827881	81.291	24.3433
2451.464355	81.396	24.0063
2469.228760	81.494	23.6085
2487.121826	81.586	23.1618
2505.144531	81.674	22.6863
2523.297852	81.758	22.2053
2541.582764	81.839	21.7197
2560.000000	81.917	21.2253
2578.550781	81.992	20.7227
2597.236084	82.067	20.2166
2616.056641	82.142	19.7207
2635.013672	82.215	19.2325
2654.108154	82.289	18.7317
2673.340820	82.367	18.2095
2692.713135	82.446	17.6764
2712.225586	82.525	17.1121
2731.879395	82.602	16.4883
2751.675781	82.680	15.8027
2771.615479	82.754	15.0697
2791.699707	82.821	14.2949
2811.929688	82.880	13.4817
2832.305908	82.930	12.6416
2852.830078	82.974	11.7829
2873.502930	83.011	10.9056
2894.325439	83.043	10.0092
2915.298828	83.070	9.0989
2936.424316	83.090	8.1860
2957.702881	83.104	7.2715
2979.135742	83.112	6.3527
3000.723633	83.116	5.4317
3022.468262	83.115	4.5084
3044.370117	83.110	3.5866
3066.430908	83.100	2.6668
3088.651611	83.088	1.7495
3111.033203	83.072	0.8349
3133.577148	83.052	-0.0829
3156.284180	83.029	-1.0072
3179.156006	83.000	-1.9322
3202.193359	82.966	-2.8605
3225.397949	82.924	-3.7959
3248.770508	82.875	-4.7280
3272.312500	82.817	-5.6523
3296.024902	82.751	-6.5624
3319.909180	82.677	-7.4477
3343.966797	82.593	-8.3018
3368.198486	82.503	-9.1256
3392.605713	82.406	-9.9168
3417.189941	82.303	-10.6677
3441.952393	82.196	-11.3817
3466.894287	82.085	-12.0520
3492.016846	81.971	-12.6781
3517.321289	81.853	-13.2673
3542.809326	81.734	-13.8152
3568.481934	81.615	-14.3197
3594.340576	81.496	-14.7889
3620.386719	81.377	-15.2254
3646.621582	81.256	-15.6262
3673.046387	81.136	-15.9860
3699.662842	81.017	-16.3111
3726.472168	80.897	-16.6077
3753.475586	80.775	-16.8719
3780.675049	80.652	-17.0974
3808.071289	80.528	-17.2729
3835.666016	80.402	-17.4022
3863.460938	80.278	-17.4915
3891.457275	80.157	-17.5445
3919.656250	80.036	-17.5639
3948.059814	79.916	-17.5405
3976.668945	79.799	-17.4783
4005.485596	79.682	-17.3902
4034.510986	79.568	-17.2739
4063.746582	79.457	-17.1342
4093.194336	79.349	-16.9677
4122.855469	79.242	-16.7765
4152.730957	79.138	-16.5579
4182.823730	79.038	-16.3205
4213.133789	78.942	-16.0654
4243.664062	78.852	-15.7948
4274.415527	78.766	-15.5050
4305.389648	78.683	-15.1992
4336.588379	78.605	-14.8875
4368.013184	78.532	-14.5778
4399.665527	78.462	-14.2636
