* Measurement data measured by REW V5.20.13
* Source: EXCL: Microphone(High Definition Audio Device), MICROPHONE (마스), R, volume: 1.000
* Format: 256k Log Swept Sine, 1 sweep at -12.0 dBFS with no timing reference
* Dated: 2023. 2. 22 오후 10:47:04
* REW Settings:
*  C-weighting compensation: Off
*  Target level: 75.0 dB
* Note: 
* Measurement: R
* Smoothing: 1/24 octave
* Frequency Step: 1/48 octave
* Start Frequency: 20.300 Hz
*
* Freq(Hz)	SPL(dB)	Phase(degrees)
20.299999	96.034	-170.6189
20.600000	96.038	-170.8329
20.900000	96.044	-171.2084
21.200001	96.047	-171.5510
21.400000	96.047	-171.7726
21.799999	96.047	-172.2459
22.000000	96.045	-172.5119
22.400000	96.036	-173.0990
22.700001	96.024	-173.5645
23.000000	96.006	-174.0249
23.299999	95.986	-174.4635
23.600000	95.968	-174.8793
24.000000	95.954	-175.4150
24.299999	95.951	-175.8260
24.700001	95.955	-176.4113
25.000000	95.959	-176.8813
25.400000	95.960	-177.5282
25.799999	95.954	-178.1481
26.200001	95.943	-178.6942
26.500000	95.936	-179.0478
26.900000	95.929	-179.4639
27.200001	95.928	-179.7604
27.600000	95.930	179.8325
28.000000	95.932	179.3961
28.500000	95.925	178.8306
29.000000	95.905	178.2962
29.500000	95.878	177.8158
30.000000	95.852	177.3589
30.400000	95.832	176.9873
30.700001	95.817	176.7059
31.100000	95.795	176.3392
31.500000	95.773	175.9873
32.000000	95.749	175.5500
32.500000	95.731	175.0750
33.000000	95.714	174.5443
33.500000	95.693	173.9924
34.000000	95.670	173.4747
34.500000	95.646	173.0117
35.000000	95.626	172.5881
35.500000	95.612	172.1797
36.000000	95.599	171.7694
36.500000	95.585	171.3521
37.000000	95.568	170.9371
37.500000	95.544	170.5428
38.200001	95.507	170.0522
38.700001	95.484	169.7283
39.500000	95.450	169.1630
40.000000	95.422	168.7748
40.599998	95.381	168.3250
41.200001	95.337	167.9275
41.799999	95.299	167.5635
42.500000	95.264	167.1403
43.099998	95.240	166.7594
43.700001	95.217	166.3440
44.400002	95.182	165.8166
45.000000	95.142	165.3777
45.500000	95.106	165.0615
46.200001	95.062	164.6929
46.799999	95.032	164.3999
47.500000	95.003	164.0305
48.200001	94.970	163.6345
48.700001	94.943	163.3636
49.400002	94.907	163.0226
50.000000	94.882	162.7363
50.799999	94.853	162.3090
51.500000	94.820	161.9124
52.200001	94.779	161.5333
53.000000	94.726	161.1395
53.799999	94.674	160.7995
54.500000	94.634	160.5207
55.200001	94.600	160.2201
56.000000	94.561	159.8543
57.000000	94.508	159.4113
58.000000	94.456	158.9744
59.000000	94.401	158.5588
60.000000	94.341	158.1680
60.799999	94.293	157.8627
61.500000	94.250	157.6146
62.200001	94.208	157.3884
63.000000	94.164	157.1335
64.000000	94.111	156.7746
65.000000	94.045	156.4343
66.000000	93.981	156.1952
67.000000	93.933	155.9470
68.000000	93.884	155.6042
69.000000	93.818	155.2306
70.000000	93.740	154.9532
71.000000	93.676	154.7700
72.000000	93.627	154.5021
73.000000	93.568	154.1920
74.000000	93.514	153.9607
75.000000	93.477	153.6740
76.199997	93.420	153.2223
77.500000	93.337	152.8651
78.800003	93.257	152.6754
80.000000	93.191	152.5641
81.199997	93.139	152.4386
82.500000	93.089	152.1407
83.800003	93.012	151.8254
85.000000	92.941	151.6656
86.199997	92.884	151.5193
87.500000	92.827	151.2870
88.500000	92.779	151.0764
90.000000	92.703	150.7939
91.199997	92.645	150.5637
92.500000	92.585	150.3417
93.800003	92.542	150.0793
95.000000	92.488	149.7382
96.199997	92.412	149.5656
97.500000	92.346	149.5691
98.800003	92.296	149.5769
100.000000	92.249	149.5211
101.500000	92.180	149.3878
103.000000	92.108	149.2263
104.400002	92.040	149.0150
106.000000	91.956	148.8564
107.500000	91.897	148.8005
109.000000	91.837	148.6891
110.599998	91.756	148.6682
112.000000	91.691	148.6591
113.800003	91.613	148.4549
115.000000	91.558	148.2225
117.199997	91.476	147.8390
118.000000	91.456	147.6959
120.599998	91.349	147.4560
122.000000	91.291	147.6850
124.099998	91.215	147.8900
125.000000	91.173	147.9385
126.500000	91.104	147.9901
128.000000	91.040	147.9720
131.500000	90.903	147.9764
132.000000	90.886	147.9850
134.000000	90.818	147.9744
136.000000	90.740	147.8813
138.000000	90.652	147.8298
140.000000	90.572	147.9417
143.000000	90.462	148.1722
145.000000	90.370	148.3477
147.500000	90.277	148.5740
150.000000	90.196	148.7432
152.500000	90.120	149.1794
155.000000	90.042	149.7478
157.500000	89.985	150.3621
160.000000	89.968	150.8402
162.500000	89.988	151.2505
165.000000	90.029	151.4924
167.500000	90.056	151.4322
170.000000	90.058	151.1937
172.500000	90.062	150.8970
175.000000	90.067	150.5380
177.500000	90.041	150.1771
180.000000	89.976	149.9891
182.500000	89.908	149.9275
185.000000	89.846	149.8050
187.500000	89.784	149.6654
190.000000	89.721	149.5537
192.500000	89.661	149.4928
195.000000	89.610	149.5039
197.500000	89.568	149.5571
200.000000	89.520	149.5450
203.000000	89.445	149.4854
206.000000	89.365	149.5325
209.000000	89.295	149.7387
212.000000	89.249	149.8563
214.000000	89.221	149.8618
218.000000	89.150	149.9597
220.000000	89.113	150.0193
224.000000	89.044	150.0895
227.000000	88.995	150.2521
230.000000	88.944	150.4231
233.000000	88.896	150.5264
236.000000	88.852	150.5948
240.000000	88.772	150.7267
243.000000	88.713	150.8584
247.000000	88.655	150.9860
250.000000	88.608	151.1367
254.000000	88.546	151.4406
258.000000	88.494	151.5938
262.000000	88.434	151.6963
265.000000	88.378	151.8429
269.000000	88.297	152.1329
272.000000	88.251	152.3652
276.000000	88.219	152.6730
280.000000	88.185	153.1126
285.000000	88.121	153.7260
290.000000	88.096	154.3265
295.000000	88.092	154.7731
300.000000	88.113	154.9896
304.000000	88.146	155.1011
307.000000	88.167	155.1796
311.000000	88.177	155.2621
315.000000	88.167	155.2778
320.000000	88.152	155.1836
325.000000	88.123	155.1080
330.000000	88.083	155.1784
335.000000	88.056	155.1711
340.000000	88.032	155.1788
345.000000	87.992	155.3063
350.000000	87.939	155.4536
355.000000	87.885	155.6657
360.000000	87.839	155.8889
365.000000	87.810	156.0049
370.000000	87.776	156.1620
375.000000	87.735	156.3168
382.000000	87.695	156.5362
387.000000	87.664	156.7231
395.000000	87.589	156.9992
400.000000	87.542	157.1571
406.000000	87.505	157.3636
412.000000	87.477	157.5835
418.000000	87.472	157.8622
425.000000	87.453	158.1771
431.000000	87.410	158.2987
437.000000	87.370	158.4581
444.000000	87.346	158.7488
450.000000	87.335	159.0225
455.000000	87.319	159.2268
462.000000	87.297	159.4369
468.000000	87.281	159.6262
475.000000	87.261	159.9817
482.000000	87.239	160.3268
487.000000	87.225	160.4003
494.000000	87.206	160.4799
500.000000	87.188	160.7701
508.000000	87.161	161.2180
515.000000	87.137	161.4337
522.000000	87.116	161.6751
530.000000	87.102	161.9781
538.000000	87.087	162.1724
545.000000	87.076	162.4590
552.000000	87.066	162.8079
560.000000	87.048	163.0565
570.000000	87.026	163.3325
580.000000	87.000	163.7210
590.000000	86.989	164.0189
600.000000	86.976	164.3555
608.000000	86.973	164.6783
615.000000	86.972	164.8670
622.000000	86.969	165.0715
630.000000	86.963	165.4156
640.000000	86.948	165.8730
650.000000	86.927	166.2283
660.000000	86.912	166.5837
670.000000	86.906	166.9962
680.000000	86.895	167.4070
690.000000	86.892	167.7427
700.000000	86.902	168.1376
710.000000	86.902	168.5381
720.000000	86.895	168.9056
730.000000	86.905	169.3139
740.000000	86.905	169.7106
750.000000	86.907	170.1174
762.000000	86.910	170.5792
775.000000	86.934	171.0652
788.000000	86.970	171.6677
800.000000	86.985	172.2888
812.000000	87.007	172.8118
825.000000	87.036	173.2805
838.000000	87.067	173.8340
850.000000	87.107	174.3252
862.000000	87.146	174.7844
875.000000	87.192	175.2406
885.000000	87.242	175.5613
900.000000	87.315	176.0367
912.000000	87.375	176.4016
925.000000	87.434	176.8521
938.000000	87.484	177.2667
950.000000	87.539	177.5869
962.000000	87.609	177.8426
975.000000	87.683	178.0875
988.000000	87.761	178.4173
1000.000000	87.840	178.7771
1015.000000	87.930	179.1479
1030.000000	88.014	179.3068
1044.000000	88.098	179.3958
1060.000000	88.204	179.4991
1075.000000	88.302	179.5192
1090.000000	88.389	179.5906
1106.000000	88.489	179.6163
1120.000000	88.581	179.6113
1138.000000	88.697	179.5737
1150.000000	88.767	179.5086
1172.000000	88.896	179.3469
1180.000000	88.942	179.2936
1206.000000	89.071	179.0772
1220.000000	89.146	178.8915
1241.000000	89.251	178.6793
1250.000000	89.288	178.5984
1265.000000	89.348	178.4244
1280.000000	89.415	178.2362
1315.000000	89.556	177.8728
1320.000000	89.576	177.8218
1340.000000	89.653	177.6084
1360.000000	89.722	177.4235
1380.000000	89.791	177.2700
1400.000000	89.864	177.1534
1430.000000	89.959	176.9304
1450.000000	90.024	176.7842
1475.000000	90.110	176.6006
1500.000000	90.195	176.4592
1525.000000	90.285	176.3291
1550.000000	90.380	176.1741
1575.000000	90.473	176.0633
1600.000000	90.558	175.9037
1625.000000	90.650	175.6952
1650.000000	90.742	175.5060
1675.000000	90.830	175.2942
1700.000000	90.920	175.0295
1725.000000	91.012	174.8192
1750.000000	91.102	174.6447
1775.000000	91.189	174.4006
1800.000000	91.278	174.1213
1825.000000	91.364	173.8540
1850.000000	91.448	173.5920
1875.000000	91.535	173.3060
1900.000000	91.622	173.0038
1925.000000	91.705	172.6716
1950.000000	91.787	172.3114
1975.000000	91.866	171.9464
2000.000000	91.944	171.5825
2030.000000	92.038	171.1503
2060.000000	92.122	170.6694
2090.000000	92.202	170.1659
2120.000000	92.279	169.6699
2140.000000	92.329	169.3528
2180.000000	92.424	168.7161
2200.000000	92.470	168.3957
2240.000000	92.557	167.7472
2270.000000	92.615	167.2276
2300.000000	92.673	166.7457
2330.000000	92.730	166.2841
2360.000000	92.785	165.8303
2400.000000	92.856	165.2265
2430.000000	92.909	164.7299
2470.000000	92.976	164.1158
2500.000000	93.021	163.6824
2540.000000	93.078	163.1010
2580.000000	93.130	162.5604
2620.000000	93.176	162.0884
2650.000000	93.215	161.7739
2690.000000	93.277	161.3940
2720.000000	93.330	161.1101
2760.000000	93.408	160.6985
2800.000000	93.494	160.2511
2850.000000	93.603	159.6354
2900.000000	93.718	158.9492
2950.000000	93.835	158.1885
3000.000000	93.942	157.2972
3040.000000	94.021	156.5355
3070.000000	94.071	155.9552
3110.000000	94.128	155.1888
3150.000000	94.182	154.4550
3200.000000	94.254	153.5660
3250.000000	94.325	152.6694
3300.000000	94.399	151.7395
3350.000000	94.467	150.7846
3400.000000	94.528	149.7752
3450.000000	94.587	148.7293
3500.000000	94.648	147.6873
3550.000000	94.705	146.6561
3600.000000	94.761	145.6252
3650.000000	94.814	144.5889
3700.000000	94.865	143.5319
3750.000000	94.914	142.4135
3820.000000	94.969	140.7224
3870.000000	94.990	139.4589
3950.000000	94.994	137.3947
4000.000000	94.977	136.0869
4060.000000	94.940	134.5301
4120.000000	94.884	132.9923
4180.000000	94.812	131.4628
4250.000000	94.709	129.7059
4310.000000	94.595	128.2405
4370.000000	94.453	126.8163
4440.000000	94.259	125.2417
4500.000000	94.072	123.9853
4550.000000	93.903	123.0025
4620.000000	93.650	121.7382
4680.000000	93.421	120.7792
4750.000000	93.141	119.8346
4820.000000	92.848	119.0735
4870.000000	92.634	118.6343
4940.000000	92.330	118.1687
5000.000000	92.069	117.9046
5080.000000	91.718	117.7395
5150.000000	91.411	117.7736
5220.000000	91.108	117.9601
5300.000000	90.771	118.3403
5380.000000	90.445	118.9001
5450.000000	90.168	119.5362
5520.000000	89.901	120.2900
5600.000000	89.611	121.2996
5700.000000	89.272	122.7985
5800.000000	88.964	124.4850
5900.000000	88.684	126.3403
6000.000000	88.442	128.3918
6080.000000	88.280	130.1420
6150.000000	88.163	131.7408
6220.000000	88.068	133.3871
6300.000000	87.989	135.2853
6400.000000	87.939	137.6435
6500.000000	87.940	139.9948
6600.000000	87.989	142.2687
6700.000000	88.088	144.3812
6800.000000	88.233	146.3058
6900.000000	88.433	148.0543
7000.000000	88.691	149.6027
7100.000000	88.995	150.8938
7200.000000	89.334	151.8733
7300.000000	89.706	152.4993
7400.000000	90.111	152.7401
7500.000000	90.557	152.5209
7620.000000	91.171	151.3754
7750.000000	91.881	148.4108
7880.000000	92.429	142.9901
8000.000000	92.616	135.8394
8120.000000	92.360	127.6410
8250.000000	91.540	119.5246
8380.000000	90.266	113.9412
8500.000000	88.860	111.6812
8620.000000	87.383	112.1228
8750.000000	85.821	115.3336
8850.000000	84.708	119.5746
9000.000000	83.313	128.5353
9120.000000	82.587	137.4648
9250.000000	82.370	147.7449
9380.000000	82.774	156.7812
9500.000000	83.491	162.3720
9620.000000	84.234	164.6796
9750.000000	84.794	164.1256
9880.000000	84.973	162.0901
10000.000000	84.825	160.3767
10150.000000	84.362	159.6418
10300.000000	83.774	160.7454
10440.000000	83.231	163.1302
10600.000000	82.683	167.0108
10750.000000	82.269	171.4496
10900.000000	81.962	176.3809
11060.000000	81.747	-178.0389
11200.000000	81.659	-172.9760
11380.000000	81.686	-166.3075
11500.000000	81.796	-161.8311
11720.000000	82.177	-153.7711
11800.000000	82.375	-150.8995
12060.000000	83.267	-141.9619
12200.000000	83.918	-137.5583
12410.000000	85.155	-131.8931
12500.000000	85.802	-129.9904
12650.000000	87.059	-127.9156
12800.000000	88.523	-127.8772
13150.000000	91.807	-142.1321
13200.000000	92.098	-146.1951
13400.000000	92.405	-165.2003
13600.000000	91.328	177.9780
13800.000000	89.394	168.6689
14000.000000	87.327	166.0058
14300.000000	84.813	168.5969
14500.000000	83.610	172.1447
14750.000000	82.542	177.0894
15000.000000	81.850	-178.3084
15250.000000	81.446	-174.7118
15500.000000	81.255	-172.6712
15750.000000	81.135	-172.5896
16000.000000	80.888	-174.3177
16250.000000	80.363	-177.0667
16500.000000	79.512	-179.6593
16750.000000	78.406	178.8726
17000.000000	77.172	178.9309
17250.000000	75.927	-179.6548
17500.000000	74.771	-177.3836
17750.000000	73.728	-174.8564
18000.000000	72.762	-172.6031
18250.000000	71.843	-170.9976
18500.000000	70.926	-170.4565
18750.000000	69.976	-171.8137
19000.000000	68.883	-176.8503
19250.000000	67.338	170.7286
19500.000000	64.776	139.4637
19750.000000	60.785	54.1872
20000.000000	56.516	-54.8380
