* Measurement data measured by REW V5.20.13
* Source: EXCL: Microphone(High Definition Audio Device), MICROPHONE (마스), R, volume: 1.000
* Format: 256k Log Swept Sine, 1 sweep at -12.0 dBFS with no timing reference
* Dated: 2023. 2. 22 오후 10:52:43
* REW Settings:
*  C-weighting compensation: Off
*  Target level: 75.0 dB
* Note: 
* Measurement: R_Wide
* Smoothing: 1/24 octave
* Frequency Step: 1/48 octave
* Start Frequency: 20.300 Hz
*
* Freq(Hz)	SPL(dB)	Phase(degrees)
20.299999	96.304	-170.6105
20.600000	96.308	-170.8058
20.900000	96.314	-171.1566
21.200001	96.319	-171.4997
21.400000	96.320	-171.7336
21.799999	96.318	-172.2428
22.000000	96.316	-172.5246
22.400000	96.306	-173.1301
22.700001	96.296	-173.6071
23.000000	96.283	-174.0953
23.299999	96.269	-174.5923
23.600000	96.255	-175.0973
24.000000	96.236	-175.7758
24.299999	96.222	-176.2748
24.700001	96.203	-176.9021
25.000000	96.190	-177.3303
25.400000	96.179	-177.8408
25.799999	96.178	-178.2981
26.200001	96.186	-178.7335
26.500000	96.195	-179.0646
26.900000	96.206	-179.5245
27.200001	96.211	-179.8810
27.600000	96.211	179.6427
28.000000	96.205	179.1860
28.500000	96.188	178.6653
29.000000	96.166	178.2040
29.500000	96.142	177.7773
30.000000	96.120	177.3387
30.400000	96.103	176.9585
30.700001	96.089	176.6583
31.100000	96.066	176.2526
31.500000	96.039	175.8546
32.000000	96.005	175.3746
32.500000	95.975	174.8994
33.000000	95.951	174.4073
33.500000	95.931	173.8961
34.000000	95.915	173.3789
34.500000	95.896	172.8670
35.000000	95.875	172.3754
35.500000	95.851	171.9310
36.000000	95.827	171.5494
36.500000	95.809	171.2144
37.000000	95.797	170.8831
37.500000	95.785	170.5229
38.200001	95.758	169.9863
38.700001	95.731	169.6208
39.500000	95.682	169.0837
40.000000	95.651	168.7569
40.599998	95.612	168.3656
41.200001	95.575	167.9655
41.799999	95.539	167.5340
42.500000	95.492	167.0118
43.099998	95.447	166.6255
43.700001	95.410	166.3137
44.400002	95.381	165.9417
45.000000	95.359	165.5545
45.500000	95.336	165.2219
46.200001	95.305	164.8018
46.799999	95.282	164.4453
47.500000	95.247	163.9670
48.200001	95.186	163.5530
48.700001	95.138	163.4063
49.400002	95.100	163.3353
50.000000	95.095	163.1454
50.799999	95.070	162.5839
51.500000	94.999	162.1771
52.200001	94.934	162.0663
53.000000	94.916	161.8831
53.799999	94.890	161.3030
54.500000	94.816	160.8365
55.200001	94.742	160.7423
56.000000	94.727	160.8093
57.000000	94.767	160.3578
58.000000	94.733	159.5000
59.000000	94.642	159.1065
60.000000	94.608	158.9483
60.799999	94.595	158.4583
61.500000	94.540	157.9006
62.200001	94.449	157.5149
63.000000	94.342	157.3772
64.000000	94.259	157.4899
65.000000	94.251	157.4442
66.000000	94.239	156.8871
67.000000	94.164	156.3755
68.000000	94.104	156.1985
69.000000	94.080	155.9306
70.000000	94.051	155.5376
71.000000	94.014	155.1122
72.000000	93.962	154.7437
73.000000	93.914	154.5265
74.000000	93.877	154.2862
75.000000	93.826	154.0623
76.199997	93.768	153.8832
77.500000	93.701	153.6190
78.800003	93.616	153.3246
80.000000	93.533	153.0812
81.199997	93.464	152.8400
82.500000	93.406	152.5348
83.800003	93.346	152.2401
85.000000	93.291	152.0604
86.199997	93.240	151.8939
87.500000	93.178	151.6469
88.500000	93.124	151.4250
90.000000	93.041	151.1313
91.199997	92.990	150.9584
92.500000	92.963	150.7876
93.800003	92.949	150.4814
95.000000	92.898	150.1203
96.199997	92.804	149.9877
97.500000	92.710	150.0710
98.800003	92.632	150.0764
100.000000	92.564	149.9843
101.500000	92.494	149.7723
103.000000	92.439	149.5175
104.400002	92.390	149.3264
106.000000	92.337	149.2081
107.500000	92.279	149.0898
109.000000	92.219	148.9554
110.599998	92.151	148.6960
112.000000	92.082	148.5437
113.800003	92.009	148.5234
115.000000	91.958	148.5656
117.199997	91.832	148.7550
118.000000	91.777	148.8962
120.599998	91.700	149.2227
122.000000	91.680	148.7542
124.099998	91.596	148.1123
125.000000	91.566	147.9766
126.500000	91.524	147.8665
128.000000	91.486	147.8500
131.500000	91.364	147.7586
132.000000	91.342	147.7527
134.000000	91.261	147.7352
136.000000	91.186	147.7267
138.000000	91.123	147.7291
140.000000	91.066	147.6798
143.000000	90.978	147.6990
145.000000	90.922	147.6928
147.500000	90.837	147.6018
150.000000	90.745	147.5271
152.500000	90.672	147.5201
155.000000	90.602	147.5954
157.500000	90.537	147.6738
160.000000	90.465	147.6532
162.500000	90.403	147.7087
165.000000	90.349	147.7706
167.500000	90.270	147.8647
170.000000	90.179	147.9373
172.500000	90.092	147.9178
175.000000	90.021	147.9130
177.500000	89.970	147.9654
180.000000	89.923	148.0463
182.500000	89.867	148.1964
185.000000	89.796	148.3206
187.500000	89.713	148.4011
190.000000	89.633	148.4941
192.500000	89.561	148.6908
195.000000	89.496	148.9747
197.500000	89.433	149.2015
200.000000	89.371	149.3326
203.000000	89.296	149.4480
206.000000	89.223	149.6113
209.000000	89.150	149.8773
212.000000	89.079	150.3796
214.000000	89.031	150.8237
218.000000	88.959	151.7885
220.000000	88.946	152.2754
224.000000	88.954	153.3616
227.000000	88.995	153.9749
230.000000	89.054	154.1237
233.000000	89.131	154.0856
236.000000	89.210	153.9040
240.000000	89.273	153.5050
243.000000	89.283	153.2172
247.000000	89.251	153.0014
250.000000	89.205	152.8817
254.000000	89.127	152.6190
258.000000	89.060	152.4784
262.000000	89.016	152.5014
265.000000	88.980	152.4977
269.000000	88.929	152.4265
272.000000	88.880	152.3940
276.000000	88.816	152.4523
280.000000	88.777	152.5400
285.000000	88.730	152.5904
290.000000	88.672	152.7449
295.000000	88.602	152.9088
300.000000	88.545	153.0364
304.000000	88.512	153.2144
307.000000	88.485	153.3462
311.000000	88.448	153.4535
315.000000	88.415	153.5289
320.000000	88.374	153.6682
325.000000	88.321	153.9119
330.000000	88.279	154.0548
335.000000	88.248	154.1300
340.000000	88.208	154.3435
345.000000	88.170	154.5865
350.000000	88.147	154.7693
355.000000	88.123	154.8859
360.000000	88.080	155.0000
365.000000	88.031	155.1821
370.000000	87.995	155.4812
375.000000	87.968	155.7576
382.000000	87.927	155.9983
387.000000	87.893	156.1764
395.000000	87.839	156.3799
400.000000	87.809	156.5511
406.000000	87.782	156.7528
412.000000	87.750	156.9486
418.000000	87.719	157.1108
425.000000	87.698	157.3037
431.000000	87.663	157.5927
437.000000	87.620	157.9244
444.000000	87.574	158.0755
450.000000	87.554	158.1566
455.000000	87.544	158.3038
462.000000	87.513	158.6178
468.000000	87.495	158.9378
475.000000	87.484	159.2517
482.000000	87.474	159.4991
487.000000	87.458	159.7054
494.000000	87.434	160.0286
500.000000	87.423	160.2308
508.000000	87.390	160.4250
515.000000	87.363	160.6273
522.000000	87.349	160.8943
530.000000	87.333	161.1541
538.000000	87.304	161.4426
545.000000	87.279	161.6818
552.000000	87.269	161.8932
560.000000	87.266	162.2277
570.000000	87.261	162.7497
580.000000	87.249	163.1175
590.000000	87.236	163.4971
600.000000	87.228	163.7959
608.000000	87.226	164.0179
615.000000	87.227	164.2993
622.000000	87.223	164.5513
630.000000	87.204	164.8206
640.000000	87.182	165.2640
650.000000	87.176	165.6455
660.000000	87.175	165.9216
670.000000	87.169	166.2872
680.000000	87.157	166.6559
690.000000	87.147	166.9800
700.000000	87.144	167.3678
710.000000	87.145	167.7803
720.000000	87.146	168.2224
730.000000	87.145	168.5751
740.000000	87.150	168.9233
750.000000	87.160	169.3300
762.000000	87.169	169.7928
775.000000	87.180	170.4138
788.000000	87.198	170.9393
800.000000	87.210	171.3592
812.000000	87.233	171.8456
825.000000	87.265	172.4213
838.000000	87.313	172.9239
850.000000	87.344	173.3433
862.000000	87.369	173.8104
875.000000	87.409	174.2975
885.000000	87.446	174.6473
900.000000	87.494	175.1561
912.000000	87.539	175.5514
925.000000	87.606	175.9772
938.000000	87.684	176.4117
950.000000	87.753	176.7442
962.000000	87.819	176.9833
975.000000	87.889	177.2331
988.000000	87.967	177.4732
1000.000000	88.049	177.7023
1015.000000	88.144	177.9962
1030.000000	88.233	178.2474
1044.000000	88.319	178.3784
1060.000000	88.414	178.5063
1075.000000	88.499	178.6031
1090.000000	88.586	178.6521
1106.000000	88.695	178.6301
1120.000000	88.795	178.5800
1138.000000	88.909	178.4834
1150.000000	88.979	178.4361
1172.000000	89.103	178.2993
1180.000000	89.145	178.2339
1206.000000	89.279	177.9038
1220.000000	89.351	177.7655
1241.000000	89.455	177.6301
1250.000000	89.494	177.5216
1265.000000	89.551	177.3046
1280.000000	89.609	177.1173
1315.000000	89.750	176.7690
1320.000000	89.768	176.7245
1340.000000	89.836	176.5505
1360.000000	89.908	176.3610
1380.000000	89.980	176.1679
1400.000000	90.055	175.9941
1430.000000	90.162	175.7657
1450.000000	90.228	175.5785
1475.000000	90.304	175.3423
1500.000000	90.390	175.1755
1525.000000	90.476	175.0456
1550.000000	90.561	174.8884
1575.000000	90.650	174.7269
1600.000000	90.738	174.5691
1625.000000	90.830	174.3979
1650.000000	90.931	174.1684
1675.000000	91.023	173.9404
1700.000000	91.106	173.7597
1725.000000	91.191	173.5778
1750.000000	91.276	173.3948
1775.000000	91.368	173.1811
1800.000000	91.461	172.9243
1825.000000	91.551	172.6503
1850.000000	91.638	172.3641
1875.000000	91.725	172.0496
1900.000000	91.813	171.7236
1925.000000	91.903	171.4139
1950.000000	91.988	171.0766
1975.000000	92.067	170.7004
2000.000000	92.147	170.3272
2030.000000	92.240	169.8918
2060.000000	92.328	169.4370
2090.000000	92.417	168.9744
2120.000000	92.507	168.5280
2140.000000	92.565	168.2271
2180.000000	92.675	167.5723
2200.000000	92.726	167.2289
2240.000000	92.826	166.5535
2270.000000	92.902	166.0623
2300.000000	92.978	165.5513
2330.000000	93.050	165.0307
2360.000000	93.117	164.5208
2400.000000	93.207	163.8482
2430.000000	93.271	163.3318
2470.000000	93.356	162.6729
2500.000000	93.419	162.1859
2540.000000	93.503	161.4858
2580.000000	93.584	160.7563
2620.000000	93.661	160.0307
2650.000000	93.719	159.5021
2690.000000	93.791	158.8078
2720.000000	93.844	158.2744
2760.000000	93.916	157.5533
2800.000000	93.984	156.8129
2850.000000	94.066	155.8696
2900.000000	94.150	154.9350
2950.000000	94.226	153.9870
3000.000000	94.298	152.9826
3040.000000	94.357	152.1691
3070.000000	94.399	151.5533
3110.000000	94.453	150.7370
3150.000000	94.504	149.9280
3200.000000	94.564	148.8810
3250.000000	94.623	147.7977
3300.000000	94.678	146.7072
3350.000000	94.724	145.5957
3400.000000	94.766	144.4576
3450.000000	94.810	143.3053
3500.000000	94.852	142.1392
3550.000000	94.888	140.9545
3600.000000	94.915	139.7452
3650.000000	94.935	138.5210
3700.000000	94.947	137.2959
3750.000000	94.949	136.0773
3820.000000	94.933	134.3720
3870.000000	94.907	133.1434
3950.000000	94.839	131.1908
4000.000000	94.783	129.9794
4060.000000	94.704	128.5664
4120.000000	94.612	127.1898
4180.000000	94.504	125.8403
4250.000000	94.360	124.3566
4310.000000	94.216	123.1388
4370.000000	94.052	121.9716
4440.000000	93.841	120.7314
4500.000000	93.647	119.7817
4550.000000	93.478	119.0420
4620.000000	93.231	118.0930
4680.000000	93.014	117.3937
4750.000000	92.756	116.7148
4820.000000	92.489	116.1781
4870.000000	92.295	115.8769
4940.000000	92.021	115.5587
5000.000000	91.783	115.3897
5080.000000	91.469	115.3083
5150.000000	91.198	115.3843
5220.000000	90.927	115.5850
5300.000000	90.623	115.9772
5380.000000	90.331	116.5620
5450.000000	90.084	117.2040
5520.000000	89.848	117.9640
5600.000000	89.593	118.9412
5700.000000	89.296	120.3519
5800.000000	89.033	121.9617
5900.000000	88.802	123.6733
6000.000000	88.608	125.4980
6080.000000	88.482	127.0327
6150.000000	88.395	128.4330
6220.000000	88.333	129.8615
6300.000000	88.287	131.4872
6400.000000	88.269	133.4705
6500.000000	88.296	135.3846
6600.000000	88.364	137.2068
6700.000000	88.471	138.8422
6800.000000	88.624	140.2695
6900.000000	88.832	141.4697
7000.000000	89.088	142.3870
7100.000000	89.368	143.0020
7200.000000	89.664	143.2972
7300.000000	89.963	143.2931
7400.000000	90.272	143.0506
7500.000000	90.613	142.5451
7620.000000	91.099	141.3672
7750.000000	91.698	138.6953
7880.000000	92.195	133.8141
8000.000000	92.401	127.1649
8120.000000	92.217	119.1727
8250.000000	91.492	110.7477
8380.000000	90.285	104.3989
8500.000000	88.895	101.2377
8620.000000	87.391	100.8102
8750.000000	85.761	103.2063
8850.000000	84.577	106.9144
9000.000000	83.056	115.2214
9120.000000	82.221	123.7374
9250.000000	81.875	133.6606
9380.000000	82.144	142.4792
9500.000000	82.756	147.9562
9620.000000	83.416	150.1853
9750.000000	83.901	149.5395
9880.000000	84.009	147.3312
10000.000000	83.792	145.3849
10150.000000	83.232	144.3160
10300.000000	82.530	145.0533
10440.000000	81.864	147.0858
10600.000000	81.167	150.6274
10750.000000	80.598	154.7417
10900.000000	80.116	159.3437
11060.000000	79.693	164.5672
11200.000000	79.404	169.3362
11380.000000	79.150	175.7285
11500.000000	79.043	-179.9212
11720.000000	78.976	-171.9643
11800.000000	78.992	-169.0998
12060.000000	79.190	-160.0052
12200.000000	79.376	-155.2721
12410.000000	79.758	-148.5063
12500.000000	79.964	-145.7700
12650.000000	80.371	-141.4561
12800.000000	80.859	-137.5351
13150.000000	82.335	-130.7840
13200.000000	82.579	-130.1771
13400.000000	83.603	-128.9473
13600.000000	84.631	-130.0323
13800.000000	85.519	-133.7257
14000.000000	86.099	-139.5763
14300.000000	86.206	-149.6304
14500.000000	85.846	-155.2327
14750.000000	85.160	-159.9093
15000.000000	84.478	-162.5152
15250.000000	83.977	-164.4683
15500.000000	83.698	-167.3916
15750.000000	83.465	-172.6030
16000.000000	82.936	179.7623
16250.000000	81.852	171.3912
16500.000000	80.176	164.8865
16750.000000	78.087	161.8121
17000.000000	75.843	162.1668
17250.000000	73.644	165.1912
17500.000000	71.595	169.9872
17750.000000	69.719	175.7735
18000.000000	67.976	-177.7741
18250.000000	66.289	-170.6974
18500.000000	64.652	-162.8741
18750.000000	63.140	-155.3757
19000.000000	61.792	-151.6028
19250.000000	60.304	-167.8345
19500.000000	58.009	64.8246
19750.000000	54.474	-53.5090
20000.000000	50.907	54.8976
