* Measurement data measured by REW V5.20.13
* Source: EXCL: Microphone(High Definition Audio Device), MICROPHONE (마스), R, volume: 1.000
* Format: 256k Log Swept Sine, 1 sweep at -12.0 dBFS with no timing reference
* Dated: 2023. 2. 19 오후 9:12:49
* REW Settings:
*  C-weighting compensation: Off
*  Target level: 75.0 dB
* Note: 
* Measurement: L
* Smoothing: 1/24 octave
* Frequency Step: 1/48 octave
* Start Frequency: 20.300 Hz
*
* Freq(Hz)	SPL(dB)	Phase(degrees)
20.299999	96.129	28.2640
20.600000	96.175	28.1135
20.900000	96.262	27.7583
21.200001	96.321	27.2042
21.400000	96.339	26.7759
21.799999	96.327	25.9430
22.000000	96.308	25.6092
22.400000	96.269	25.1712
22.700001	96.263	24.9629
23.000000	96.284	24.7150
23.299999	96.323	24.3174
23.600000	96.363	23.7469
24.000000	96.398	22.7964
24.299999	96.407	22.0740
24.700001	96.406	21.2471
25.000000	96.413	20.7485
25.400000	96.450	20.1557
25.799999	96.514	19.4876
26.200001	96.581	18.6704
26.500000	96.618	18.0046
26.900000	96.642	17.1628
27.200001	96.646	16.6417
27.600000	96.649	16.1280
28.000000	96.664	15.7601
28.500000	96.696	15.3529
29.000000	96.722	14.9464
29.500000	96.727	14.6551
30.000000	96.735	14.5755
30.400000	96.765	14.5841
30.700001	96.805	14.5405
31.100000	96.864	14.3101
31.500000	96.908	13.8693
32.000000	96.917	13.1824
32.500000	96.882	12.6160
33.000000	96.847	12.2774
33.500000	96.843	12.0060
34.000000	96.861	11.5838
34.500000	96.871	10.9794
35.000000	96.858	10.3303
35.500000	96.830	9.7788
36.000000	96.802	9.3706
36.500000	96.787	9.1019
37.000000	96.801	8.9236
37.500000	96.849	8.6970
38.200001	96.940	7.9972
38.700001	96.976	7.2560
39.500000	96.963	6.2353
40.000000	96.949	5.8064
40.599998	96.942	5.3114
41.200001	96.918	4.8067
41.799999	96.883	4.4954
42.500000	96.886	4.3064
43.099998	96.920	3.9172
43.700001	96.930	3.3096
44.400002	96.905	2.7130
45.000000	96.897	2.3482
45.500000	96.907	1.9711
46.200001	96.910	1.3103
46.799999	96.893	0.8393
47.500000	96.890	0.4561
48.200001	96.908	-0.0109
48.700001	96.911	-0.4388
49.400002	96.882	-0.9777
50.000000	96.844	-1.2139
50.799999	96.828	-1.2530
51.500000	96.861	-1.3809
52.200001	96.889	-1.8353
53.000000	96.869	-2.4578
53.799999	96.835	-2.8262
54.500000	96.833	-3.1331
55.200001	96.838	-3.5909
56.000000	96.833	-4.1525
57.000000	96.820	-4.8435
58.000000	96.785	-5.4753
59.000000	96.753	-5.8923
60.000000	96.722	-6.4060
60.799999	96.669	-6.7765
61.500000	96.627	-6.9393
62.200001	96.611	-7.1152
63.000000	96.601	-7.5669
64.000000	96.548	-8.3042
65.000000	96.479	-8.7753
66.000000	96.447	-9.1299
67.000000	96.434	-9.5000
68.000000	96.440	-9.8037
69.000000	96.460	-10.2240
70.000000	96.444	-10.7302
71.000000	96.399	-11.0036
72.000000	96.376	-11.1800
73.000000	96.352	-11.5331
74.000000	96.311	-11.9106
75.000000	96.280	-12.2973
76.199997	96.246	-12.8855
77.500000	96.209	-13.4758
78.800003	96.176	-14.0075
80.000000	96.135	-14.3745
81.199997	96.101	-14.6167
82.500000	96.069	-14.9326
83.800003	96.017	-15.3066
85.000000	95.960	-15.6342
86.199997	95.907	-15.9468
87.500000	95.855	-16.2819
88.500000	95.824	-16.4968
90.000000	95.780	-16.8939
91.199997	95.719	-17.1944
92.500000	95.647	-17.4489
93.800003	95.583	-17.7814
95.000000	95.533	-18.2315
96.199997	95.478	-18.7671
97.500000	95.434	-19.0875
98.800003	95.446	-19.2612
100.000000	95.467	-19.4471
101.500000	95.469	-19.5735
103.000000	95.435	-19.5544
104.400002	95.390	-19.4839
106.000000	95.339	-19.4563
107.500000	95.316	-19.5690
109.000000	95.296	-19.8307
110.599998	95.270	-19.9664
112.000000	95.272	-20.0774
113.800003	95.259	-20.5859
115.000000	95.221	-20.9584
117.199997	95.155	-21.4716
118.000000	95.140	-21.6203
120.599998	95.104	-22.1025
122.000000	95.074	-22.3711
124.099998	95.022	-22.8172
125.000000	94.998	-23.0245
126.500000	94.964	-23.3314
128.000000	94.941	-23.6300
131.500000	94.881	-24.1663
132.000000	94.871	-24.2321
134.000000	94.825	-24.5331
136.000000	94.768	-24.8865
138.000000	94.708	-25.2853
140.000000	94.643	-25.7042
143.000000	94.541	-26.1879
145.000000	94.487	-26.4265
147.500000	94.421	-26.7547
150.000000	94.343	-27.0834
152.500000	94.259	-27.3594
155.000000	94.186	-27.6407
157.500000	94.105	-27.9103
160.000000	94.032	-28.0359
162.500000	93.977	-28.2343
165.000000	93.909	-28.5358
167.500000	93.821	-28.7592
170.000000	93.743	-28.9034
172.500000	93.674	-29.0411
175.000000	93.609	-29.1393
177.500000	93.546	-29.2565
180.000000	93.480	-29.4425
182.500000	93.412	-29.6064
185.000000	93.348	-29.7309
187.500000	93.283	-29.8529
190.000000	93.220	-29.9557
192.500000	93.160	-30.0286
195.000000	93.095	-30.0735
197.500000	93.021	-30.0934
200.000000	92.953	-30.1383
203.000000	92.884	-30.3003
206.000000	92.811	-30.4539
209.000000	92.727	-30.5295
212.000000	92.636	-30.5875
214.000000	92.583	-30.6140
218.000000	92.502	-30.5804
220.000000	92.458	-30.5431
224.000000	92.349	-30.4873
227.000000	92.287	-30.4870
230.000000	92.233	-30.5415
233.000000	92.167	-30.5852
236.000000	92.088	-30.5547
240.000000	91.986	-30.3751
243.000000	91.924	-30.3054
247.000000	91.848	-30.3177
250.000000	91.778	-30.2972
254.000000	91.684	-30.2323
258.000000	91.601	-30.1056
262.000000	91.518	-29.8800
265.000000	91.456	-29.7714
269.000000	91.380	-29.7012
272.000000	91.326	-29.6694
276.000000	91.258	-29.5410
280.000000	91.191	-29.3066
285.000000	91.110	-29.0572
290.000000	91.023	-28.7794
295.000000	90.907	-28.4746
300.000000	90.817	-28.2434
304.000000	90.762	-28.0445
307.000000	90.717	-27.8577
311.000000	90.653	-27.5612
315.000000	90.594	-27.2767
320.000000	90.531	-26.9951
325.000000	90.467	-26.7092
330.000000	90.403	-26.3424
335.000000	90.343	-25.9402
340.000000	90.286	-25.6032
345.000000	90.221	-25.2621
350.000000	90.152	-24.8332
355.000000	90.093	-24.4041
360.000000	90.039	-24.0447
365.000000	89.982	-23.7098
370.000000	89.936	-23.3923
375.000000	89.896	-22.9742
382.000000	89.823	-22.1931
387.000000	89.780	-21.7236
395.000000	89.729	-21.0631
400.000000	89.692	-20.6682
406.000000	89.649	-20.2701
412.000000	89.608	-19.8422
418.000000	89.571	-19.3064
425.000000	89.530	-18.7035
431.000000	89.495	-18.2648
437.000000	89.473	-17.8227
444.000000	89.461	-17.1654
450.000000	89.443	-16.6342
455.000000	89.426	-16.3186
462.000000	89.414	-15.8592
468.000000	89.400	-15.3492
475.000000	89.389	-14.8057
482.000000	89.380	-14.2019
487.000000	89.376	-13.7193
494.000000	89.375	-13.1271
500.000000	89.371	-12.7660
508.000000	89.370	-12.2800
515.000000	89.374	-11.7741
522.000000	89.383	-11.2804
530.000000	89.398	-10.7908
538.000000	89.414	-10.3178
545.000000	89.433	-9.8466
552.000000	89.458	-9.3398
560.000000	89.482	-8.7892
570.000000	89.509	-8.2641
580.000000	89.540	-7.7186
590.000000	89.565	-7.1770
600.000000	89.607	-6.6330
608.000000	89.633	-6.1930
615.000000	89.655	-5.8474
622.000000	89.678	-5.5135
630.000000	89.706	-5.1052
640.000000	89.742	-4.5754
650.000000	89.768	-4.1274
660.000000	89.800	-3.7424
670.000000	89.847	-3.3339
680.000000	89.886	-2.9903
690.000000	89.921	-2.6384
700.000000	89.956	-2.2504
710.000000	89.988	-1.9039
720.000000	90.020	-1.5682
730.000000	90.056	-1.1945
740.000000	90.091	-0.8264
750.000000	90.121	-0.5264
762.000000	90.159	-0.1492
775.000000	90.208	0.3901
788.000000	90.259	0.9561
800.000000	90.319	1.3497
812.000000	90.379	1.6457
825.000000	90.445	2.0189
838.000000	90.506	2.5175
850.000000	90.551	2.9473
862.000000	90.598	3.2706
875.000000	90.664	3.5624
885.000000	90.715	3.8556
900.000000	90.796	4.3349
912.000000	90.868	4.6577
925.000000	90.946	4.9917
938.000000	91.019	5.2452
950.000000	91.088	5.4669
962.000000	91.155	5.6905
975.000000	91.230	5.9135
988.000000	91.313	6.1225
1000.000000	91.389	6.2890
1015.000000	91.480	6.4671
1030.000000	91.571	6.5684
1044.000000	91.657	6.6244
1060.000000	91.750	6.7070
1075.000000	91.831	6.7982
1090.000000	91.914	6.8447
1106.000000	92.005	6.8321
1120.000000	92.086	6.7849
1138.000000	92.188	6.7257
1150.000000	92.251	6.6893
1172.000000	92.360	6.6594
1180.000000	92.397	6.6483
1206.000000	92.504	6.5484
1220.000000	92.562	6.5263
1241.000000	92.645	6.5674
1250.000000	92.679	6.5904
1265.000000	92.737	6.6543
1280.000000	92.803	6.7341
1315.000000	92.977	6.8110
1320.000000	93.000	6.8216
1340.000000	93.086	6.8981
1360.000000	93.162	6.9869
1380.000000	93.245	7.0594
1400.000000	93.342	7.1605
1430.000000	93.492	7.3332
1450.000000	93.595	7.4471
1475.000000	93.732	7.5316
1500.000000	93.872	7.6215
1525.000000	94.007	7.7451
1550.000000	94.144	7.8405
1575.000000	94.292	7.9054
1600.000000	94.446	7.9869
1625.000000	94.601	8.0561
1650.000000	94.762	8.0810
1675.000000	94.935	8.0768
1700.000000	95.119	8.0437
1725.000000	95.307	7.9359
1750.000000	95.489	7.7309
1775.000000	95.669	7.4266
1800.000000	95.849	7.0642
1825.000000	96.024	6.6698
1850.000000	96.199	6.2479
1875.000000	96.376	5.7942
1900.000000	96.556	5.3123
1925.000000	96.736	4.7461
1950.000000	96.914	4.0779
1975.000000	97.083	3.3442
2000.000000	97.245	2.5529
2030.000000	97.429	1.5386
2060.000000	97.601	0.4608
2090.000000	97.762	-0.6740
2120.000000	97.919	-1.8443
2140.000000	98.023	-2.6372
2180.000000	98.219	-4.2779
2200.000000	98.309	-5.1409
2240.000000	98.478	-6.9470
2270.000000	98.598	-8.3496
2300.000000	98.716	-9.8163
2330.000000	98.831	-11.4155
2360.000000	98.930	-13.1857
2400.000000	99.017	-15.7582
2430.000000	99.039	-17.7538
2470.000000	99.014	-20.3553
2500.000000	98.959	-22.1967
2540.000000	98.850	-24.4748
2580.000000	98.710	-26.5556
2620.000000	98.540	-28.4553
2650.000000	98.399	-29.7383
2690.000000	98.195	-31.2610
2720.000000	98.032	-32.2541
2760.000000	97.805	-33.3761
2800.000000	97.571	-34.2789
2850.000000	97.278	-35.1080
2900.000000	96.994	-35.6296
2950.000000	96.730	-35.9022
3000.000000	96.488	-35.9705
3040.000000	96.309	-35.9311
3070.000000	96.181	-35.8647
3110.000000	96.014	-35.7368
3150.000000	95.851	-35.5519
3200.000000	95.655	-35.1935
3250.000000	95.470	-34.6949
3300.000000	95.299	-34.1007
3350.000000	95.142	-33.3985
3400.000000	95.003	-32.6000
3450.000000	94.884	-31.7150
3500.000000	94.785	-30.7446
3550.000000	94.705	-29.7437
3600.000000	94.644	-28.7486
3650.000000	94.597	-27.7262
3700.000000	94.563	-26.6456
3750.000000	94.538	-25.5235
3820.000000	94.520	-23.9282
3870.000000	94.519	-22.7468
3950.000000	94.533	-20.7943
4000.000000	94.559	-19.5498
4060.000000	94.613	-18.0496
4120.000000	94.689	-16.5670
4180.000000	94.783	-15.1014
4250.000000	94.911	-13.3806
4310.000000	95.036	-11.8913
4370.000000	95.172	-10.4174
4440.000000	95.353	-8.7069
4500.000000	95.533	-7.2577
4550.000000	95.704	-6.0709
4620.000000	95.977	-4.4685
4680.000000	96.245	-3.1931
4750.000000	96.598	-1.8475
4820.000000	96.991	-0.6983
4870.000000	97.296	-0.0248
4940.000000	97.757	0.6768
5000.000000	98.185	0.9941
5080.000000	98.799	0.8786
5150.000000	99.369	0.1878
5220.000000	99.953	-1.1690
5300.000000	100.604	-3.6969
5380.000000	101.194	-7.3723
5450.000000	101.611	-11.5215
5520.000000	101.889	-16.4063
5600.000000	101.989	-22.5253
5700.000000	101.757	-30.0585
5800.000000	101.179	-36.3868
5900.000000	100.355	-40.7981
6000.000000	99.410	-42.9959
6080.000000	98.643	-43.2121
6150.000000	98.003	-42.4020
6220.000000	97.415	-40.7610
6300.000000	96.830	-37.9896
6400.000000	96.260	-33.3545
6500.000000	95.928	-27.6598
6600.000000	95.903	-21.3052
6700.000000	96.239	-14.9440
6800.000000	96.937	-9.4187
6900.000000	97.923	-5.5617
7000.000000	99.045	-3.9255
7100.000000	100.132	-4.5502
7200.000000	101.067	-6.9290
7300.000000	101.819	-10.2374
7400.000000	102.432	-13.7490
7500.000000	102.995	-17.1476
7620.000000	103.732	-21.2986
7750.000000	104.672	-26.9111
7880.000000	105.607	-35.3554
8000.000000	106.213	-46.9107
8120.000000	106.234	-61.5587
8250.000000	105.364	-77.5152
8380.000000	103.693	-89.5721
8500.000000	101.780	-96.0446
8620.000000	99.818	-98.7985
8750.000000	97.826	-98.8791
8850.000000	96.434	-97.5700
9000.000000	94.584	-94.1570
9120.000000	93.292	-90.5687
9250.000000	92.054	-86.0939
9380.000000	90.965	-81.1841
9500.000000	90.074	-76.3598
9620.000000	89.278	-71.3120
9750.000000	88.518	-65.6489
9880.000000	87.854	-59.8384
10000.000000	87.319	-54.3684
10150.000000	86.756	-47.4030
10300.000000	86.297	-40.3650
10440.000000	85.956	-33.7407
10600.000000	85.666	-26.1084
10750.000000	85.488	-18.9497
10900.000000	85.398	-11.8101
11060.000000	85.397	-4.2240
11200.000000	85.477	2.3923
11380.000000	85.700	10.8647
11500.000000	85.929	16.4675
11720.000000	86.537	26.5703
11800.000000	86.822	30.1653
12060.000000	88.013	41.4040
12200.000000	88.845	47.0509
12410.000000	90.403	54.6280
12500.000000	91.213	57.3717
12650.000000	92.796	60.8606
12800.000000	94.667	62.1982
13150.000000	98.996	48.3689
13200.000000	99.394	43.8187
13400.000000	99.919	22.1730
13600.000000	98.795	4.1016
13800.000000	96.813	-4.1690
14000.000000	94.926	-5.0061
14300.000000	93.156	-0.2317
14500.000000	92.708	3.9410
14750.000000	92.879	7.9147
15000.000000	93.690	7.7284
15250.000000	94.573	-0.2330
15500.000000	94.561	-16.0972
15750.000000	93.056	-31.6155
16000.000000	90.408	-38.6782
16250.000000	87.485	-37.4217
16500.000000	84.907	-31.2041
16750.000000	82.844	-22.4194
17000.000000	81.249	-12.3081
17250.000000	80.070	-1.4504
17500.000000	79.296	9.7542
17750.000000	78.932	20.9628
18000.000000	78.996	31.7381
18250.000000	79.539	41.3926
18500.000000	80.602	48.6428
18750.000000	82.043	50.9851
19000.000000	83.283	45.3198
19250.000000	83.511	32.2412
19500.000000	82.320	19.3078
19750.000000	80.122	13.2668
20000.000000	78.329	12.4092
