* Measurement data measured by REW V5.20.13
* Source: EXCL: Microphone(High Definition Audio Device), MICROPHONE (마스), R, volume: 1.000
* Format: 256k Log Swept Sine, 1 sweep at -12.0 dBFS with no timing reference
* Dated: 2023. 2. 19 오후 9:18:26
* REW Settings:
*  C-weighting compensation: Off
*  Target level: 75.0 dB
* Note: 
* Measurement: R_AET07
* Smoothing: 1/24 octave
* Frequency Step: 1/48 octave
* Start Frequency: 20.300 Hz
*
* Freq(Hz)	SPL(dB)	Phase(degrees)
20.299999	94.527	-150.5097
20.600000	94.555	-150.9085
20.900000	94.599	-151.6315
21.200001	94.607	-152.3223
21.400000	94.593	-152.7023
21.799999	94.549	-153.2097
22.000000	94.532	-153.3330
22.400000	94.540	-153.4002
22.700001	94.590	-153.4618
23.000000	94.670	-153.7010
23.299999	94.755	-154.1746
23.600000	94.828	-154.8409
24.000000	94.888	-155.8628
24.299999	94.907	-156.5672
24.700001	94.917	-157.2904
25.000000	94.930	-157.6756
25.400000	94.972	-158.0900
25.799999	95.035	-158.5534
26.200001	95.098	-159.1526
26.500000	95.130	-159.6662
26.900000	95.140	-160.3376
27.200001	95.127	-160.7427
27.600000	95.095	-161.0641
28.000000	95.073	-161.1306
28.500000	95.093	-161.0411
29.000000	95.165	-161.1089
29.500000	95.249	-161.5532
30.000000	95.300	-162.3009
30.400000	95.309	-162.9408
30.700001	95.302	-163.3648
31.100000	95.285	-163.8146
31.500000	95.272	-164.1501
32.000000	95.272	-164.4857
32.500000	95.292	-164.8176
33.000000	95.329	-165.2221
33.500000	95.371	-165.7366
34.000000	95.401	-166.3226
34.500000	95.408	-166.8658
35.000000	95.403	-167.2668
35.500000	95.404	-167.5266
36.000000	95.417	-167.7433
36.500000	95.439	-168.0078
37.000000	95.457	-168.3447
37.500000	95.463	-168.7290
38.200001	95.449	-169.2611
38.700001	95.430	-169.5725
39.500000	95.412	-169.9439
40.000000	95.417	-170.1982
40.599998	95.430	-170.6164
41.200001	95.436	-171.1116
41.799999	95.434	-171.5768
42.500000	95.437	-172.0348
43.099998	95.452	-172.4020
43.700001	95.472	-172.7910
44.400002	95.491	-173.2839
45.000000	95.500	-173.7183
45.500000	95.506	-174.0786
46.200001	95.508	-174.5899
46.799999	95.499	-175.0094
47.500000	95.479	-175.3817
48.200001	95.472	-175.6347
48.700001	95.480	-175.8226
49.400002	95.495	-176.1486
50.000000	95.507	-176.4208
50.799999	95.536	-176.7348
51.500000	95.572	-177.0895
52.200001	95.592	-177.5586
53.000000	95.586	-178.0542
53.799999	95.570	-178.4048
54.500000	95.558	-178.6737
55.200001	95.548	-178.9359
56.000000	95.542	-179.2258
57.000000	95.540	-179.6875
58.000000	95.526	179.8144
59.000000	95.520	179.4152
60.000000	95.527	178.9626
60.799999	95.532	178.5663
61.500000	95.536	178.2165
62.200001	95.536	177.8423
63.000000	95.521	177.4226
64.000000	95.492	177.0501
65.000000	95.478	176.7875
66.000000	95.479	176.4604
67.000000	95.483	176.0504
68.000000	95.478	175.5642
69.000000	95.456	175.1360
70.000000	95.433	174.8393
71.000000	95.423	174.5945
72.000000	95.419	174.2748
73.000000	95.398	173.8884
74.000000	95.366	173.5756
75.000000	95.340	173.2890
76.199997	95.319	172.9430
77.500000	95.316	172.4621
78.800003	95.293	171.8713
80.000000	95.259	171.4663
81.199997	95.240	171.1736
82.500000	95.236	170.7998
83.800003	95.215	170.3980
85.000000	95.188	170.1199
86.199997	95.163	169.8592
87.500000	95.131	169.5422
88.500000	95.107	169.3088
90.000000	95.091	168.8874
91.199997	95.081	168.4222
92.500000	95.056	167.9099
93.800003	95.026	167.5182
95.000000	94.998	167.2358
96.199997	94.971	167.0091
97.500000	94.952	166.7084
98.800003	94.928	166.3293
100.000000	94.905	166.0096
101.500000	94.883	165.6995
103.000000	94.861	165.4647
104.400002	94.828	165.3265
106.000000	94.796	165.0959
107.500000	94.765	164.6090
109.000000	94.735	164.0520
110.599998	94.727	163.5711
112.000000	94.709	163.2722
113.800003	94.626	163.3037
115.000000	94.560	163.5249
117.199997	94.513	163.7122
118.000000	94.541	163.5956
120.599998	94.722	162.6023
122.000000	94.756	162.2510
124.099998	94.633	162.8557
125.000000	94.551	163.4201
126.500000	94.446	164.0333
128.000000	94.383	163.3926
131.500000	94.113	160.0493
132.000000	94.091	159.9000
134.000000	94.123	159.8799
136.000000	94.174	159.7759
138.000000	94.105	159.5166
140.000000	94.005	159.4294
143.000000	93.959	158.9649
145.000000	93.896	158.4434
147.500000	93.820	158.2189
150.000000	93.798	157.8937
152.500000	93.737	157.5659
155.000000	93.668	157.4698
157.500000	93.618	157.2580
160.000000	93.555	156.9733
162.500000	93.488	156.9596
165.000000	93.462	156.9686
167.500000	93.411	156.7253
170.000000	93.329	156.6772
172.500000	93.293	156.5098
175.000000	93.232	156.0181
177.500000	93.150	155.9374
180.000000	93.129	156.0074
182.500000	93.098	155.7030
185.000000	93.008	155.4807
187.500000	92.956	155.5355
190.000000	92.950	155.3521
192.500000	92.902	155.1188
195.000000	92.847	155.1047
197.500000	92.811	154.8683
200.000000	92.757	154.4527
203.000000	92.686	154.1765
206.000000	92.625	153.9901
209.000000	92.563	153.7848
212.000000	92.530	153.6612
214.000000	92.515	153.6439
218.000000	92.432	153.6589
220.000000	92.368	153.6624
224.000000	92.233	153.6598
227.000000	92.127	153.3104
230.000000	92.083	152.7111
233.000000	92.105	152.7143
236.000000	92.046	153.3494
240.000000	91.852	153.2367
243.000000	91.804	152.7450
247.000000	91.763	152.8674
250.000000	91.668	152.6150
254.000000	91.604	151.6252
258.000000	91.569	151.2365
262.000000	91.482	151.5923
265.000000	91.395	152.1036
269.000000	91.266	152.5771
272.000000	91.194	152.7470
276.000000	91.134	152.9634
280.000000	91.083	153.2355
285.000000	90.998	153.3991
290.000000	90.908	153.3472
295.000000	90.840	153.6038
300.000000	90.757	153.9108
304.000000	90.691	154.1020
307.000000	90.642	154.2248
311.000000	90.573	154.3723
315.000000	90.500	154.5230
320.000000	90.425	154.6643
325.000000	90.366	154.9337
330.000000	90.298	155.2206
335.000000	90.233	155.5382
340.000000	90.166	155.8458
345.000000	90.083	156.1210
350.000000	90.005	156.4517
355.000000	89.948	156.8256
360.000000	89.886	157.2213
365.000000	89.820	157.5903
370.000000	89.737	158.0398
375.000000	89.670	158.3379
382.000000	89.622	159.0245
387.000000	89.556	159.4413
395.000000	89.475	159.8817
400.000000	89.435	160.3459
406.000000	89.365	161.0443
412.000000	89.298	161.6810
418.000000	89.245	162.1922
425.000000	89.203	162.8294
431.000000	89.153	163.4078
437.000000	89.120	163.8950
444.000000	89.091	164.5457
450.000000	89.068	165.1790
455.000000	89.049	165.7527
462.000000	89.028	166.5116
468.000000	89.004	167.0620
475.000000	88.976	167.6312
482.000000	88.968	168.2603
487.000000	88.970	168.7495
494.000000	88.979	169.4022
500.000000	88.987	169.9473
508.000000	88.991	170.6447
515.000000	88.997	171.2739
522.000000	89.019	171.8882
530.000000	89.051	172.4974
538.000000	89.079	173.0461
545.000000	89.101	173.5437
552.000000	89.130	174.0604
560.000000	89.164	174.7522
570.000000	89.208	175.6130
580.000000	89.263	176.2451
590.000000	89.323	176.8732
600.000000	89.388	177.4065
608.000000	89.438	177.7795
615.000000	89.474	178.1331
622.000000	89.505	178.4847
630.000000	89.539	178.8535
640.000000	89.589	179.2552
650.000000	89.644	179.6484
660.000000	89.704	-179.9271
670.000000	89.765	-179.5492
680.000000	89.824	-179.2607
690.000000	89.873	-178.9527
700.000000	89.928	-178.5369
710.000000	89.982	-178.1768
720.000000	90.028	-177.8701
730.000000	90.075	-177.5303
740.000000	90.123	-177.2727
750.000000	90.169	-177.0282
762.000000	90.237	-176.7338
775.000000	90.310	-176.4404
788.000000	90.358	-176.1010
800.000000	90.407	-175.8189
812.000000	90.453	-175.5449
825.000000	90.506	-175.2240
838.000000	90.571	-174.9329
850.000000	90.619	-174.7105
862.000000	90.656	-174.4761
875.000000	90.704	-174.2072
885.000000	90.746	-173.9862
900.000000	90.804	-173.5767
912.000000	90.841	-173.2610
925.000000	90.882	-172.9879
938.000000	90.929	-172.7182
950.000000	90.976	-172.4303
962.000000	91.023	-172.1678
975.000000	91.070	-171.8987
988.000000	91.120	-171.6288
1000.000000	91.175	-171.3566
1015.000000	91.249	-170.8659
1030.000000	91.326	-170.3878
1044.000000	91.396	-170.0457
1060.000000	91.479	-169.6574
1075.000000	91.566	-169.2910
1090.000000	91.658	-168.9639
1106.000000	91.768	-168.6279
1120.000000	91.875	-168.3486
1138.000000	92.014	-168.0041
1150.000000	92.104	-167.8285
1172.000000	92.269	-167.6637
1180.000000	92.328	-167.6164
1206.000000	92.519	-167.4558
1220.000000	92.616	-167.3800
1241.000000	92.756	-167.3892
1250.000000	92.816	-167.4019
1265.000000	92.920	-167.3884
1280.000000	93.024	-167.3715
1315.000000	93.243	-167.3310
1320.000000	93.274	-167.3281
1340.000000	93.397	-167.3543
1360.000000	93.515	-167.3873
1380.000000	93.632	-167.3622
1400.000000	93.758	-167.3384
1430.000000	93.948	-167.3649
1450.000000	94.074	-167.3595
1475.000000	94.234	-167.3172
1500.000000	94.395	-167.3191
1525.000000	94.559	-167.3214
1550.000000	94.721	-167.3410
1575.000000	94.897	-167.3853
1600.000000	95.070	-167.4484
1625.000000	95.239	-167.5081
1650.000000	95.416	-167.6159
1675.000000	95.601	-167.7519
1700.000000	95.795	-167.9192
1725.000000	95.984	-168.1041
1750.000000	96.173	-168.3302
1775.000000	96.366	-168.6214
1800.000000	96.563	-168.9662
1825.000000	96.761	-169.3605
1850.000000	96.962	-169.7965
1875.000000	97.167	-170.2821
1900.000000	97.372	-170.8372
1925.000000	97.579	-171.4824
1950.000000	97.787	-172.2108
1975.000000	97.996	-173.0293
2000.000000	98.201	-173.9424
2030.000000	98.438	-175.1463
2060.000000	98.665	-176.4711
2090.000000	98.884	-177.9193
2120.000000	99.090	-179.4610
2140.000000	99.219	179.4503
2180.000000	99.454	177.1129
2200.000000	99.559	175.8770
2240.000000	99.741	173.2969
2270.000000	99.850	171.2795
2300.000000	99.931	169.2095
2330.000000	99.985	167.1140
2360.000000	100.013	165.0201
2400.000000	100.009	162.2521
2430.000000	99.977	160.2154
2470.000000	99.898	157.6008
2500.000000	99.812	155.7310
2540.000000	99.667	153.3847
2580.000000	99.495	151.2490
2620.000000	99.303	149.3435
2650.000000	99.145	148.0619
2690.000000	98.921	146.5313
2720.000000	98.746	145.5152
2760.000000	98.506	144.3484
2800.000000	98.265	143.3894
2850.000000	97.963	142.4463
2900.000000	97.664	141.7405
2950.000000	97.371	141.2880
3000.000000	97.091	141.0834
3040.000000	96.875	141.0694
3070.000000	96.716	141.1446
3110.000000	96.512	141.3528
3150.000000	96.320	141.6866
3200.000000	96.101	142.2559
3250.000000	95.911	142.9289
3300.000000	95.744	143.6710
3350.000000	95.592	144.4298
3400.000000	95.455	145.2252
3450.000000	95.333	146.0818
3500.000000	95.225	147.0152
3550.000000	95.131	148.0099
3600.000000	95.053	149.0702
3650.000000	94.990	150.2072
3700.000000	94.943	151.4182
3750.000000	94.914	152.6708
3820.000000	94.904	154.4172
3870.000000	94.909	155.6645
3950.000000	94.936	157.7012
4000.000000	94.970	159.0168
4060.000000	95.032	160.6440
4120.000000	95.118	162.3095
4180.000000	95.232	164.0101
4250.000000	95.409	165.9777
4310.000000	95.596	167.5770
4370.000000	95.803	169.0713
4440.000000	96.071	170.6335
4500.000000	96.319	171.8055
4550.000000	96.537	172.6637
4620.000000	96.858	173.7057
4680.000000	97.147	174.4523
4750.000000	97.495	175.1677
4820.000000	97.851	175.7452
4870.000000	98.113	176.1035
4940.000000	98.503	176.5424
5000.000000	98.868	176.8238
5080.000000	99.410	176.9460
5150.000000	99.938	176.6548
5220.000000	100.508	175.8416
5300.000000	101.193	174.1233
5380.000000	101.887	171.3983
5450.000000	102.466	168.0323
5520.000000	102.974	163.6493
5600.000000	103.394	157.4618
5700.000000	103.570	148.6081
5800.000000	103.313	139.8531
5900.000000	102.691	132.5422
6000.000000	101.849	127.3228
6080.000000	101.116	124.6512
6150.000000	100.479	123.2554
6220.000000	99.871	122.5925
6300.000000	99.226	122.5664
6400.000000	98.511	123.3849
6500.000000	97.902	124.9118
6600.000000	97.400	126.9493
6700.000000	97.007	129.3587
6800.000000	96.728	132.0060
6900.000000	96.579	134.8058
7000.000000	96.563	137.6806
7100.000000	96.670	140.4981
7200.000000	96.898	143.1273
7300.000000	97.250	145.4467
7400.000000	97.735	147.2971
7500.000000	98.367	148.4380
7620.000000	99.330	148.3292
7750.000000	100.541	145.2442
7880.000000	101.608	137.6041
8000.000000	102.098	126.1604
8120.000000	101.800	112.6827
8250.000000	100.547	100.2957
8380.000000	98.657	93.2978
8500.000000	96.753	91.6357
8620.000000	94.977	93.3998
8750.000000	93.354	97.8035
8850.000000	92.365	102.1909
9000.000000	91.308	109.2426
9120.000000	90.775	114.4684
9250.000000	90.394	119.1648
9380.000000	90.087	122.7669
9500.000000	89.784	125.3748
9620.000000	89.422	127.6963
9750.000000	88.962	130.2781
9880.000000	88.457	133.2033
10000.000000	87.980	136.3306
10150.000000	87.398	140.8326
10300.000000	86.865	145.9591
10440.000000	86.435	151.2073
10600.000000	86.040	157.5980
10750.000000	85.765	163.8539
10900.000000	85.582	170.3006
11060.000000	85.495	177.2850
11200.000000	85.508	-176.5581
11380.000000	85.646	-168.6150
11500.000000	85.820	-163.3217
11720.000000	86.329	-153.6988
11800.000000	86.581	-150.2682
12060.000000	87.674	-139.5239
12200.000000	88.450	-134.1461
12410.000000	89.915	-127.0348
12500.000000	90.682	-124.5314
12650.000000	92.175	-121.5214
12800.000000	93.911	-120.7826
13150.000000	97.700	-135.6056
13200.000000	98.013	-139.9968
13400.000000	98.272	-159.8114
13600.000000	97.070	-175.4158
13800.000000	95.158	177.8673
14000.000000	93.360	177.7956
14300.000000	91.622	-176.5534
14500.000000	91.141	-171.5295
14750.000000	91.275	-165.7190
15000.000000	92.237	-162.8339
15250.000000	93.703	-167.3082
15500.000000	94.597	176.9657
15750.000000	93.783	156.0899
16000.000000	91.255	143.1757
16250.000000	88.030	141.3944
16500.000000	85.068	146.4655
16750.000000	82.711	154.8364
17000.000000	80.928	164.8116
17250.000000	79.646	175.5448
17500.000000	78.829	-173.4906
17750.000000	78.451	-162.7502
18000.000000	78.526	-152.7606
18250.000000	79.087	-144.4797
18500.000000	80.086	-139.6041
18750.000000	81.205	-140.7423
19000.000000	81.782	-149.3858
19250.000000	81.203	-161.7064
19500.000000	79.386	-170.1080
19750.000000	76.910	-171.5927
20000.000000	75.096	-170.1971
