* Measurement data measured by REW V5.20.13
* Source: EXCL: Mic in at rear panel (Pink)(Realtek(R) Audio), MICROPHONE (마스), L, volume: 1.000
* Format: 256k Log Swept Sine, 1 sweep at -12.0 dBFS with no timing reference
* Dated: 2022. 12. 29 오후 8:51:01
* REW Settings:
*  C-weighting compensation: Off
*  Target level: 75.0 dB
* Note: 
* Measurement: R
* Smoothing: 1/24 octave
* Frequency Step: 1/48 octave
* Start Frequency: 20.300 Hz
*
* Freq(Hz)	SPL(dB)	Phase(degrees)
20.299999	93.254	160.3856
20.600000	93.235	160.3301
20.900000	93.198	160.2298
21.200001	93.162	160.1224
21.400000	93.140	160.0290
21.799999	93.092	159.7695
22.000000	93.064	159.6023
22.400000	93.002	159.2167
22.700001	92.950	158.9052
23.000000	92.897	158.5884
23.299999	92.846	158.2724
23.600000	92.800	157.9601
24.000000	92.750	157.5483
24.299999	92.722	157.2334
24.700001	92.697	156.7856
25.000000	92.682	156.4215
25.400000	92.659	155.9156
25.799999	92.629	155.4463
26.200001	92.597	155.0775
26.500000	92.577	154.8709
26.900000	92.558	154.6414
27.200001	92.547	154.4541
27.600000	92.524	154.1544
28.000000	92.477	153.8652
28.500000	92.388	153.7352
29.000000	92.314	153.9636
29.500000	92.303	154.2587
30.000000	92.341	154.1210
30.400000	92.358	153.5730
30.700001	92.338	152.9946
31.100000	92.263	152.2287
31.500000	92.151	151.6601
32.000000	92.010	151.2975
32.500000	91.909	151.1030
33.000000	91.843	150.8043
33.500000	91.786	150.3680
34.000000	91.725	149.9252
34.500000	91.670	149.5454
35.000000	91.624	149.1834
35.500000	91.581	148.8048
36.000000	91.533	148.4565
36.500000	91.484	148.1886
37.000000	91.441	147.9816
37.500000	91.402	147.7798
38.200001	91.337	147.4805
38.700001	91.282	147.2906
39.500000	91.196	147.0189
40.000000	91.144	146.8053
40.599998	91.078	146.4825
41.200001	91.001	146.1387
41.799999	90.920	145.8221
42.500000	90.831	145.4930
43.099998	90.765	145.2319
43.700001	90.705	144.9772
44.400002	90.641	144.6668
45.000000	90.584	144.3987
45.500000	90.535	144.2036
46.200001	90.469	143.9839
46.799999	90.419	143.7975
47.500000	90.358	143.5299
48.200001	90.286	143.2565
48.700001	90.232	143.0957
49.400002	90.158	142.9061
50.000000	90.098	142.7405
50.799999	90.019	142.5161
51.500000	89.954	142.3331
52.200001	89.895	142.1392
53.000000	89.830	141.8918
53.799999	89.761	141.6443
54.500000	89.699	141.4340
55.200001	89.633	141.2404
56.000000	89.556	141.0666
57.000000	89.463	140.8825
58.000000	89.372	140.6522
59.000000	89.272	140.4143
60.000000	89.171	140.2355
60.799999	89.098	140.1061
61.500000	89.038	139.9756
62.200001	88.976	139.8486
63.000000	88.905	139.7381
64.000000	88.817	139.6460
65.000000	88.734	139.5818
66.000000	88.659	139.4711
67.000000	88.576	139.2999
68.000000	88.481	139.1773
69.000000	88.389	139.1392
70.000000	88.312	139.1184
71.000000	88.244	139.0439
72.000000	88.178	138.9368
73.000000	88.112	138.8063
74.000000	88.039	138.6700
75.000000	87.966	138.5810
76.199997	87.888	138.4399
77.500000	87.797	138.2049
78.800003	87.700	137.9670
80.000000	87.605	137.8254
81.199997	87.519	137.7526
82.500000	87.434	137.6786
83.800003	87.346	137.5904
85.000000	87.255	137.5592
86.199997	87.168	137.5430
87.500000	87.074	137.5075
88.500000	87.007	137.4655
90.000000	86.910	137.3204
91.199997	86.835	137.2649
92.500000	86.770	137.1956
93.800003	86.687	137.1208
95.000000	86.599	137.2132
96.199997	86.521	137.3636
97.500000	86.444	137.4464
98.800003	86.366	137.4052
100.000000	86.291	137.3204
101.500000	86.195	137.2336
103.000000	86.101	137.2138
104.400002	86.009	137.2426
106.000000	85.893	137.3801
107.500000	85.803	137.5515
109.000000	85.732	137.5584
110.599998	85.657	137.5162
112.000000	85.594	137.5354
113.800003	85.500	137.6590
115.000000	85.428	137.7694
117.199997	85.262	137.7663
118.000000	85.184	137.7312
120.599998	84.983	138.1696
122.000000	84.971	138.3180
124.099998	84.939	138.2933
125.000000	84.910	138.3568
126.500000	84.852	138.5354
128.000000	84.783	138.7053
131.500000	84.612	139.0223
132.000000	84.592	139.0724
134.000000	84.522	139.3271
136.000000	84.466	139.6077
138.000000	84.405	139.8556
140.000000	84.339	140.0741
143.000000	84.249	140.2993
145.000000	84.194	140.3568
147.500000	84.116	140.3876
150.000000	84.029	140.4594
152.500000	83.934	140.5941
155.000000	83.839	140.7995
157.500000	83.747	141.0141
160.000000	83.654	141.2271
162.500000	83.560	141.4571
165.000000	83.468	141.7168
167.500000	83.383	142.0022
170.000000	83.311	142.3437
172.500000	83.259	142.7181
175.000000	83.213	143.0482
177.500000	83.162	143.3262
180.000000	83.114	143.5170
182.500000	83.068	143.6199
185.000000	83.014	143.7063
187.500000	82.947	143.8139
190.000000	82.870	143.9211
192.500000	82.792	144.0232
195.000000	82.723	144.1350
197.500000	82.659	144.2641
200.000000	82.601	144.4544
203.000000	82.532	144.7103
206.000000	82.447	145.0001
209.000000	82.360	145.3030
212.000000	82.284	145.5841
214.000000	82.237	145.7910
218.000000	82.139	146.2562
220.000000	82.091	146.5092
224.000000	82.005	147.0901
227.000000	81.953	147.5835
230.000000	81.916	148.0763
233.000000	81.895	148.5866
236.000000	81.885	149.1149
240.000000	81.879	149.6929
243.000000	81.869	149.8715
247.000000	81.845	149.8840
250.000000	81.818	149.8725
254.000000	81.764	149.9122
258.000000	81.714	150.0524
262.000000	81.662	150.2332
265.000000	81.612	150.3401
269.000000	81.535	150.4706
272.000000	81.479	150.6077
276.000000	81.416	150.8594
280.000000	81.364	151.1680
285.000000	81.291	151.4773
290.000000	81.226	151.7879
295.000000	81.172	152.2014
300.000000	81.112	152.6080
304.000000	81.055	152.8847
307.000000	81.016	153.0792
311.000000	80.974	153.3419
315.000000	80.936	153.6245
320.000000	80.889	154.0165
325.000000	80.840	154.4103
330.000000	80.794	154.7670
335.000000	80.755	155.1246
340.000000	80.716	155.4406
345.000000	80.668	155.8089
350.000000	80.617	156.1940
355.000000	80.575	156.5190
360.000000	80.532	156.8227
365.000000	80.487	157.1332
370.000000	80.451	157.4611
375.000000	80.417	157.8059
382.000000	80.360	158.2990
387.000000	80.322	158.6335
395.000000	80.266	159.1375
400.000000	80.223	159.5045
406.000000	80.171	159.8914
412.000000	80.132	160.2509
418.000000	80.105	160.6125
425.000000	80.064	161.0767
431.000000	80.031	161.4649
437.000000	80.000	161.7908
444.000000	79.956	162.1953
450.000000	79.928	162.5685
455.000000	79.912	162.8893
462.000000	79.886	163.2981
468.000000	79.861	163.5704
475.000000	79.829	163.9201
482.000000	79.798	164.3683
487.000000	79.781	164.6743
494.000000	79.760	165.0101
500.000000	79.744	165.2906
508.000000	79.715	165.7380
515.000000	79.684	166.1071
522.000000	79.659	166.4401
530.000000	79.627	166.8360
538.000000	79.594	167.2309
545.000000	79.571	167.5683
552.000000	79.554	167.8879
560.000000	79.542	168.2642
570.000000	79.520	168.7780
580.000000	79.490	169.3739
590.000000	79.461	169.8936
600.000000	79.431	170.3419
608.000000	79.414	170.7313
615.000000	79.400	171.0653
622.000000	79.384	171.3721
630.000000	79.366	171.7207
640.000000	79.340	172.1964
650.000000	79.319	172.6853
660.000000	79.298	173.1593
670.000000	79.271	173.6348
680.000000	79.246	174.1151
690.000000	79.232	174.5366
700.000000	79.221	174.9248
710.000000	79.208	175.3826
720.000000	79.195	175.8799
730.000000	79.177	176.3445
740.000000	79.157	176.7664
750.000000	79.139	177.1831
762.000000	79.131	177.7139
775.000000	79.124	178.3388
788.000000	79.105	178.9530
800.000000	79.088	179.4708
812.000000	79.071	179.9982
825.000000	79.056	-179.4658
838.000000	79.054	-178.9325
850.000000	79.056	-178.3930
862.000000	79.055	-177.8441
875.000000	79.054	-177.3093
885.000000	79.057	-176.9072
900.000000	79.066	-176.2788
912.000000	79.071	-175.7657
925.000000	79.076	-175.2589
938.000000	79.092	-174.7742
950.000000	79.114	-174.3183
962.000000	79.138	-173.9117
975.000000	79.161	-173.5267
988.000000	79.178	-173.1452
1000.000000	79.193	-172.8083
1015.000000	79.216	-172.3922
1030.000000	79.247	-171.9677
1044.000000	79.277	-171.6464
1060.000000	79.309	-171.3300
1075.000000	79.330	-171.0157
1090.000000	79.344	-170.7140
1106.000000	79.367	-170.4776
1120.000000	79.392	-170.2859
1138.000000	79.419	-170.0388
1150.000000	79.432	-169.9204
1172.000000	79.448	-169.7025
1180.000000	79.452	-169.6120
1206.000000	79.452	-169.2422
1220.000000	79.443	-169.0416
1241.000000	79.429	-168.7732
1250.000000	79.421	-168.6385
1265.000000	79.400	-168.3959
1280.000000	79.374	-168.1331
1315.000000	79.291	-167.3544
1320.000000	79.277	-167.2142
1340.000000	79.219	-166.6047
1360.000000	79.153	-165.9726
1380.000000	79.086	-165.2227
1400.000000	79.016	-164.3417
1430.000000	78.911	-162.7881
1450.000000	78.857	-161.5689
1475.000000	78.803	-159.7861
1500.000000	78.771	-157.7098
1525.000000	78.768	-155.3837
1550.000000	78.818	-152.8560
1575.000000	78.936	-150.2045
1600.000000	79.124	-147.4821
1625.000000	79.386	-144.8265
1650.000000	79.731	-142.3837
1675.000000	80.153	-140.2469
1700.000000	80.623	-138.6130
1725.000000	81.119	-137.5495
1750.000000	81.621	-137.0600
1775.000000	82.108	-137.1220
1800.000000	82.562	-137.6216
1825.000000	82.971	-138.4629
1850.000000	83.329	-139.5752
1875.000000	83.636	-140.8704
1900.000000	83.895	-142.2530
1925.000000	84.110	-143.6444
1950.000000	84.287	-145.0007
1975.000000	84.431	-146.3104
2000.000000	84.548	-147.5556
2030.000000	84.658	-148.9290
2060.000000	84.742	-150.1421
2090.000000	84.813	-151.2156
2120.000000	84.871	-152.1745
2140.000000	84.903	-152.7449
2180.000000	84.964	-153.7118
2200.000000	84.989	-154.1302
2240.000000	85.037	-154.8753
2270.000000	85.071	-155.3370
2300.000000	85.106	-155.7071
2330.000000	85.142	-155.9963
2360.000000	85.183	-156.2055
2400.000000	85.246	-156.3732
2430.000000	85.304	-156.4303
2470.000000	85.395	-156.4020
2500.000000	85.475	-156.3173
2540.000000	85.603	-156.1204
2580.000000	85.768	-155.8445
2620.000000	85.981	-155.5557
2650.000000	86.177	-155.4004
2690.000000	86.481	-155.3813
2720.000000	86.738	-155.5714
2760.000000	87.106	-156.1549
2800.000000	87.491	-157.1703
2850.000000	87.975	-159.1220
2900.000000	88.438	-161.9323
2950.000000	88.824	-165.6374
3000.000000	89.068	-170.0362
3040.000000	89.139	-173.7642
3070.000000	89.119	-176.5308
3110.000000	89.006	-179.9958
3150.000000	88.813	176.9478
3200.000000	88.499	173.7918
3250.000000	88.146	171.3542
3300.000000	87.791	169.5151
3350.000000	87.452	168.1171
3400.000000	87.140	167.0082
3450.000000	86.859	166.0731
3500.000000	86.603	165.2781
3550.000000	86.366	164.5856
3600.000000	86.136	163.9744
3650.000000	85.907	163.4578
3700.000000	85.681	163.0661
3750.000000	85.460	162.7946
3820.000000	85.155	162.5886
3870.000000	84.941	162.5432
3950.000000	84.608	162.6573
4000.000000	84.405	162.8337
4060.000000	84.165	163.1545
4120.000000	83.927	163.6074
4180.000000	83.698	164.1918
4250.000000	83.447	165.0718
4310.000000	83.247	165.9791
4370.000000	83.062	166.9531
4440.000000	82.865	168.1429
4500.000000	82.709	169.1882
4550.000000	82.586	170.0678
4620.000000	82.422	171.3720
4680.000000	82.295	172.5798
4750.000000	82.167	174.0564
4820.000000	82.061	175.5513
4870.000000	81.995	176.6204
4940.000000	81.911	178.1160
5000.000000	81.845	179.4094
5080.000000	81.770	-178.7703
5150.000000	81.731	-177.0708
5220.000000	81.721	-175.3667
5300.000000	81.739	-173.5028
5380.000000	81.776	-171.6917
5450.000000	81.814	-170.1233
5520.000000	81.858	-168.5874
5600.000000	81.924	-166.8304
5700.000000	82.030	-164.5688
5800.000000	82.173	-162.1977
5900.000000	82.359	-159.7626
6000.000000	82.591	-157.3409
6080.000000	82.815	-155.3787
6150.000000	83.047	-153.6405
6220.000000	83.319	-151.9317
6300.000000	83.683	-150.0566
6400.000000	84.225	-147.9034
6500.000000	84.864	-146.0653
6600.000000	85.609	-144.6789
6700.000000	86.477	-143.9205
6800.000000	87.484	-144.0724
6900.000000	88.641	-145.5895
7000.000000	89.889	-149.1519
7100.000000	91.083	-155.4554
7200.000000	92.009	-164.8476
7300.000000	92.434	-176.6017
7400.000000	92.243	171.5122
7500.000000	91.549	161.8566
7620.000000	90.405	154.4163
7750.000000	89.264	150.5146
7880.000000	88.412	148.1449
8000.000000	87.818	145.7140
8120.000000	87.266	142.0836
8250.000000	86.448	137.2424
8380.000000	85.272	133.4940
8500.000000	84.020	132.0625
8620.000000	82.727	132.3835
8750.000000	81.349	134.9777
8850.000000	80.423	138.1125
9000.000000	79.278	143.8377
9120.000000	78.591	149.0473
9250.000000	78.082	154.6777
9380.000000	77.763	159.9095
9500.000000	77.604	164.3250
9620.000000	77.549	168.2974
9750.000000	77.578	171.9655
9880.000000	77.674	174.8820
10000.000000	77.802	176.8976
10150.000000	77.989	178.4124
10300.000000	78.143	178.5596
10440.000000	78.123	177.3952
10600.000000	77.719	176.1741
10750.000000	77.185	177.1689
10900.000000	76.791	178.9402
11060.000000	76.402	-179.2169
11200.000000	76.024	-177.2220
11380.000000	75.543	-173.7900
11500.000000	75.274	-170.9063
11720.000000	74.977	-164.7771
11800.000000	74.934	-162.4248
12060.000000	75.040	-154.3947
12200.000000	75.302	-149.9271
12410.000000	76.044	-143.5436
12500.000000	76.529	-141.1917
12650.000000	77.609	-138.3643
12800.000000	78.995	-137.8738
13150.000000	82.076	-154.4900
13200.000000	82.282	-159.2330
13400.000000	82.081	179.9539
13600.000000	80.436	163.7668
13800.000000	78.145	154.4245
14000.000000	75.580	149.9412
14300.000000	71.121	160.4780
14500.000000	69.384	172.1830
14750.000000	68.333	-178.3370
15000.000000	66.954	-167.8928
15250.000000	66.190	-150.5262
15500.000000	66.854	-136.4619
15750.000000	67.852	-125.6390
16000.000000	69.742	-115.6878
16250.000000	72.136	-113.6202
16500.000000	73.801	-122.1917
16750.000000	74.218	-136.1860
17000.000000	73.213	-147.0454
17250.000000	71.714	-148.9757
17500.000000	70.865	-150.4011
17750.000000	69.623	-152.8369
18000.000000	67.499	-144.5715
18250.000000	66.639	-128.3657
18500.000000	67.726	-116.5698
18750.000000	69.425	-112.8991
19000.000000	70.789	-118.2372
19250.000000	71.202	-130.6027
19500.000000	70.450	-144.5099
19750.000000	68.845	-156.2672
20000.000000	67.103	-163.6417
