* Measurement data measured by REW V5.20.13
* Source: EXCL: Mic in at rear panel (Pink)(Realtek(R) Audio), MICROPHONE (마스), L, volume: 1.000
* Format: 256k Log Swept Sine, 1 sweep at -12.0 dBFS with no timing reference
* Dated: 2022. 12. 29 오후 8:49:17
* REW Settings:
*  C-weighting compensation: Off
*  Target level: 75.0 dB
* Note: 
* Measurement: L
* Smoothing: 1/24 octave
* Frequency Step: 1/48 octave
* Start Frequency: 20.300 Hz
*
* Freq(Hz)	SPL(dB)	Phase(degrees)
20.299999	93.691	158.8092
20.600000	93.685	158.8510
20.900000	93.669	158.9036
21.200001	93.645	158.8945
21.400000	93.623	158.8579
21.799999	93.562	158.7471
22.000000	93.525	158.6874
22.400000	93.445	158.5699
22.700001	93.384	158.4637
23.000000	93.325	158.3143
23.299999	93.268	158.1093
23.600000	93.211	157.8548
24.000000	93.136	157.4651
24.299999	93.084	157.1565
24.700001	93.022	156.7319
25.000000	92.982	156.3949
25.400000	92.936	155.9069
25.799999	92.896	155.3794
26.200001	92.856	154.8469
26.500000	92.825	154.4736
26.900000	92.785	154.0368
27.200001	92.757	153.7587
27.600000	92.725	153.4381
28.000000	92.699	153.1438
28.500000	92.670	152.7754
29.000000	92.632	152.4048
29.500000	92.580	152.0695
30.000000	92.518	151.8093
30.400000	92.469	151.6515
30.700001	92.434	151.5458
31.100000	92.389	151.3941
31.500000	92.343	151.2136
32.000000	92.282	150.9520
32.500000	92.217	150.6735
33.000000	92.151	150.3853
33.500000	92.089	150.0784
34.000000	92.030	149.7577
34.500000	91.972	149.4418
35.000000	91.916	149.1360
35.500000	91.864	148.8298
36.000000	91.813	148.5206
36.500000	91.762	148.2289
37.000000	91.711	147.9781
37.500000	91.666	147.7526
38.200001	91.606	147.3751
38.700001	91.552	147.0355
39.500000	91.430	146.5728
40.000000	91.348	146.4424
40.599998	91.268	146.3954
41.200001	91.213	146.3025
41.799999	91.166	146.0797
42.500000	91.104	145.7223
43.099998	91.046	145.4291
43.700001	90.989	145.1693
44.400002	90.922	144.8852
45.000000	90.864	144.6752
45.500000	90.818	144.5414
46.200001	90.767	144.3507
46.799999	90.725	144.0892
47.500000	90.651	143.7319
48.200001	90.558	143.5502
48.700001	90.504	143.5396
49.400002	90.460	143.4670
50.000000	90.425	143.2284
50.799999	90.353	142.8468
51.500000	90.284	142.6363
52.200001	90.230	142.4581
53.000000	90.174	142.1801
53.799999	90.106	141.9079
54.500000	90.044	141.7323
55.200001	89.987	141.5798
56.000000	89.919	141.3856
57.000000	89.820	141.1586
58.000000	89.720	141.0126
59.000000	89.628	140.8068
60.000000	89.517	140.5476
60.799999	89.421	140.4525
61.500000	89.351	140.4520
62.200001	89.298	140.4381
63.000000	89.245	140.3248
64.000000	89.165	140.1296
65.000000	89.087	140.0062
66.000000	89.018	139.7968
67.000000	88.930	139.5439
68.000000	88.834	139.4388
69.000000	88.753	139.3921
70.000000	88.681	139.3287
71.000000	88.616	139.2232
72.000000	88.544	139.0682
73.000000	88.462	138.9424
74.000000	88.379	138.8794
75.000000	88.298	138.8523
76.199997	88.207	138.8273
77.500000	88.108	138.7694
78.800003	88.014	138.7515
80.000000	87.936	138.6689
81.199997	87.849	138.5414
82.500000	87.752	138.4044
83.800003	87.653	138.3099
85.000000	87.572	138.2872
86.199997	87.501	138.2346
87.500000	87.415	138.1965
88.500000	87.346	138.2477
90.000000	87.254	138.3548
91.199997	87.185	138.3913
92.500000	87.117	138.3865
93.800003	87.051	138.2549
95.000000	86.972	138.1057
96.199997	86.887	138.0957
97.500000	86.813	138.2049
98.800003	86.757	138.2740
100.000000	86.703	138.2354
101.500000	86.611	138.1860
103.000000	86.513	138.1971
104.400002	86.425	138.1959
106.000000	86.325	138.2220
107.500000	86.244	138.3009
109.000000	86.177	138.3709
110.599998	86.107	138.4321
112.000000	86.042	138.4956
113.800003	85.955	138.5506
115.000000	85.892	138.5761
117.199997	85.771	138.6663
118.000000	85.729	138.7067
120.599998	85.603	138.8640
122.000000	85.544	138.9417
124.099998	85.460	139.0520
125.000000	85.425	139.0917
126.500000	85.362	139.1453
128.000000	85.292	139.2328
131.500000	85.141	139.5485
132.000000	85.122	139.5827
134.000000	85.041	139.7028
136.000000	84.962	139.8243
138.000000	84.880	139.9508
140.000000	84.798	140.1174
143.000000	84.680	140.3726
145.000000	84.599	140.5211
147.500000	84.489	140.7342
150.000000	84.385	140.9721
152.500000	84.290	141.2127
155.000000	84.204	141.4936
157.500000	84.119	141.8626
160.000000	84.041	142.2868
162.500000	83.971	142.6664
165.000000	83.917	143.0959
167.500000	83.890	143.5883
170.000000	83.865	144.0065
172.500000	83.826	144.2669
175.000000	83.792	144.3367
177.500000	83.751	144.3305
180.000000	83.691	144.4916
182.500000	83.632	144.6936
185.000000	83.578	144.8065
187.500000	83.537	144.9734
190.000000	83.500	145.1912
192.500000	83.452	145.3803
195.000000	83.406	145.4243
197.500000	83.357	145.3584
200.000000	83.299	145.3626
203.000000	83.234	145.4855
206.000000	83.189	145.6405
209.000000	83.142	145.7975
212.000000	83.070	146.0055
214.000000	83.019	146.1404
218.000000	82.930	146.3526
220.000000	82.895	146.4638
224.000000	82.831	146.6887
227.000000	82.777	146.8777
230.000000	82.719	147.1287
233.000000	82.664	147.4003
236.000000	82.612	147.6425
240.000000	82.546	147.8589
243.000000	82.494	148.0206
247.000000	82.431	148.2768
250.000000	82.387	148.4862
254.000000	82.331	148.8033
258.000000	82.264	149.1393
262.000000	82.192	149.4037
265.000000	82.148	149.6012
269.000000	82.098	149.8794
272.000000	82.052	150.0918
276.000000	81.992	150.3601
280.000000	81.941	150.5925
285.000000	81.879	150.8731
290.000000	81.824	151.1893
295.000000	81.770	151.5836
300.000000	81.720	151.9921
304.000000	81.681	152.2699
307.000000	81.655	152.4892
311.000000	81.625	152.7944
315.000000	81.597	153.0575
320.000000	81.556	153.3147
325.000000	81.506	153.6089
330.000000	81.468	153.9627
335.000000	81.441	154.2826
340.000000	81.414	154.5694
345.000000	81.376	154.8749
350.000000	81.339	155.1712
355.000000	81.311	155.4470
360.000000	81.284	155.7026
365.000000	81.256	155.9050
370.000000	81.218	156.0965
375.000000	81.177	156.3035
382.000000	81.122	156.6100
387.000000	81.084	156.8209
395.000000	81.026	157.1760
400.000000	80.986	157.3939
406.000000	80.934	157.6431
412.000000	80.892	157.8907
418.000000	80.856	158.1086
425.000000	80.811	158.3967
431.000000	80.774	158.6818
437.000000	80.739	158.9732
444.000000	80.691	159.2705
450.000000	80.650	159.5201
455.000000	80.619	159.7603
462.000000	80.584	160.0772
468.000000	80.554	160.3174
475.000000	80.513	160.5611
482.000000	80.480	160.8049
487.000000	80.460	160.9913
494.000000	80.436	161.2712
500.000000	80.412	161.5204
508.000000	80.372	161.8570
515.000000	80.333	162.1151
522.000000	80.301	162.3958
530.000000	80.264	162.7619
538.000000	80.220	163.0902
545.000000	80.186	163.3301
552.000000	80.154	163.5793
560.000000	80.111	163.9067
570.000000	80.072	164.3138
580.000000	80.029	164.7111
590.000000	79.975	165.1175
600.000000	79.930	165.5001
608.000000	79.891	165.8048
615.000000	79.861	166.0841
622.000000	79.836	166.3703
630.000000	79.808	166.7142
640.000000	79.769	167.1760
650.000000	79.726	167.5751
660.000000	79.682	167.9318
670.000000	79.642	168.3356
680.000000	79.605	168.8367
690.000000	79.572	169.3174
700.000000	79.534	169.7570
710.000000	79.503	170.1433
720.000000	79.476	170.5286
730.000000	79.444	170.9734
740.000000	79.410	171.4215
750.000000	79.383	171.8968
762.000000	79.352	172.4761
775.000000	79.309	173.0622
788.000000	79.267	173.6220
800.000000	79.242	174.1518
812.000000	79.219	174.6931
825.000000	79.193	175.2627
838.000000	79.176	175.8237
850.000000	79.160	176.3844
862.000000	79.138	176.9936
875.000000	79.122	177.6060
885.000000	79.115	178.0461
900.000000	79.108	178.6777
912.000000	79.103	179.2113
925.000000	79.104	179.7673
938.000000	79.113	-179.7068
950.000000	79.124	-179.2241
962.000000	79.137	-178.7711
975.000000	79.149	-178.3130
988.000000	79.162	-177.9062
1000.000000	79.174	-177.5628
1015.000000	79.180	-177.0123
1030.000000	79.196	-176.4619
1044.000000	79.213	-176.0685
1060.000000	79.235	-175.6557
1075.000000	79.254	-175.2424
1090.000000	79.271	-174.8660
1106.000000	79.294	-174.4937
1120.000000	79.315	-174.2054
1138.000000	79.345	-173.8650
1150.000000	79.362	-173.6696
1172.000000	79.382	-173.3435
1180.000000	79.387	-173.2177
1206.000000	79.398	-172.7999
1220.000000	79.402	-172.5508
1241.000000	79.408	-172.1260
1250.000000	79.409	-171.9465
1265.000000	79.404	-171.6358
1280.000000	79.391	-171.3102
1315.000000	79.361	-170.5323
1320.000000	79.356	-170.4130
1340.000000	79.337	-169.9232
1360.000000	79.313	-169.3658
1380.000000	79.289	-168.6983
1400.000000	79.266	-167.9708
1430.000000	79.225	-166.7855
1450.000000	79.208	-165.8860
1475.000000	79.188	-164.6259
1500.000000	79.173	-163.2465
1525.000000	79.179	-161.7324
1550.000000	79.216	-160.1194
1575.000000	79.276	-158.3492
1600.000000	79.369	-156.3936
1625.000000	79.502	-154.3848
1650.000000	79.685	-152.4484
1675.000000	79.923	-150.6028
1700.000000	80.211	-148.8935
1725.000000	80.535	-147.3950
1750.000000	80.887	-146.1914
1775.000000	81.263	-145.3458
1800.000000	81.660	-144.8407
1825.000000	82.063	-144.7302
1850.000000	82.452	-145.0014
1875.000000	82.813	-145.6602
1900.000000	83.134	-146.6254
1925.000000	83.409	-147.7807
1950.000000	83.636	-149.0581
1975.000000	83.814	-150.3876
2000.000000	83.953	-151.6836
2030.000000	84.083	-153.1358
2060.000000	84.179	-154.4494
2090.000000	84.247	-155.5903
2120.000000	84.291	-156.6002
2140.000000	84.311	-157.1793
2180.000000	84.336	-158.1089
2200.000000	84.343	-158.4807
2240.000000	84.354	-159.0245
2270.000000	84.363	-159.2780
2300.000000	84.373	-159.3836
2330.000000	84.392	-159.3288
2360.000000	84.426	-159.1425
2400.000000	84.504	-158.7567
2430.000000	84.597	-158.4197
2470.000000	84.765	-157.9820
2500.000000	84.916	-157.7360
2540.000000	85.140	-157.5615
2580.000000	85.386	-157.5511
2620.000000	85.653	-157.6811
2650.000000	85.865	-157.8615
2690.000000	86.171	-158.2538
2720.000000	86.417	-158.6932
2760.000000	86.765	-159.5465
2800.000000	87.131	-160.8057
2850.000000	87.584	-163.0821
2900.000000	87.991	-166.2396
2950.000000	88.289	-170.1500
3000.000000	88.432	-174.5224
3040.000000	88.425	-178.0868
3070.000000	88.353	179.3544
3110.000000	88.182	176.2538
3150.000000	87.945	173.5900
3200.000000	87.594	170.8996
3250.000000	87.218	168.8965
3300.000000	86.847	167.4731
3350.000000	86.500	166.4939
3400.000000	86.188	165.8152
3450.000000	85.915	165.3215
3500.000000	85.675	164.9513
3550.000000	85.455	164.6715
3600.000000	85.252	164.4617
3650.000000	85.061	164.3355
3700.000000	84.877	164.2811
3750.000000	84.698	164.2955
3820.000000	84.459	164.4815
3870.000000	84.298	164.6999
3950.000000	84.061	165.0997
4000.000000	83.922	165.3230
4060.000000	83.749	165.5761
4120.000000	83.564	165.9174
4180.000000	83.376	166.4058
4250.000000	83.164	167.1858
4310.000000	82.991	167.9871
4370.000000	82.824	168.9003
4440.000000	82.634	170.0846
4500.000000	82.484	171.2053
4550.000000	82.374	172.2052
4620.000000	82.248	173.6736
4680.000000	82.164	174.9741
4750.000000	82.082	176.4801
4820.000000	82.021	177.9558
4870.000000	81.987	178.9888
4940.000000	81.950	-179.5637
5000.000000	81.923	-178.3181
5080.000000	81.902	-176.6606
5150.000000	81.899	-175.1999
5220.000000	81.913	-173.7503
5300.000000	81.946	-172.1115
5380.000000	81.989	-170.4629
5450.000000	82.037	-169.0003
5520.000000	82.094	-167.5294
5600.000000	82.175	-165.8309
5700.000000	82.307	-163.6891
5800.000000	82.475	-161.5275
5900.000000	82.682	-159.2800
6000.000000	82.937	-157.0404
6080.000000	83.184	-155.2690
6150.000000	83.436	-153.7261
6220.000000	83.727	-152.2284
6300.000000	84.107	-150.6249
6400.000000	84.658	-148.8511
6500.000000	85.298	-147.3979
6600.000000	86.055	-146.3458
6700.000000	86.967	-146.0446
6800.000000	88.016	-147.0846
6900.000000	89.145	-149.9778
7000.000000	90.247	-155.1495
7100.000000	91.161	-162.8429
7200.000000	91.713	-172.6475
7300.000000	91.794	176.7501
7400.000000	91.428	167.0665
7500.000000	90.758	159.3907
7620.000000	89.795	153.0343
7750.000000	88.831	148.8995
7880.000000	88.036	145.6895
8000.000000	87.387	142.3086
8120.000000	86.682	137.7828
8250.000000	85.538	132.8247
8380.000000	84.004	130.8018
8500.000000	82.557	131.9957
8620.000000	81.287	135.1493
8750.000000	80.175	139.6556
8850.000000	79.492	143.4302
9000.000000	78.711	149.2448
9120.000000	78.265	153.7512
9250.000000	77.927	158.2837
9380.000000	77.704	162.3393
9500.000000	77.572	165.5827
9620.000000	77.482	168.3160
9750.000000	77.400	170.9556
9880.000000	77.373	173.4243
10000.000000	77.414	175.0781
10150.000000	77.462	176.0505
10300.000000	77.437	176.1577
10440.000000	77.324	175.5141
10600.000000	76.940	173.9966
10750.000000	76.209	174.0897
10900.000000	75.469	176.9133
11060.000000	74.943	-179.1799
11200.000000	74.603	-175.7053
11380.000000	74.258	-170.8563
11500.000000	74.102	-167.3387
11720.000000	74.053	-160.4529
11800.000000	74.122	-157.9034
12060.000000	74.725	-149.8008
12200.000000	75.332	-145.9484
12410.000000	76.686	-141.8622
12500.000000	77.474	-141.1396
12650.000000	79.025	-142.7073
12800.000000	80.525	-149.9891
13150.000000	81.183	172.1920
13200.000000	80.798	166.7082
13400.000000	78.266	152.0126
13600.000000	75.047	148.2103
13800.000000	71.821	154.0759
14000.000000	69.536	164.7692
14300.000000	67.919	177.1250
14500.000000	66.995	-175.1751
14750.000000	66.121	-163.8861
15000.000000	65.763	-151.9690
15250.000000	65.976	-142.0267
15500.000000	66.241	-135.3988
15750.000000	66.280	-125.4807
16000.000000	67.618	-112.8979
16250.000000	69.353	-107.6419
16500.000000	71.352	-105.0919
16750.000000	73.483	-110.7491
17000.000000	74.024	-126.4300
17250.000000	72.749	-135.4781
17500.000000	71.572	-134.4417
17750.000000	71.149	-133.5449
18000.000000	70.588	-131.6887
18250.000000	70.366	-125.9413
18500.000000	71.254	-119.0940
18750.000000	73.256	-117.0734
19000.000000	75.165	-126.8228
19250.000000	75.777	-148.1558
19500.000000	74.546	-170.3903
19750.000000	71.936	176.4164
20000.000000	69.500	170.9986
