* Measurement data measured by REW V5.20.5
* Source: Mic in at rear panel (Pink)(Realtek(R) Audio), MICROPHONE (마스), L, volume: 1.000
* Format: 128k Log Swept Sine, 1 sweep at -12.0 dBFS with no timing reference
* Dated: 2022. 4. 11 오후 1:41:04
* REW Settings:
*  C-weighting compensation: Off
*  Target level: 75.0 dB
* Note: 
* Measurement: 4월 11
* Smoothing: 1/24 octave
* Frequency Step: 1/48 octave
* Start Frequency: 20.300 Hz
*
* Freq(Hz)	SPL(dB)	Phase(degrees)
20.299999	76.915	-164.4561
20.600000	76.923	-164.6652
20.900000	76.933	-165.0332
21.200001	76.930	-165.3672
21.400000	76.921	-165.5673
21.799999	76.890	-165.9285
22.000000	76.871	-166.0939
22.400000	76.832	-166.3934
22.700001	76.811	-166.5963
23.000000	76.801	-166.7890
23.299999	76.801	-166.9796
23.600000	76.811	-167.1840
24.000000	76.842	-167.5189
24.299999	76.879	-167.8587
24.700001	76.933	-168.4698
25.000000	76.967	-169.0396
25.400000	76.989	-169.8768
25.799999	76.983	-170.6572
26.200001	76.961	-171.2411
26.500000	76.946	-171.5248
26.900000	76.941	-171.7570
27.200001	76.952	-171.9097
27.600000	76.976	-172.1954
28.000000	76.991	-172.6156
28.500000	76.964	-173.1940
29.000000	76.896	-173.5522
29.500000	76.830	-173.5580
30.000000	76.803	-173.3671
30.400000	76.812	-173.2655
30.700001	76.833	-173.2854
31.100000	76.866	-173.4507
31.500000	76.893	-173.7315
32.000000	76.908	-174.1499
32.500000	76.910	-174.5575
33.000000	76.904	-174.8961
33.500000	76.896	-175.1458
34.000000	76.897	-175.3468
34.500000	76.909	-175.5866
35.000000	76.922	-175.9164
35.500000	76.924	-176.3034
36.000000	76.911	-176.6823
36.500000	76.888	-177.0352
37.000000	76.853	-177.3704
37.500000	76.799	-177.6397
38.200001	76.725	-177.7233
38.700001	76.714	-177.5969
39.500000	76.782	-177.6705
40.000000	76.828	-178.1275
40.599998	76.832	-178.9119
41.200001	76.782	-179.5466
41.799999	76.727	-179.8759
42.500000	76.709	179.9239
43.099998	76.730	179.7142
43.700001	76.767	179.4330
44.400002	76.813	179.0231
45.000000	76.836	178.6401
45.500000	76.839	178.3745
46.200001	76.837	178.1346
46.799999	76.843	177.9514
47.500000	76.846	177.6359
48.200001	76.831	177.2950
48.700001	76.812	177.0916
49.400002	76.775	176.8359
50.000000	76.736	176.6362
50.799999	76.696	176.4071
51.500000	76.682	176.0956
52.200001	76.670	175.6144
53.000000	76.652	175.0706
53.799999	76.650	174.6177
54.500000	76.656	174.2555
55.200001	76.668	173.9769
56.000000	76.698	173.6500
57.000000	76.696	173.1862
58.000000	76.660	173.1452
59.000000	76.649	173.0961
60.000000	76.591	172.8786
60.799999	76.520	172.9385
61.500000	76.478	173.2151
62.200001	76.493	173.5498
63.000000	76.580	173.4888
64.000000	76.650	172.4377
65.000000	76.604	171.3893
66.000000	76.550	170.8292
67.000000	76.510	170.5670
68.000000	76.515	170.6165
69.000000	76.568	170.4306
70.000000	76.576	169.8524
71.000000	76.523	169.3944
72.000000	76.470	169.1941
73.000000	76.440	169.0128
74.000000	76.423	168.7453
75.000000	76.410	168.4382
76.199997	76.408	168.1822
77.500000	76.437	167.8208
78.800003	76.429	167.4154
80.000000	76.406	167.2938
81.199997	76.383	167.1929
82.500000	76.345	166.9138
83.800003	76.284	166.5349
85.000000	76.240	166.1540
86.199997	76.205	165.6809
87.500000	76.194	165.2237
88.500000	76.211	164.8873
90.000000	76.237	164.4607
91.199997	76.236	164.2657
92.500000	76.212	164.1257
93.800003	76.150	163.8374
95.000000	76.064	163.6572
96.199997	76.034	163.4639
97.500000	76.028	162.7542
98.800003	75.960	162.2196
100.000000	75.927	162.3288
101.500000	75.952	162.3331
103.000000	75.932	162.0658
104.400002	75.913	161.8674
106.000000	75.934	161.5388
107.500000	75.957	161.2639
109.000000	76.001	161.2632
110.599998	76.050	160.5124
112.000000	75.957	159.3137
113.800003	75.845	158.4668
115.000000	75.928	158.5983
117.199997	76.580	160.5712
118.000000	76.991	161.4611
120.599998	77.720	158.9194
122.000000	77.170	157.8658
124.099998	76.260	158.9185
125.000000	76.002	159.1034
126.500000	75.702	158.5005
128.000000	75.448	157.6965
131.500000	75.063	158.3912
132.000000	75.048	158.5766
134.000000	75.063	158.5176
136.000000	75.072	157.7070
138.000000	75.063	157.3948
140.000000	75.006	157.8706
143.000000	74.959	158.9554
145.000000	74.948	158.7513
147.500000	74.967	158.8768
150.000000	75.060	159.4674
152.500000	75.129	159.9541
155.000000	75.270	159.4413
157.500000	75.437	157.7180
160.000000	75.539	156.6969
162.500000	75.688	156.5256
165.000000	75.770	155.6284
167.500000	75.764	154.2499
170.000000	75.719	152.9681
172.500000	75.635	152.0626
175.000000	75.527	151.4764
177.500000	75.445	150.9612
180.000000	75.372	150.5052
182.500000	75.300	150.1734
185.000000	75.229	149.8481
187.500000	75.152	149.4712
190.000000	75.088	149.0539
192.500000	75.074	148.5616
195.000000	75.115	148.1136
197.500000	75.158	147.6083
200.000000	75.096	146.9239
203.000000	74.922	146.2875
206.000000	74.804	145.9328
209.000000	74.728	145.6746
212.000000	74.618	145.4230
214.000000	74.557	145.2956
218.000000	74.544	144.8505
220.000000	74.526	144.5258
224.000000	74.416	143.8990
227.000000	74.360	143.1824
230.000000	74.323	142.3557
233.000000	74.269	142.1675
236.000000	74.253	142.4618
240.000000	74.210	142.4488
243.000000	74.135	142.1541
247.000000	74.068	141.6999
250.000000	74.002	141.4247
254.000000	73.870	141.1284
258.000000	73.754	140.9310
262.000000	73.654	140.7017
265.000000	73.588	140.3623
269.000000	73.501	139.9755
272.000000	73.442	139.7871
276.000000	73.377	139.5251
280.000000	73.288	139.3685
285.000000	73.187	139.1597
290.000000	73.078	138.8790
295.000000	72.962	138.5225
300.000000	72.912	138.2468
304.000000	72.871	138.1802
307.000000	72.827	138.1103
311.000000	72.718	137.8943
315.000000	72.562	137.7187
320.000000	72.435	137.8737
325.000000	72.369	138.2384
330.000000	72.267	138.3338
335.000000	72.187	138.4505
340.000000	72.120	138.7167
345.000000	72.042	138.8772
350.000000	71.959	139.0345
355.000000	71.808	139.0463
360.000000	71.645	139.1039
365.000000	71.579	139.4447
370.000000	71.540	139.9684
375.000000	71.473	140.7229
382.000000	71.426	141.9852
387.000000	71.449	142.9895
395.000000	71.531	143.9302
400.000000	71.581	143.8959
406.000000	71.664	143.7789
412.000000	71.709	143.7001
418.000000	71.720	143.5403
425.000000	71.716	143.4067
431.000000	71.695	143.2440
437.000000	71.663	143.0664
444.000000	71.575	142.9828
450.000000	71.499	143.1105
455.000000	71.460	143.1389
462.000000	71.409	143.0409
468.000000	71.373	143.1804
475.000000	71.327	143.5220
482.000000	71.252	143.7970
487.000000	71.198	144.0192
494.000000	71.133	144.4076
500.000000	71.106	144.7510
508.000000	71.083	145.2670
515.000000	71.033	145.7436
522.000000	70.979	146.1548
530.000000	70.942	146.5102
538.000000	70.899	147.1050
545.000000	70.869	147.7627
552.000000	70.863	148.5095
560.000000	70.858	149.4215
570.000000	70.846	150.5089
580.000000	70.811	151.4683
590.000000	70.812	152.4385
600.000000	70.827	153.4024
608.000000	70.830	154.2159
615.000000	70.840	155.0184
622.000000	70.861	155.7862
630.000000	70.879	156.6288
640.000000	70.904	157.8549
650.000000	70.973	159.0771
660.000000	71.051	160.2830
670.000000	71.121	161.6353
680.000000	71.237	163.0507
690.000000	71.371	164.2722
700.000000	71.512	165.3467
710.000000	71.680	166.4103
720.000000	71.869	167.3839
730.000000	72.074	168.1819
740.000000	72.290	168.8570
750.000000	72.495	169.3584
762.000000	72.727	169.6570
775.000000	72.974	169.8042
788.000000	73.184	169.9169
800.000000	73.351	169.9461
812.000000	73.485	169.9454
825.000000	73.598	169.9344
838.000000	73.684	170.1846
850.000000	73.750	170.5676
862.000000	73.828	171.0315
875.000000	73.944	171.7857
885.000000	74.053	172.4550
900.000000	74.227	173.3144
912.000000	74.370	173.8709
925.000000	74.551	174.4527
938.000000	74.734	175.0304
950.000000	74.895	175.4694
962.000000	75.067	175.7967
975.000000	75.273	176.1078
988.000000	75.491	176.4530
1000.000000	75.687	176.7057
1015.000000	75.887	176.6224
1030.000000	76.087	176.5215
1044.000000	76.282	176.4972
1060.000000	76.478	176.2960
1075.000000	76.653	176.0553
1090.000000	76.836	175.7855
1106.000000	77.022	175.3905
1120.000000	77.171	175.0073
1138.000000	77.347	174.4971
1150.000000	77.449	174.0964
1172.000000	77.607	173.2774
1180.000000	77.652	172.9927
1206.000000	77.761	172.1725
1220.000000	77.803	171.6732
1241.000000	77.842	171.0489
1250.000000	77.854	170.8183
1265.000000	77.875	170.3785
1280.000000	77.906	169.9167
1315.000000	78.033	169.0811
1320.000000	78.052	168.9765
1340.000000	78.108	168.6123
1360.000000	78.133	168.4359
1380.000000	78.118	168.2971
1400.000000	78.068	168.2512
1430.000000	77.962	168.3934
1450.000000	77.892	168.5845
1475.000000	77.806	168.8969
1500.000000	77.721	169.3673
1525.000000	77.615	169.9936
1550.000000	77.502	170.8236
1575.000000	77.408	171.7204
1600.000000	77.313	172.6351
1625.000000	77.231	173.6989
1650.000000	77.146	174.9180
1675.000000	77.059	176.2312
1700.000000	76.994	177.5245
1725.000000	76.939	178.9063
1750.000000	76.879	-179.5948
1775.000000	76.816	-178.0522
1800.000000	76.768	-176.4664
1825.000000	76.727	-174.8618
1850.000000	76.690	-173.1797
1875.000000	76.656	-171.4829
1900.000000	76.638	-169.7689
1925.000000	76.629	-167.9771
1950.000000	76.619	-166.1919
1975.000000	76.617	-164.3702
2000.000000	76.627	-162.5311
2030.000000	76.655	-160.3522
2060.000000	76.702	-158.1165
2090.000000	76.753	-155.7876
2120.000000	76.806	-153.4943
2140.000000	76.845	-152.0050
2180.000000	76.933	-148.9812
2200.000000	76.988	-147.4895
2240.000000	77.127	-144.5372
2270.000000	77.238	-142.3301
2300.000000	77.347	-140.1500
2330.000000	77.466	-137.9682
2360.000000	77.592	-135.8187
2400.000000	77.776	-133.0520
2430.000000	77.928	-131.0456
2470.000000	78.141	-128.3789
2500.000000	78.323	-126.3952
2540.000000	78.576	-123.8453
2580.000000	78.836	-121.4277
2620.000000	79.120	-119.2156
2650.000000	79.343	-117.6770
2690.000000	79.656	-115.7440
2720.000000	79.903	-114.4351
2760.000000	80.246	-112.9105
2800.000000	80.606	-111.6496
2850.000000	81.075	-110.5707
2900.000000	81.528	-110.1120
2950.000000	81.945	-110.3244
3000.000000	82.299	-111.1686
3040.000000	82.521	-112.1735
3070.000000	82.644	-113.0390
3110.000000	82.756	-114.3054
3150.000000	82.808	-115.6614
3200.000000	82.790	-117.3581
3250.000000	82.686	-118.8955
3300.000000	82.501	-120.1781
3350.000000	82.258	-121.0738
3400.000000	81.989	-121.5249
3450.000000	81.732	-121.4681
3500.000000	81.520	-121.0653
3550.000000	81.358	-120.6085
3600.000000	81.249	-120.2914
3650.000000	81.190	-120.2250
3700.000000	81.148	-120.6140
3750.000000	81.102	-121.5347
3820.000000	81.028	-123.4523
3870.000000	80.958	-125.1775
3950.000000	80.839	-128.6784
4000.000000	80.778	-131.4693
4060.000000	80.706	-135.5842
4120.000000	80.609	-140.6736
4180.000000	80.461	-146.7360
4250.000000	80.201	-154.9373
4310.000000	79.892	-162.7130
4370.000000	79.506	-170.8992
4440.000000	79.002	179.4590
4500.000000	78.565	171.5347
4550.000000	78.209	165.3141
4620.000000	77.762	157.3437
4680.000000	77.457	151.4054
4750.000000	77.215	145.5459
4820.000000	77.103	140.7345
4870.000000	77.096	137.8572
4940.000000	77.179	134.5805
5000.000000	77.330	132.4314
5080.000000	77.608	130.3114
5150.000000	77.908	128.9106
5220.000000	78.256	127.7419
5300.000000	78.677	126.5957
5380.000000	79.086	125.5039
5450.000000	79.418	124.5047
5520.000000	79.706	123.5640
5600.000000	79.969	122.6403
5700.000000	80.190	121.6877
5800.000000	80.303	121.2277
5900.000000	80.339	121.3191
6000.000000	80.310	121.8602
6080.000000	80.232	122.6810
6150.000000	80.130	123.7968
6220.000000	80.010	125.3396
6300.000000	79.864	127.6121
6400.000000	79.692	131.1219
6500.000000	79.542	135.3526
6600.000000	79.452	140.2103
6700.000000	79.445	145.4648
6800.000000	79.523	150.9390
6900.000000	79.691	156.4644
7000.000000	79.956	161.9227
7100.000000	80.292	167.0226
7200.000000	80.650	171.8442
7300.000000	81.088	176.6948
7400.000000	81.667	-178.7548
7500.000000	82.366	-174.9583
7620.000000	83.304	-171.9847
7750.000000	84.311	-171.5669
7880.000000	85.059	-174.9423
8000.000000	85.244	178.7130
8120.000000	84.754	171.0858
8250.000000	83.455	164.4822
8380.000000	81.593	161.8929
8500.000000	79.658	163.2590
8620.000000	77.715	167.5977
8750.000000	75.686	175.0160
8850.000000	74.203	-177.6367
9000.000000	72.185	-164.0766
9120.000000	70.802	-151.0334
9250.000000	69.693	-135.2448
9380.000000	69.173	-119.0922
9500.000000	69.133	-105.4466
9620.000000	69.298	-93.6767
9750.000000	69.554	-82.8297
9880.000000	69.793	-73.5548
10000.000000	69.914	-65.9522
10150.000000	69.967	-56.8998
10300.000000	70.039	-47.8778
10440.000000	70.141	-39.8160
10600.000000	70.234	-31.4176
10750.000000	70.251	-24.1300
10900.000000	70.202	-17.0479
11060.000000	70.153	-9.4116
11200.000000	70.170	-2.7527
11380.000000	70.222	4.9817
11500.000000	70.212	9.4297
11720.000000	70.030	16.6213
11800.000000	69.902	19.0293
12060.000000	69.208	26.8482
12200.000000	68.654	31.5626
12410.000000	67.630	39.8080
12500.000000	67.139	43.9135
12650.000000	66.282	51.6358
12800.000000	65.435	60.3662
13150.000000	63.653	83.8876
13200.000000	63.411	87.5859
13400.000000	62.496	102.7303
13600.000000	61.711	118.2752
13800.000000	61.068	134.4544
14000.000000	60.582	150.7586
14300.000000	60.238	175.3931
14500.000000	60.191	-168.0006
14750.000000	60.305	-146.9298
15000.000000	61.075	-122.8526
15250.000000	64.731	-93.0129
15500.000000	68.769	-83.1413
15750.000000	70.498	-98.7689
16000.000000	70.215	-118.7240
16250.000000	67.946	-129.5861
16500.000000	64.670	-126.3392
16750.000000	61.657	-114.3277
17000.000000	59.417	-98.9737
17250.000000	57.798	-83.0533
17500.000000	56.492	-67.0148
17750.000000	55.135	-49.3773
18000.000000	53.660	-27.2429
18250.000000	52.791	-0.1085
18500.000000	53.085	27.7897
18750.000000	54.099	51.9821
19000.000000	55.575	72.5754
19250.000000	57.398	90.3184
19500.000000	59.213	103.8225
19750.000000	60.533	112.0189
20000.000000	61.084	115.2379
