* Measurement data measured by REW V5.20.5
* Source: Mic in at rear panel (Pink)(Realtek(R) Audio), MICROPHONE (마스), L, volume: 1.000
* Format: 128k Log Swept Sine, 1 sweep at -12.0 dBFS with no timing reference
* Dated: 2022. 4. 11 오후 1:48:39
* REW Settings:
*  C-weighting compensation: Off
*  Target level: 75.0 dB
* Note: 
* Measurement: f_l
* Smoothing: 1/24 octave
* Frequency Step: 1/48 octave
* Start Frequency: 20.300 Hz
*
* Freq(Hz)	SPL(dB)	Phase(degrees)
20.299999	75.900	-152.9602
20.600000	75.855	-153.6306
20.900000	75.740	-154.5961
21.200001	75.584	-154.8632
21.400000	75.502	-154.6612
21.799999	75.455	-153.8920
22.000000	75.503	-153.6384
22.400000	75.694	-153.9657
22.700001	75.842	-155.0121
23.000000	75.941	-156.4983
23.299999	75.984	-158.0786
23.600000	75.988	-159.5637
24.000000	75.967	-161.2989
24.299999	75.940	-162.4368
24.700001	75.874	-163.6095
25.000000	75.812	-163.9483
25.400000	75.801	-163.3642
25.799999	76.049	-162.0389
26.200001	76.616	-161.4921
26.500000	77.126	-162.5824
26.900000	77.684	-166.4991
27.200001	77.865	-170.8472
27.600000	77.678	-177.1468
28.000000	76.987	178.2575
28.500000	75.650	178.2081
29.000000	74.615	-175.4128
29.500000	74.641	-167.7024
30.000000	75.273	-163.7970
30.400000	75.713	-163.4784
30.700001	75.936	-164.0331
31.100000	76.128	-165.0422
31.500000	76.248	-166.1429
32.000000	76.314	-167.6513
32.500000	76.280	-168.9931
33.000000	76.211	-169.6507
33.500000	76.218	-169.7610
34.000000	76.321	-170.0933
34.500000	76.415	-171.0009
35.000000	76.419	-171.9680
35.500000	76.374	-172.3194
36.000000	76.376	-172.1126
36.500000	76.444	-171.9434
37.000000	76.497	-172.1421
37.500000	76.472	-172.3958
38.200001	76.369	-171.9713
38.700001	76.368	-171.1967
39.500000	76.530	-170.8963
40.000000	76.593	-171.8439
40.599998	76.500	-173.3813
41.200001	76.324	-174.0949
41.799999	76.325	-174.4015
42.500000	76.546	-176.9210
43.099998	76.491	178.5937
43.700001	75.969	175.2574
44.400002	75.206	176.6651
45.000000	75.158	-179.3056
45.500000	75.547	-177.2486
46.200001	76.085	-177.5784
46.799999	76.290	-178.7542
47.500000	76.401	-179.3651
48.200001	76.481	-179.6517
48.700001	76.486	-179.7825
49.400002	76.435	-179.5341
50.000000	76.405	-179.1038
50.799999	76.388	-178.9025
51.500000	76.344	-179.0485
52.200001	76.302	-179.2680
53.000000	76.298	-179.7595
53.799999	76.306	179.4352
54.500000	76.299	178.7674
55.200001	76.303	178.3761
56.000000	76.359	178.1213
57.000000	76.455	177.6437
58.000000	76.508	177.0571
59.000000	76.494	176.1104
60.000000	76.318	175.2519
60.799999	76.149	175.3768
61.500000	76.081	175.8215
62.200001	76.097	176.1891
63.000000	76.193	176.2521
64.000000	76.319	175.5311
65.000000	76.349	175.1043
66.000000	76.498	175.2665
67.000000	76.621	174.1716
68.000000	76.459	173.5508
69.000000	76.354	174.3071
70.000000	76.364	174.2546
71.000000	76.296	173.6406
72.000000	76.232	173.1448
73.000000	76.196	172.5324
74.000000	76.174	172.0385
75.000000	76.183	171.7498
76.199997	76.210	171.7349
77.500000	76.310	172.0920
78.800003	76.429	171.4096
80.000000	76.300	170.3635
81.199997	76.096	170.6515
82.500000	76.088	171.1759
83.800003	76.159	170.7963
85.000000	76.215	170.2559
86.199997	76.253	169.5723
87.500000	76.205	168.8898
88.500000	76.137	168.6944
90.000000	76.059	168.4890
91.199997	76.007	168.1257
92.500000	75.962	167.5604
93.800003	75.945	166.9922
95.000000	75.971	166.4871
96.199997	76.007	165.9250
97.500000	75.998	165.4960
98.800003	75.966	165.5881
100.000000	75.971	165.7340
101.500000	75.966	165.2948
103.000000	75.900	164.4913
104.400002	75.857	163.9268
106.000000	75.884	163.4235
107.500000	75.924	163.5651
109.000000	76.016	164.3405
110.599998	76.100	164.7945
112.000000	76.046	164.4053
113.800003	75.849	163.3121
115.000000	75.778	162.2129
117.199997	75.995	159.4628
118.000000	76.166	158.0588
120.599998	76.082	154.2836
122.000000	75.777	156.2157
124.099998	75.682	159.4979
125.000000	75.679	160.0550
126.500000	75.647	160.0448
128.000000	75.607	159.4930
131.500000	75.624	158.4425
132.000000	75.631	158.3853
134.000000	75.636	158.2090
136.000000	75.597	158.0806
138.000000	75.560	158.0039
140.000000	75.541	157.9303
143.000000	75.512	157.4340
145.000000	75.472	156.8756
147.500000	75.449	156.1139
150.000000	75.420	155.3650
152.500000	75.361	155.0246
155.000000	75.346	154.9467
157.500000	75.366	154.4798
160.000000	75.339	153.6398
162.500000	75.281	152.8775
165.000000	75.242	152.4673
167.500000	75.243	152.3568
170.000000	75.234	152.1459
172.500000	75.192	151.7513
175.000000	75.162	151.2687
177.500000	75.152	150.8212
180.000000	75.113	150.4113
182.500000	75.023	150.0711
185.000000	74.941	149.6418
187.500000	74.887	149.0833
190.000000	74.849	148.5576
192.500000	74.805	148.0896
195.000000	74.780	147.6039
197.500000	74.772	147.0972
200.000000	74.750	146.7988
203.000000	74.699	146.6426
206.000000	74.642	146.4093
209.000000	74.603	146.0373
212.000000	74.568	145.6243
214.000000	74.560	145.3869
218.000000	74.545	144.9340
220.000000	74.516	144.7384
224.000000	74.433	144.1263
227.000000	74.400	143.6985
230.000000	74.376	143.3686
233.000000	74.291	142.8715
236.000000	74.168	142.3098
240.000000	74.059	141.7675
243.000000	74.026	141.5472
247.000000	74.004	141.0940
250.000000	73.990	140.6199
254.000000	73.989	140.3170
258.000000	73.961	140.1773
262.000000	73.844	139.5544
265.000000	73.740	138.9047
269.000000	73.640	138.2185
272.000000	73.593	138.0270
276.000000	73.547	137.9646
280.000000	73.470	137.6841
285.000000	73.325	137.3767
290.000000	73.229	137.0015
295.000000	73.223	136.3610
300.000000	73.182	135.9900
304.000000	73.131	135.7540
307.000000	73.066	135.4327
311.000000	72.938	135.0333
315.000000	72.822	134.7417
320.000000	72.720	134.3202
325.000000	72.654	133.8917
330.000000	72.584	133.8040
335.000000	72.443	133.7655
340.000000	72.320	133.4464
345.000000	72.227	133.1652
350.000000	72.130	133.1275
355.000000	72.012	133.0360
360.000000	71.859	132.8696
365.000000	71.713	132.7728
370.000000	71.578	132.9447
375.000000	71.438	133.2291
382.000000	71.273	133.9856
387.000000	71.183	134.7598
395.000000	71.126	135.7371
400.000000	71.112	136.0145
406.000000	71.113	136.3470
412.000000	71.143	136.6355
418.000000	71.167	136.7234
425.000000	71.133	136.9584
431.000000	71.081	136.9902
437.000000	71.032	136.8235
444.000000	70.950	137.0233
450.000000	70.905	137.3849
455.000000	70.860	137.5396
462.000000	70.787	137.5421
468.000000	70.731	137.6118
475.000000	70.680	137.7819
482.000000	70.649	137.9064
487.000000	70.629	138.0632
494.000000	70.583	138.4514
500.000000	70.543	138.9607
508.000000	70.490	139.5999
515.000000	70.417	140.0902
522.000000	70.354	140.5081
530.000000	70.315	141.1249
538.000000	70.289	141.8775
545.000000	70.270	142.4603
552.000000	70.232	143.0430
560.000000	70.165	143.7929
570.000000	70.106	144.6043
580.000000	70.121	145.6611
590.000000	70.133	146.8528
600.000000	70.124	147.8980
608.000000	70.119	148.7265
615.000000	70.143	149.5664
622.000000	70.184	150.3723
630.000000	70.234	151.3115
640.000000	70.308	152.7152
650.000000	70.402	153.9297
660.000000	70.518	154.8916
670.000000	70.651	155.8992
680.000000	70.802	156.8332
690.000000	70.946	157.7361
700.000000	71.104	158.6033
710.000000	71.271	159.3118
720.000000	71.441	159.7512
730.000000	71.603	160.1231
740.000000	71.744	160.6508
750.000000	71.879	161.1358
762.000000	72.049	161.3849
775.000000	72.218	161.6979
788.000000	72.380	162.1372
800.000000	72.515	162.5401
812.000000	72.621	162.8917
825.000000	72.759	163.2081
838.000000	72.912	163.6594
850.000000	73.043	164.1275
862.000000	73.173	164.5566
875.000000	73.323	165.2044
885.000000	73.454	165.7426
900.000000	73.667	166.4253
912.000000	73.829	166.8591
925.000000	74.006	167.2931
938.000000	74.193	167.7010
950.000000	74.369	168.0074
962.000000	74.552	168.1889
975.000000	74.751	168.2558
988.000000	74.962	168.2242
1000.000000	75.154	168.1640
1015.000000	75.376	168.3255
1030.000000	75.588	168.4617
1044.000000	75.784	168.4248
1060.000000	76.008	168.1869
1075.000000	76.226	167.8965
1090.000000	76.437	167.5743
1106.000000	76.647	167.1563
1120.000000	76.825	166.6777
1138.000000	77.037	165.9481
1150.000000	77.164	165.4379
1172.000000	77.371	164.5340
1180.000000	77.443	164.1757
1206.000000	77.640	163.0060
1220.000000	77.718	162.3939
1241.000000	77.802	161.4113
1250.000000	77.831	160.9850
1265.000000	77.884	160.2770
1280.000000	77.956	159.5954
1315.000000	78.185	158.1332
1320.000000	78.219	157.9378
1340.000000	78.337	157.2194
1360.000000	78.401	156.5403
1380.000000	78.416	155.8779
1400.000000	78.401	155.3135
1430.000000	78.333	154.8962
1450.000000	78.278	154.6854
1475.000000	78.196	154.5073
1500.000000	78.124	154.4274
1525.000000	78.043	154.5124
1550.000000	77.955	154.7190
1575.000000	77.877	155.0184
1600.000000	77.793	155.4799
1625.000000	77.709	156.1686
1650.000000	77.627	156.9969
1675.000000	77.557	157.8041
1700.000000	77.496	158.6732
1725.000000	77.436	159.5924
1750.000000	77.392	160.5919
1775.000000	77.351	161.6955
1800.000000	77.298	162.8685
1825.000000	77.259	164.1350
1850.000000	77.237	165.4278
1875.000000	77.226	166.7100
1900.000000	77.226	168.0241
1925.000000	77.238	169.3950
1950.000000	77.254	170.7928
1975.000000	77.277	172.1795
2000.000000	77.306	173.6113
2030.000000	77.337	175.3724
2060.000000	77.382	177.1049
2090.000000	77.449	178.8471
2120.000000	77.524	-179.3524
2140.000000	77.583	-178.1874
2180.000000	77.713	-175.9227
2200.000000	77.780	-174.7903
2240.000000	77.919	-172.4738
2270.000000	78.033	-170.7189
2300.000000	78.162	-168.9901
2330.000000	78.304	-167.3265
2360.000000	78.463	-165.7290
2400.000000	78.700	-163.6793
2430.000000	78.896	-162.2191
2470.000000	79.169	-160.3325
2500.000000	79.381	-159.0041
2540.000000	79.678	-157.3875
2580.000000	79.987	-155.9365
2620.000000	80.305	-154.6492
2650.000000	80.552	-153.8033
2690.000000	80.894	-152.8892
2720.000000	81.154	-152.3886
2760.000000	81.499	-151.9713
2800.000000	81.829	-151.8272
2850.000000	82.224	-152.0201
2900.000000	82.595	-152.6453
2950.000000	82.918	-153.6338
3000.000000	83.195	-154.9959
3040.000000	83.378	-156.3132
3070.000000	83.489	-157.3819
3110.000000	83.605	-158.8936
3150.000000	83.680	-160.4912
3200.000000	83.701	-162.5398
3250.000000	83.650	-164.5327
3300.000000	83.544	-166.3746
3350.000000	83.411	-168.0975
3400.000000	83.261	-169.7389
3450.000000	83.093	-171.2571
3500.000000	82.909	-172.5987
3550.000000	82.722	-173.8370
3600.000000	82.542	-175.0351
3650.000000	82.365	-176.2812
3700.000000	82.202	-177.6653
3750.000000	82.054	-179.2728
3820.000000	81.860	177.8830
3870.000000	81.726	175.2418
3950.000000	81.483	169.7734
4000.000000	81.274	165.5138
4060.000000	80.909	159.4621
4120.000000	80.387	152.6412
4180.000000	79.713	145.4539
4250.000000	78.750	136.5280
4310.000000	77.725	128.8423
4370.000000	76.574	122.0397
4440.000000	75.287	115.3585
4500.000000	74.393	110.2068
4550.000000	73.875	105.7317
4620.000000	73.500	98.2651
4680.000000	73.348	90.6339
4750.000000	73.187	81.5341
4820.000000	73.100	74.0725
4870.000000	73.233	69.9497
4940.000000	73.731	64.7162
5000.000000	74.287	60.1420
5080.000000	75.020	54.1245
5150.000000	75.629	49.0872
5220.000000	76.196	44.2424
5300.000000	76.753	38.9246
5380.000000	77.161	33.6976
5450.000000	77.364	29.3884
5520.000000	77.421	25.7053
5600.000000	77.322	22.5894
5700.000000	77.057	20.8806
5800.000000	76.878	21.4022
5900.000000	76.889	22.2317
6000.000000	76.913	22.3163
6080.000000	76.821	22.3483
6150.000000	76.658	22.8051
6220.000000	76.447	23.8022
6300.000000	76.187	25.6799
6400.000000	75.891	28.9853
6500.000000	75.660	33.0590
6600.000000	75.490	37.7545
6700.000000	75.375	42.7853
6800.000000	75.345	47.9500
6900.000000	75.404	53.1886
7000.000000	75.533	58.3764
7100.000000	75.708	63.5446
7200.000000	75.926	68.7596
7300.000000	76.260	74.2312
7400.000000	76.800	79.3783
7500.000000	77.415	83.0845
7620.000000	78.042	85.8199
7750.000000	78.549	87.6851
7880.000000	78.849	88.5429
8000.000000	78.899	88.5511
8120.000000	78.700	88.1164
8250.000000	78.198	87.7050
8380.000000	77.422	88.1322
8500.000000	76.510	89.9885
8620.000000	75.476	93.5707
8750.000000	74.277	99.5174
8850.000000	73.354	105.6503
9000.000000	72.085	117.7377
9120.000000	71.298	130.0350
9250.000000	70.941	145.4974
9380.000000	71.363	161.5422
9500.000000	72.357	174.3514
9620.000000	73.594	-176.3186
9750.000000	74.897	-169.8932
9880.000000	75.997	-166.1941
10000.000000	76.783	-164.2317
10150.000000	77.504	-162.5819
10300.000000	78.042	-161.0033
10440.000000	78.446	-159.3122
10600.000000	78.814	-157.2477
10750.000000	79.107	-155.2036
10900.000000	79.415	-153.1333
11060.000000	79.808	-151.2294
11200.000000	80.191	-150.1283
11380.000000	80.666	-149.7971
11500.000000	80.919	-150.3879
11720.000000	81.122	-152.9593
11800.000000	81.090	-154.1544
12060.000000	80.579	-157.4993
12200.000000	80.106	-158.3453
12410.000000	79.313	-158.0266
12500.000000	78.989	-157.4128
12650.000000	78.507	-156.0577
12800.000000	78.099	-154.6918
13150.000000	77.284	-154.0116
13200.000000	77.136	-154.3505
13400.000000	76.299	-156.6101
13600.000000	74.958	-159.0872
13800.000000	73.121	-159.7971
14000.000000	70.972	-157.4858
14300.000000	67.652	-148.4568
14500.000000	65.570	-139.4663
14750.000000	63.155	-126.1633
15000.000000	61.019	-111.4820
15250.000000	59.179	-95.6018
15500.000000	57.515	-79.1680
15750.000000	56.040	-62.7135
16000.000000	54.980	-46.8998
16250.000000	54.274	-31.6394
16500.000000	53.830	-16.6253
16750.000000	53.396	-3.0263
17000.000000	52.415	11.5474
17250.000000	51.605	33.4779
17500.000000	52.100	55.7970
17750.000000	52.988	74.5338
18000.000000	54.346	93.0039
18250.000000	56.399	109.3182
18500.000000	58.737	120.1765
18750.000000	60.824	124.7947
19000.000000	62.432	124.4115
19250.000000	63.408	120.7625
19500.000000	63.718	116.4892
19750.000000	63.515	113.5161
20000.000000	63.222	112.4079
