* Measurement data measured by REW V5.20.13
* Source: EXCL: Microphone(High Definition Audio Device), MICROPHONE (마스), R, volume: 1.000
* Format: 256k Log Swept Sine, 1 sweep at -12.0 dBFS with no timing reference
* Dated: 2023. 2. 22 오후 10:21:17
* REW Settings:
*  C-weighting compensation: Off
*  Target level: 75.0 dB
* Note: 
* Measurement: L
* Smoothing: 1/24 octave
* Frequency Step: 1/48 octave
* Start Frequency: 20.300 Hz
*
* Freq(Hz)	SPL(dB)	Phase(degrees)
20.299999	94.247	58.9342
20.600000	94.299	58.5545
20.900000	94.401	57.8881
21.200001	94.494	57.2827
21.400000	94.553	56.9026
21.799999	94.667	56.1337
22.000000	94.725	55.7225
22.400000	94.835	54.8416
22.700001	94.911	54.1431
23.000000	94.979	53.4330
23.299999	95.043	52.7368
23.600000	95.105	52.0687
24.000000	95.191	51.2255
24.299999	95.261	50.6144
24.700001	95.361	49.7989
25.000000	95.438	49.1729
25.400000	95.539	48.3210
25.799999	95.632	47.4772
26.200001	95.719	46.6753
26.500000	95.781	46.1117
26.900000	95.862	45.4048
27.200001	95.921	44.8937
27.600000	96.000	44.2151
28.000000	96.076	43.5211
28.500000	96.163	42.6297
29.000000	96.235	41.7404
29.500000	96.296	40.8896
30.000000	96.354	40.0907
30.400000	96.402	39.4727
30.700001	96.440	39.0070
31.100000	96.492	38.3672
31.500000	96.543	37.7013
32.000000	96.602	36.8470
32.500000	96.655	35.9988
33.000000	96.705	35.1806
33.500000	96.758	34.3973
34.000000	96.814	33.6450
34.500000	96.869	32.9158
35.000000	96.925	32.1976
35.500000	96.980	31.4788
36.000000	97.029	30.7628
36.500000	97.073	30.0665
37.000000	97.113	29.4001
37.500000	97.152	28.7510
38.200001	97.202	27.8318
38.700001	97.231	27.1656
39.500000	97.269	26.1257
40.000000	97.292	25.4952
40.599998	97.320	24.7410
41.200001	97.348	23.9860
41.799999	97.375	23.2409
42.500000	97.409	22.3910
43.099998	97.439	21.6818
43.700001	97.470	20.9921
44.400002	97.508	20.1914
45.000000	97.537	19.4903
45.500000	97.554	18.9122
46.200001	97.568	18.1614
46.799999	97.581	17.5796
47.500000	97.603	16.9107
48.200001	97.625	16.2031
48.700001	97.637	15.6863
49.400002	97.650	14.9860
50.000000	97.662	14.4104
50.799999	97.683	13.6309
51.500000	97.699	12.9204
52.200001	97.709	12.2265
53.000000	97.718	11.4861
53.799999	97.730	10.7591
54.500000	97.735	10.1194
55.200001	97.734	9.5072
56.000000	97.732	8.8563
57.000000	97.733	8.0876
58.000000	97.739	7.3101
59.000000	97.740	6.4759
60.000000	97.728	5.6602
60.799999	97.717	5.0482
61.500000	97.709	4.5259
62.200001	97.703	4.0137
63.000000	97.696	3.4306
64.000000	97.686	2.6945
65.000000	97.673	1.9885
66.000000	97.660	1.2925
67.000000	97.642	0.6099
68.000000	97.623	-0.0167
69.000000	97.608	-0.6444
70.000000	97.589	-1.2835
71.000000	97.565	-1.8857
72.000000	97.544	-2.4635
73.000000	97.524	-3.0532
74.000000	97.503	-3.6390
75.000000	97.484	-4.2271
76.199997	97.457	-4.9580
77.500000	97.419	-5.7079
78.800003	97.381	-6.4022
80.000000	97.345	-7.0150
81.199997	97.311	-7.6052
82.500000	97.277	-8.2654
83.800003	97.239	-8.9300
85.000000	97.205	-9.5389
86.199997	97.167	-10.1469
87.500000	97.125	-10.7247
88.500000	97.097	-11.1432
90.000000	97.055	-11.7934
91.199997	97.013	-12.3028
92.500000	96.963	-12.8078
93.800003	96.917	-13.2844
95.000000	96.878	-13.7504
96.199997	96.837	-14.2366
97.500000	96.793	-14.7308
98.800003	96.752	-15.2232
100.000000	96.712	-15.6888
101.500000	96.655	-16.2373
103.000000	96.595	-16.7537
104.400002	96.541	-17.2323
106.000000	96.481	-17.8162
107.500000	96.422	-18.3740
109.000000	96.362	-18.8767
110.599998	96.302	-19.2911
112.000000	96.259	-19.6325
113.800003	96.194	-20.1333
115.000000	96.140	-20.4934
117.199997	96.027	-21.2435
118.000000	95.980	-21.5350
120.599998	95.835	-22.1998
122.000000	95.795	-22.4436
124.099998	95.749	-22.8996
125.000000	95.723	-23.1184
126.500000	95.661	-23.4651
128.000000	95.587	-23.7616
131.500000	95.408	-24.4702
132.000000	95.382	-24.5742
134.000000	95.274	-24.9475
136.000000	95.166	-25.2456
138.000000	95.054	-25.5034
140.000000	94.935	-25.7081
143.000000	94.736	-25.8783
145.000000	94.587	-25.7792
147.500000	94.397	-25.3213
150.000000	94.228	-24.5012
152.500000	94.113	-23.2604
155.000000	94.110	-21.6531
157.500000	94.259	-20.0815
160.000000	94.517	-19.2548
162.500000	94.782	-19.4942
165.000000	94.979	-20.5265
167.500000	95.095	-21.8805
170.000000	95.138	-23.3269
172.500000	95.118	-24.6912
175.000000	95.062	-25.8242
177.500000	94.996	-26.7473
180.000000	94.927	-27.5416
182.500000	94.854	-28.2705
185.000000	94.772	-28.9029
187.500000	94.689	-29.4159
190.000000	94.608	-29.9106
192.500000	94.522	-30.4093
195.000000	94.439	-30.8541
197.500000	94.365	-31.2276
200.000000	94.294	-31.5362
203.000000	94.209	-31.8132
206.000000	94.129	-32.1151
209.000000	94.044	-32.5426
212.000000	93.961	-32.9408
214.000000	93.910	-33.1572
218.000000	93.793	-33.4963
220.000000	93.728	-33.6431
224.000000	93.608	-33.9383
227.000000	93.530	-34.1416
230.000000	93.454	-34.3921
233.000000	93.374	-34.6287
236.000000	93.298	-34.7776
240.000000	93.192	-34.9296
243.000000	93.107	-35.0282
247.000000	92.999	-35.2038
250.000000	92.923	-35.3883
254.000000	92.826	-35.6051
258.000000	92.733	-35.7481
262.000000	92.643	-35.8505
265.000000	92.575	-35.8868
269.000000	92.479	-35.9418
272.000000	92.405	-36.0420
276.000000	92.322	-36.2087
280.000000	92.251	-36.3319
285.000000	92.147	-36.3607
290.000000	92.035	-36.3557
295.000000	91.931	-36.4353
300.000000	91.826	-36.4705
304.000000	91.745	-36.5067
307.000000	91.690	-36.5724
311.000000	91.621	-36.5974
315.000000	91.553	-36.5319
320.000000	91.467	-36.4942
325.000000	91.375	-36.4482
330.000000	91.288	-36.3875
335.000000	91.205	-36.3502
340.000000	91.118	-36.2981
345.000000	91.029	-36.1877
350.000000	90.944	-36.0249
355.000000	90.860	-35.8672
360.000000	90.767	-35.7704
365.000000	90.691	-35.6357
370.000000	90.626	-35.4752
375.000000	90.553	-35.3186
382.000000	90.449	-35.1535
387.000000	90.378	-35.0572
395.000000	90.278	-34.9006
400.000000	90.200	-34.8602
406.000000	90.115	-34.7963
412.000000	90.025	-34.6526
418.000000	89.935	-34.4089
425.000000	89.831	-34.1529
431.000000	89.744	-33.9867
437.000000	89.660	-33.8359
444.000000	89.584	-33.5932
450.000000	89.514	-33.3535
455.000000	89.449	-33.1744
462.000000	89.364	-32.9578
468.000000	89.294	-32.7610
475.000000	89.215	-32.4270
482.000000	89.144	-32.0745
487.000000	89.092	-31.7976
494.000000	89.015	-31.3667
500.000000	88.952	-31.0654
508.000000	88.874	-30.6906
515.000000	88.805	-30.4000
522.000000	88.733	-30.0683
530.000000	88.647	-29.5983
538.000000	88.577	-29.1440
545.000000	88.523	-28.8132
552.000000	88.468	-28.4142
560.000000	88.403	-27.8998
570.000000	88.308	-27.4629
580.000000	88.238	-26.9089
590.000000	88.177	-26.3105
600.000000	88.110	-25.7898
608.000000	88.049	-25.2836
615.000000	87.987	-24.8051
622.000000	87.930	-24.3530
630.000000	87.883	-23.8662
640.000000	87.837	-23.2083
650.000000	87.788	-22.5744
660.000000	87.735	-21.9472
670.000000	87.674	-21.2095
680.000000	87.617	-20.5118
690.000000	87.582	-19.8316
700.000000	87.541	-19.1381
710.000000	87.482	-18.4606
720.000000	87.433	-17.7881
730.000000	87.397	-17.0794
740.000000	87.379	-16.4233
750.000000	87.359	-15.7858
762.000000	87.331	-14.9155
775.000000	87.312	-13.8129
788.000000	87.309	-12.8024
800.000000	87.304	-11.9832
812.000000	87.293	-11.1583
825.000000	87.293	-10.1883
838.000000	87.309	-9.2283
850.000000	87.319	-8.3981
862.000000	87.333	-7.5868
875.000000	87.347	-6.6511
885.000000	87.368	-5.9776
900.000000	87.420	-4.9796
912.000000	87.466	-4.1590
925.000000	87.509	-3.3167
938.000000	87.558	-2.5712
950.000000	87.612	-1.9217
962.000000	87.672	-1.2462
975.000000	87.743	-0.5170
988.000000	87.814	0.1517
1000.000000	87.884	0.7121
1015.000000	87.978	1.3623
1030.000000	88.073	2.0189
1044.000000	88.164	2.5778
1060.000000	88.270	3.1159
1075.000000	88.355	3.6077
1090.000000	88.443	4.0484
1106.000000	88.566	4.4832
1120.000000	88.684	4.7506
1138.000000	88.817	4.9297
1150.000000	88.891	4.9848
1172.000000	88.983	5.0514
1180.000000	89.008	5.1528
1206.000000	89.107	5.9439
1220.000000	89.183	6.3987
1241.000000	89.312	6.8844
1250.000000	89.368	7.0675
1265.000000	89.461	7.3195
1280.000000	89.555	7.5227
1315.000000	89.761	8.1582
1320.000000	89.788	8.2415
1340.000000	89.893	8.5485
1360.000000	89.997	8.8341
1380.000000	90.102	9.0887
1400.000000	90.208	9.3475
1430.000000	90.390	9.7608
1450.000000	90.511	10.0243
1475.000000	90.659	10.3287
1500.000000	90.814	10.6831
1525.000000	90.977	11.0474
1550.000000	91.137	11.3876
1575.000000	91.293	11.6621
1600.000000	91.459	11.9284
1625.000000	91.636	12.2080
1650.000000	91.819	12.4753
1675.000000	92.006	12.7498
1700.000000	92.207	13.0397
1725.000000	92.430	13.3160
1750.000000	92.683	13.5071
1775.000000	92.961	13.4660
1800.000000	93.242	13.0842
1825.000000	93.512	12.4057
1850.000000	93.766	11.5631
1875.000000	94.000	10.6131
1900.000000	94.218	9.5630
1925.000000	94.423	8.3956
1950.000000	94.617	7.1007
1975.000000	94.801	5.6642
2000.000000	94.971	4.0343
2030.000000	95.135	1.6660
2060.000000	95.222	-1.2227
2090.000000	95.179	-4.4144
2120.000000	94.972	-7.4267
2140.000000	94.741	-9.0713
2180.000000	94.099	-10.8456
2200.000000	93.731	-10.7592
2240.000000	93.069	-8.4929
2270.000000	92.761	-5.3410
2300.000000	92.687	-1.6325
2330.000000	92.839	1.9380
2360.000000	93.161	4.9263
2400.000000	93.745	7.7151
2430.000000	94.240	8.9166
2470.000000	94.939	9.4719
2500.000000	95.478	9.0640
2540.000000	96.167	7.3588
2580.000000	96.750	4.4762
2620.000000	97.178	0.8396
2650.000000	97.398	-2.1140
2690.000000	97.575	-6.1173
2720.000000	97.629	-9.0438
2760.000000	97.610	-12.7334
2800.000000	97.505	-16.1084
2850.000000	97.292	-19.7951
2900.000000	97.011	-22.8674
2950.000000	96.684	-25.3473
3000.000000	96.332	-27.2678
3040.000000	96.043	-28.4262
3070.000000	95.829	-29.0905
3110.000000	95.554	-29.7381
3150.000000	95.293	-30.1614
3200.000000	94.985	-30.4479
3250.000000	94.688	-30.5113
3300.000000	94.409	-30.3764
3350.000000	94.151	-30.0703
3400.000000	93.909	-29.5995
3450.000000	93.689	-28.9473
3500.000000	93.491	-28.1248
3550.000000	93.315	-27.1853
3600.000000	93.160	-26.1235
3650.000000	93.028	-24.9569
3700.000000	92.930	-23.7173
3750.000000	92.859	-22.4362
3820.000000	92.794	-20.6462
3870.000000	92.767	-19.3966
3950.000000	92.751	-17.4102
4000.000000	92.753	-16.2129
4060.000000	92.770	-14.8094
4120.000000	92.805	-13.4230
4180.000000	92.857	-12.0644
4250.000000	92.934	-10.5221
4310.000000	93.008	-9.2502
4370.000000	93.085	-8.0028
4440.000000	93.187	-6.5807
4500.000000	93.285	-5.4022
4550.000000	93.371	-4.4588
4620.000000	93.495	-3.1882
4680.000000	93.609	-2.1107
4750.000000	93.755	-0.8613
4820.000000	93.911	0.3850
4870.000000	94.031	1.2910
4940.000000	94.217	2.5626
5000.000000	94.394	3.6222
5080.000000	94.658	4.9673
5150.000000	94.916	6.0836
5220.000000	95.203	7.1318
5300.000000	95.569	8.1906
5380.000000	95.972	9.0301
5450.000000	96.355	9.5507
5520.000000	96.763	9.8211
5600.000000	97.255	9.7657
5700.000000	97.898	9.0643
5800.000000	98.548	7.5655
5900.000000	99.174	5.1874
6000.000000	99.738	1.9086
6080.000000	100.117	-1.3150
6150.000000	100.378	-4.4874
6220.000000	100.562	-7.8762
6300.000000	100.669	-11.8433
6400.000000	100.654	-16.6357
6500.000000	100.499	-20.9241
6600.000000	100.243	-24.4863
6700.000000	99.935	-27.2391
6800.000000	99.624	-29.2108
6900.000000	99.355	-30.5013
7000.000000	99.160	-31.2481
7100.000000	99.047	-31.6095
7200.000000	99.026	-31.7759
7300.000000	99.104	-31.9429
7400.000000	99.287	-32.3097
7500.000000	99.583	-33.1276
7620.000000	100.089	-35.1707
7750.000000	100.748	-39.4675
7880.000000	101.293	-46.7721
8000.000000	101.481	-56.3840
8120.000000	101.169	-67.7082
8250.000000	100.176	-79.4520
8380.000000	98.622	-88.2809
8500.000000	96.919	-93.1163
8620.000000	95.161	-95.1617
8750.000000	93.331	-95.0063
8850.000000	92.019	-93.6879
9000.000000	90.237	-90.3690
9120.000000	88.974	-86.9321
9250.000000	87.756	-82.7442
9380.000000	86.673	-78.2830
9500.000000	85.767	-74.0520
9620.000000	84.929	-69.7432
9750.000000	84.086	-64.9607
9880.000000	83.299	-60.0892
10000.000000	82.617	-55.4850
10150.000000	81.823	-49.5698
10300.000000	81.097	-43.5112
10440.000000	80.466	-37.7248
10600.000000	79.797	-30.8847
10750.000000	79.238	-24.2397
10900.000000	78.749	-17.4946
11060.000000	78.276	-10.2139
11200.000000	77.912	-3.7745
11380.000000	77.526	4.5537
11500.000000	77.312	10.1313
11720.000000	77.011	20.4707
11800.000000	76.937	24.2476
12060.000000	76.816	36.3557
12200.000000	76.806	42.8102
12410.000000	76.848	52.5329
12500.000000	76.890	56.6697
12650.000000	77.010	63.5400
12800.000000	77.203	70.3714
13150.000000	77.951	85.7076
13200.000000	78.094	87.8110
13400.000000	78.766	95.9868
13600.000000	79.628	103.6420
13800.000000	80.708	110.5793
14000.000000	82.035	116.3997
14300.000000	84.517	121.5622
14500.000000	86.373	120.7343
14750.000000	88.349	112.2354
15000.000000	89.160	96.6300
15250.000000	88.524	81.8055
15500.000000	87.036	74.2366
15750.000000	85.551	73.3249
16000.000000	84.517	75.8850
16250.000000	84.023	79.3165
16500.000000	84.016	81.5902
16750.000000	84.306	80.6983
17000.000000	84.496	75.0060
17250.000000	84.077	65.2721
17500.000000	82.757	55.5885
17750.000000	80.644	50.2404
18000.000000	78.121	50.3848
18250.000000	75.568	54.9147
18500.000000	73.182	62.4125
18750.000000	71.003	72.0201
19000.000000	69.044	83.2991
19250.000000	67.317	95.8240
19500.000000	65.789	109.1801
19750.000000	64.520	121.8536
20000.000000	63.829	129.3645
