* Measurement data measured by REW V5.20.13
* Source: EXCL: Mic in at rear panel (Pink)(Realtek(R) Audio), MICROPHONE (마스), L, volume: 0.500
* Format: 256k Log Swept Sine, 1 sweep at -12.0 dBFS with no timing reference
* Dated: 2022. 11. 13 오후 4:45:58
* REW Settings:
*  C-weighting compensation: Off
*  Target level: 75.0 dB
* Note: 
* Measurement: R
* Smoothing: 1/24 octave
* Frequency Step: 1/48 octave
* Start Frequency: 20.300 Hz
*
* Freq(Hz)	SPL(dB)	Phase(degrees)
20.299999	84.080	-169.2312
20.600000	84.088	-169.3408
20.900000	84.104	-169.5252
21.200001	84.116	-169.6749
21.400000	84.123	-169.7694
21.799999	84.136	-169.9880
22.000000	84.142	-170.1263
22.400000	84.149	-170.4612
22.700001	84.148	-170.7446
23.000000	84.142	-171.0328
23.299999	84.135	-171.3093
23.600000	84.129	-171.5693
24.000000	84.128	-171.8960
24.299999	84.133	-172.1381
24.700001	84.146	-172.4706
25.000000	84.159	-172.7287
25.400000	84.176	-173.0750
25.799999	84.192	-173.4060
26.200001	84.209	-173.7096
26.500000	84.221	-173.9199
26.900000	84.235	-174.1853
27.200001	84.243	-174.3800
27.600000	84.250	-174.6380
28.000000	84.252	-174.8893
28.500000	84.246	-175.1763
29.000000	84.236	-175.4209
29.500000	84.225	-175.6381
30.000000	84.218	-175.8656
30.400000	84.214	-176.0750
30.700001	84.210	-176.2495
31.100000	84.202	-176.4973
31.500000	84.193	-176.7505
32.000000	84.181	-177.0607
32.500000	84.171	-177.3625
33.000000	84.167	-177.6644
33.500000	84.170	-177.9723
34.000000	84.175	-178.2835
34.500000	84.181	-178.5889
35.000000	84.185	-178.8802
35.500000	84.190	-179.1555
36.000000	84.194	-179.4211
36.500000	84.194	-179.6810
37.000000	84.190	-179.9250
37.500000	84.180	179.8661
38.200001	84.164	179.6370
38.700001	84.154	179.4854
39.500000	84.137	179.2113
40.000000	84.125	179.0435
40.599998	84.113	178.8624
41.200001	84.110	178.6528
41.799999	84.110	178.3700
42.500000	84.102	178.0003
43.099998	84.094	177.7176
43.700001	84.091	177.4387
44.400002	84.086	177.0620
45.000000	84.069	176.7455
45.500000	84.050	176.5484
46.200001	84.030	176.3640
46.799999	84.022	176.2121
47.500000	84.014	176.0029
48.200001	84.006	175.8026
48.700001	84.003	175.6624
49.400002	84.002	175.4240
50.000000	83.996	175.1832
50.799999	83.979	174.8864
51.500000	83.966	174.6636
52.200001	83.955	174.4290
53.000000	83.939	174.1476
53.799999	83.920	173.8946
54.500000	83.903	173.6895
55.200001	83.889	173.4832
56.000000	83.873	173.2463
57.000000	83.855	172.9429
58.000000	83.834	172.6356
59.000000	83.809	172.3413
60.000000	83.777	172.0784
60.799999	83.751	171.9004
61.500000	83.730	171.7538
62.200001	83.710	171.6046
63.000000	83.686	171.4411
64.000000	83.658	171.2565
65.000000	83.639	171.0243
66.000000	83.612	170.7155
67.000000	83.573	170.4387
68.000000	83.536	170.2256
69.000000	83.503	170.0226
70.000000	83.472	169.8182
71.000000	83.441	169.6099
72.000000	83.408	169.4132
73.000000	83.374	169.2433
74.000000	83.340	169.1036
75.000000	83.308	168.9706
76.199997	83.262	168.7969
77.500000	83.202	168.7160
78.800003	83.156	168.6593
80.000000	83.115	168.5461
81.199997	83.078	168.4287
82.500000	83.037	168.2757
83.800003	82.987	168.1688
85.000000	82.937	168.1938
86.199997	82.901	168.2465
87.500000	82.852	168.1217
88.500000	82.786	168.0791
90.000000	82.711	168.3574
91.199997	82.711	168.6357
92.500000	82.770	168.7702
93.800003	82.839	168.5276
95.000000	82.851	168.1147
96.199997	82.790	167.9480
97.500000	82.717	168.2709
98.800003	82.678	168.6372
100.000000	82.655	168.9214
101.500000	82.664	169.1226
103.000000	82.691	169.0384
104.400002	82.706	168.8962
106.000000	82.734	168.8376
107.500000	82.780	168.6309
109.000000	82.805	168.2529
110.599998	82.838	167.9664
112.000000	82.891	167.6570
113.800003	82.934	167.2038
115.000000	82.931	167.0082
117.199997	82.856	166.9070
118.000000	82.813	166.9479
120.599998	82.754	166.8706
122.000000	82.744	166.2245
124.099998	82.705	165.2362
125.000000	82.690	164.9082
126.500000	82.665	164.5239
128.000000	82.635	164.3096
131.500000	82.541	163.9471
132.000000	82.525	163.8899
134.000000	82.467	163.6767
136.000000	82.419	163.5078
138.000000	82.374	163.3683
140.000000	82.325	163.2298
143.000000	82.243	163.0090
145.000000	82.190	162.8940
147.500000	82.129	162.7684
150.000000	82.073	162.6411
152.500000	82.022	162.5115
155.000000	81.968	162.4266
157.500000	81.913	162.3864
160.000000	81.859	162.3220
162.500000	81.805	162.2502
165.000000	81.754	162.2136
167.500000	81.703	162.2233
170.000000	81.651	162.2459
172.500000	81.598	162.2614
175.000000	81.546	162.2557
177.500000	81.496	162.2438
180.000000	81.446	162.2444
182.500000	81.396	162.2580
185.000000	81.345	162.2901
187.500000	81.297	162.3356
190.000000	81.254	162.3840
192.500000	81.216	162.4383
195.000000	81.179	162.4941
197.500000	81.141	162.5477
200.000000	81.104	162.6077
203.000000	81.062	162.7059
206.000000	81.023	162.8134
209.000000	80.988	162.8932
212.000000	80.957	162.9580
214.000000	80.938	163.0127
218.000000	80.903	163.1140
220.000000	80.885	163.1293
224.000000	80.847	163.1025
227.000000	80.813	163.0949
230.000000	80.778	163.1120
233.000000	80.741	163.1312
236.000000	80.702	163.1527
240.000000	80.650	163.1840
243.000000	80.611	163.2279
247.000000	80.559	163.3353
250.000000	80.516	163.4156
254.000000	80.458	163.4926
258.000000	80.409	163.5670
262.000000	80.367	163.6834
265.000000	80.333	163.7811
269.000000	80.286	163.9014
272.000000	80.252	163.9800
276.000000	80.210	164.0794
280.000000	80.170	164.2124
285.000000	80.121	164.4002
290.000000	80.074	164.5453
295.000000	80.034	164.6971
300.000000	79.993	164.8501
304.000000	79.961	164.9669
307.000000	79.938	165.0640
311.000000	79.908	165.2175
315.000000	79.878	165.3662
320.000000	79.840	165.5385
325.000000	79.804	165.7120
330.000000	79.770	165.8846
335.000000	79.733	166.0784
340.000000	79.697	166.2769
345.000000	79.661	166.4637
350.000000	79.626	166.6479
355.000000	79.589	166.8374
360.000000	79.548	167.0194
365.000000	79.513	167.2067
370.000000	79.481	167.3994
375.000000	79.446	167.5747
382.000000	79.398	167.8067
387.000000	79.364	167.9765
395.000000	79.307	168.2467
400.000000	79.272	168.4437
406.000000	79.231	168.6998
412.000000	79.191	168.9416
418.000000	79.148	169.1649
425.000000	79.101	169.4216
431.000000	79.066	169.6407
437.000000	79.036	169.8751
444.000000	79.004	170.1516
450.000000	78.973	170.3838
455.000000	78.943	170.5878
462.000000	78.900	170.8822
468.000000	78.869	171.1335
475.000000	78.839	171.3974
482.000000	78.809	171.6597
487.000000	78.785	171.8589
494.000000	78.751	172.1553
500.000000	78.719	172.4080
508.000000	78.679	172.7371
515.000000	78.646	173.0246
522.000000	78.616	173.3118
530.000000	78.585	173.6542
538.000000	78.554	174.0314
545.000000	78.527	174.3531
552.000000	78.500	174.6549
560.000000	78.466	175.0199
570.000000	78.424	175.4754
580.000000	78.386	175.9289
590.000000	78.347	176.4024
600.000000	78.309	176.8835
608.000000	78.280	177.2833
615.000000	78.257	177.6426
622.000000	78.235	178.0025
630.000000	78.210	178.4136
640.000000	78.178	178.9125
650.000000	78.150	179.4080
660.000000	78.125	179.9543
670.000000	78.099	-179.4857
680.000000	78.073	-178.9396
690.000000	78.050	-178.4028
700.000000	78.031	-177.8669
710.000000	78.013	-177.3011
720.000000	77.999	-176.7178
730.000000	77.987	-176.1361
740.000000	77.970	-175.5618
750.000000	77.959	-174.9821
762.000000	77.958	-174.2914
775.000000	77.956	-173.5267
788.000000	77.956	-172.7304
800.000000	77.962	-172.0363
812.000000	77.974	-171.3614
825.000000	77.990	-170.6152
838.000000	78.011	-169.8795
850.000000	78.037	-169.2154
862.000000	78.065	-168.5623
875.000000	78.101	-167.8641
885.000000	78.134	-167.3306
900.000000	78.182	-166.5557
912.000000	78.223	-165.9779
925.000000	78.273	-165.3814
938.000000	78.332	-164.7877
950.000000	78.392	-164.2612
962.000000	78.452	-163.7706
975.000000	78.517	-163.2670
988.000000	78.582	-162.7748
1000.000000	78.647	-162.3705
1015.000000	78.731	-161.9816
1030.000000	78.812	-161.6337
1044.000000	78.887	-161.3155
1060.000000	78.974	-160.9786
1075.000000	79.051	-160.7073
1090.000000	79.130	-160.4688
1106.000000	79.221	-160.2548
1120.000000	79.301	-160.1015
1138.000000	79.402	-159.9350
1150.000000	79.465	-159.8502
1172.000000	79.573	-159.7281
1180.000000	79.610	-159.6848
1206.000000	79.730	-159.5639
1220.000000	79.793	-159.5258
1241.000000	79.879	-159.4592
1250.000000	79.915	-159.4357
1265.000000	79.972	-159.4084
1280.000000	80.028	-159.3775
1315.000000	80.152	-159.2938
1320.000000	80.169	-159.2839
1340.000000	80.234	-159.2473
1360.000000	80.291	-159.2057
1380.000000	80.349	-159.1615
1400.000000	80.410	-159.1075
1430.000000	80.502	-159.0115
1450.000000	80.564	-158.9435
1475.000000	80.638	-158.8395
1500.000000	80.712	-158.7488
1525.000000	80.787	-158.6663
1550.000000	80.862	-158.5797
1575.000000	80.936	-158.4777
1600.000000	81.013	-158.3661
1625.000000	81.094	-158.2588
1650.000000	81.178	-158.1684
1675.000000	81.266	-158.0743
1700.000000	81.357	-158.0073
1725.000000	81.450	-157.9600
1750.000000	81.545	-157.9513
1775.000000	81.640	-157.9949
1800.000000	81.735	-158.0849
1825.000000	81.826	-158.2238
1850.000000	81.914	-158.3988
1875.000000	81.999	-158.5732
1900.000000	82.081	-158.7596
1925.000000	82.161	-158.9711
1950.000000	82.239	-159.1982
1975.000000	82.315	-159.4405
2000.000000	82.392	-159.7061
2030.000000	82.482	-160.0498
2060.000000	82.571	-160.4288
2090.000000	82.659	-160.8545
2120.000000	82.744	-161.3388
2140.000000	82.798	-161.7008
2180.000000	82.894	-162.5019
2200.000000	82.934	-162.9310
2240.000000	82.993	-163.8228
2270.000000	83.021	-164.5019
2300.000000	83.034	-165.1649
2330.000000	83.032	-165.7940
2360.000000	83.015	-166.3618
2400.000000	82.975	-166.9733
2430.000000	82.935	-167.2725
2470.000000	82.885	-167.3974
2500.000000	82.866	-167.2767
2540.000000	82.899	-166.9498
2580.000000	83.008	-166.7585
2620.000000	83.158	-167.0630
2650.000000	83.261	-167.6715
2690.000000	83.345	-168.8081
2720.000000	83.358	-169.7261
2760.000000	83.319	-170.8319
2800.000000	83.236	-171.6553
2850.000000	83.108	-172.2149
2900.000000	82.987	-172.2757
2950.000000	82.900	-171.9295
3000.000000	82.871	-171.3052
3040.000000	82.899	-170.7087
3070.000000	82.952	-170.2719
3110.000000	83.064	-169.7797
3150.000000	83.220	-169.4734
3200.000000	83.461	-169.4702
3250.000000	83.730	-170.0102
3300.000000	83.999	-171.1566
3350.000000	84.238	-172.8941
3400.000000	84.420	-175.1759
3450.000000	84.524	-177.9014
3500.000000	84.530	179.0947
3550.000000	84.425	176.0317
3600.000000	84.208	173.1362
3650.000000	83.895	170.6263
3700.000000	83.513	168.6550
3750.000000	83.088	167.3015
3820.000000	82.472	166.4661
3870.000000	82.046	166.5582
3950.000000	81.428	167.7008
4000.000000	81.107	168.9158
4060.000000	80.805	170.7126
4120.000000	80.598	172.7103
4180.000000	80.482	174.7312
4250.000000	80.455	176.9100
4310.000000	80.501	178.5032
4370.000000	80.587	179.7646
4440.000000	80.723	-179.2373
4500.000000	80.855	-178.8083
4550.000000	80.966	-178.7578
4620.000000	81.107	-179.1223
4680.000000	81.202	-179.7680
4750.000000	81.263	179.1732
4820.000000	81.266	177.8880
4870.000000	81.227	176.8982
4940.000000	81.116	175.5034
5000.000000	80.971	174.3853
5080.000000	80.718	173.1203
5150.000000	80.453	172.2870
5220.000000	80.163	171.7391
5300.000000	79.814	171.4663
5380.000000	79.459	171.5220
5450.000000	79.151	171.7873
5520.000000	78.847	172.2297
5600.000000	78.503	172.9471
5700.000000	78.081	174.1718
5800.000000	77.679	175.7554
5900.000000	77.302	177.7029
6000.000000	76.963	179.9641
6080.000000	76.726	-178.0160
6150.000000	76.549	-176.1322
6220.000000	76.402	-174.1818
6300.000000	76.266	-171.8932
6400.000000	76.142	-168.9647
6500.000000	76.070	-165.9797
6600.000000	76.051	-162.9500
6700.000000	76.088	-159.8638
6800.000000	76.192	-156.7822
6900.000000	76.384	-153.7477
7000.000000	76.674	-150.7921
7100.000000	77.062	-148.0161
7200.000000	77.549	-145.5634
7300.000000	78.132	-143.6059
7400.000000	78.806	-142.3728
7500.000000	79.556	-142.1050
7620.000000	80.520	-143.3849
7750.000000	81.530	-147.1765
7880.000000	82.271	-153.7360
8000.000000	82.560	-161.7836
8120.000000	82.381	-170.4374
8250.000000	81.675	-178.6144
8380.000000	80.591	175.8200
8500.000000	79.437	173.2918
8620.000000	78.273	172.9383
8750.000000	77.091	174.4459
8850.000000	76.273	176.6138
9000.000000	75.225	-178.9418
9120.000000	74.551	-174.6738
9250.000000	73.984	-169.6074
9380.000000	73.577	-164.3005
9500.000000	73.337	-159.3281
9620.000000	73.220	-154.3639
9750.000000	73.226	-149.1151
9880.000000	73.363	-144.0804
10000.000000	73.603	-139.6958
10150.000000	74.043	-134.7105
10300.000000	74.621	-130.4500
10440.000000	75.271	-127.2358
10600.000000	76.130	-124.5863
10750.000000	77.032	-123.2836
10900.000000	78.001	-123.3577
11060.000000	79.050	-125.2934
11200.000000	79.899	-128.7781
11380.000000	80.758	-135.5726
11500.000000	81.119	-141.1449
11720.000000	81.289	-151.9028
11800.000000	81.216	-155.5761
12060.000000	80.687	-165.7842
12200.000000	80.303	-170.3678
12410.000000	79.635	-176.5891
12500.000000	79.314	-179.0864
12650.000000	78.734	176.9871
12800.000000	78.102	173.3952
13150.000000	76.446	166.4279
13200.000000	76.187	165.6176
13400.000000	75.090	163.0625
13600.000000	73.935	161.9025
13800.000000	72.811	162.2570
14000.000000	71.799	164.0196
14300.000000	70.627	168.7224
14500.000000	70.151	172.6147
14750.000000	69.934	177.5244
15000.000000	70.153	-178.1746
15250.000000	70.835	-175.2740
15500.000000	72.002	-174.8666
15750.000000	73.524	-178.5884
16000.000000	74.996	171.6784
16250.000000	75.849	155.5607
16500.000000	75.657	136.5611
16750.000000	74.471	120.3557
17000.000000	72.774	109.3952
17250.000000	71.066	102.3044
17500.000000	69.582	96.8240
17750.000000	68.275	91.4040
18000.000000	66.954	85.5743
18250.000000	65.447	79.8316
18500.000000	63.676	75.1630
18750.000000	61.666	72.4301
19000.000000	59.518	72.0709
19250.000000	57.321	74.0361
19500.000000	55.130	78.2345
19750.000000	53.056	83.9444
20000.000000	51.548	88.6357
