* Measurement data measured by REW V5.20.13
* Source: EXCL: Mic in at rear panel (Pink)(Realtek(R) Audio), MICROPHONE (마스), L, volume: 1.000
* Format: 256k Log Swept Sine, 1 sweep at -12.0 dBFS with no timing reference
* Dated: 2023. 1. 1 오후 1:48:18
* REW Settings:
*  C-weighting compensation: Off
*  Target level: 75.0 dB
* Note: 
* Measurement: L
* Smoothing: 1/24 octave
* Frequency Step: 1/48 octave
* Start Frequency: 20.300 Hz
*
* Freq(Hz)	SPL(dB)	Phase(degrees)
20.299999	83.837	-179.4163
20.600000	83.875	-179.5738
20.900000	83.938	-179.9084
21.200001	83.966	179.6453
21.400000	83.960	179.3301
21.799999	83.899	178.7813
22.000000	83.853	178.6057
22.400000	83.751	178.5233
22.700001	83.687	178.6641
23.000000	83.649	178.8866
23.299999	83.639	179.0829
23.600000	83.651	179.1802
24.000000	83.683	179.1009
24.299999	83.707	178.9053
24.700001	83.727	178.5457
25.000000	83.731	178.2685
25.400000	83.732	177.9522
25.799999	83.733	177.7173
26.200001	83.742	177.5356
26.500000	83.755	177.4058
26.900000	83.774	177.2188
27.200001	83.786	177.0705
27.600000	83.795	176.8838
28.000000	83.801	176.7344
28.500000	83.811	176.5911
29.000000	83.824	176.4338
29.500000	83.829	176.2487
30.000000	83.823	176.1301
30.400000	83.825	176.1275
30.700001	83.841	176.1436
31.100000	83.883	176.0637
31.500000	83.932	175.7523
32.000000	83.958	175.0418
32.500000	83.913	174.2991
33.000000	83.825	173.9540
33.500000	83.759	174.0803
34.000000	83.759	174.3388
34.500000	83.797	174.3675
35.000000	83.826	174.1461
35.500000	83.826	173.9080
36.000000	83.816	173.8018
36.500000	83.819	173.7496
37.000000	83.828	173.6106
37.500000	83.823	173.3915
38.200001	83.786	173.1992
38.700001	83.769	173.1996
39.500000	83.785	173.0644
40.000000	83.796	172.7489
40.599998	83.778	172.2727
41.200001	83.737	171.9297
41.799999	83.706	171.7533
42.500000	83.698	171.5725
43.099998	83.702	171.3469
43.700001	83.705	171.1078
44.400002	83.707	170.8635
45.000000	83.711	170.6639
45.500000	83.710	170.4999
46.200001	83.703	170.3112
46.799999	83.698	170.1935
47.500000	83.697	170.0370
48.200001	83.693	169.8165
48.700001	83.682	169.6517
49.400002	83.663	169.4668
50.000000	83.652	169.3308
50.799999	83.644	169.0993
51.500000	83.636	168.8529
52.200001	83.628	168.6047
53.000000	83.620	168.3123
53.799999	83.607	168.0311
54.500000	83.593	167.8451
55.200001	83.585	167.7037
56.000000	83.586	167.5303
57.000000	83.586	167.2294
58.000000	83.561	166.9198
59.000000	83.524	166.7611
60.000000	83.498	166.6390
60.799999	83.479	166.4979
61.500000	83.465	166.3591
62.200001	83.455	166.1727
63.000000	83.437	165.8851
64.000000	83.403	165.5106
65.000000	83.369	165.1835
66.000000	83.338	164.9220
67.000000	83.318	164.7319
68.000000	83.311	164.5498
69.000000	83.306	164.3145
70.000000	83.287	164.0822
71.000000	83.263	163.9264
72.000000	83.241	163.7702
73.000000	83.213	163.6006
74.000000	83.186	163.4071
75.000000	83.153	163.1738
76.199997	83.115	162.9385
77.500000	83.089	162.6809
78.800003	83.072	162.3802
80.000000	83.043	162.0795
81.199997	82.996	161.9493
82.500000	82.960	161.9827
83.800003	82.943	161.9510
85.000000	82.922	161.7733
86.199997	82.892	161.5311
87.500000	82.849	161.1771
88.500000	82.789	160.9875
90.000000	82.729	161.1010
91.199997	82.721	161.0610
92.500000	82.704	160.9459
93.800003	82.699	160.7620
95.000000	82.686	160.5195
96.199997	82.673	160.3214
97.500000	82.661	160.0854
98.800003	82.642	159.8005
100.000000	82.606	159.4683
101.500000	82.530	159.1110
103.000000	82.462	158.9012
104.400002	82.427	158.7770
106.000000	82.428	158.6204
107.500000	82.412	158.2884
109.000000	82.335	158.0723
110.599998	82.237	157.9389
112.000000	82.167	157.7059
113.800003	82.117	157.3434
115.000000	82.115	157.2900
117.199997	82.169	158.1205
118.000000	82.221	158.6699
120.599998	82.334	158.6147
122.000000	82.117	157.9119
124.099998	81.765	157.5799
125.000000	81.668	157.4505
126.500000	81.568	157.3180
128.000000	81.511	157.4355
131.500000	81.340	158.6753
132.000000	81.312	158.8912
134.000000	81.227	159.6543
136.000000	81.207	160.2129
138.000000	81.208	160.9892
140.000000	81.258	162.4054
143.000000	81.544	164.3612
145.000000	81.874	164.6177
147.500000	82.249	163.5069
150.000000	82.439	161.8605
152.500000	82.469	160.2321
155.000000	82.446	158.8374
157.500000	82.426	157.7401
160.000000	82.366	156.7964
162.500000	82.223	156.1089
165.000000	82.106	155.5584
167.500000	82.039	154.9153
170.000000	81.980	154.4371
172.500000	81.903	154.0894
175.000000	81.802	153.8037
177.500000	81.723	153.5667
180.000000	81.668	153.3318
182.500000	81.606	153.1609
185.000000	81.538	153.0786
187.500000	81.481	152.9860
190.000000	81.433	152.9344
192.500000	81.399	152.9881
195.000000	81.363	152.9019
197.500000	81.299	152.7240
200.000000	81.234	152.5983
203.000000	81.165	152.4743
206.000000	81.100	152.3550
209.000000	81.045	152.2231
212.000000	81.006	152.1491
214.000000	80.983	152.1284
218.000000	80.927	152.1030
220.000000	80.897	152.0431
224.000000	80.844	151.7624
227.000000	80.807	151.6464
230.000000	80.776	151.7013
233.000000	80.744	151.7330
236.000000	80.710	151.7410
240.000000	80.652	151.7307
243.000000	80.601	151.6485
247.000000	80.550	151.5540
250.000000	80.514	151.5569
254.000000	80.463	151.5987
258.000000	80.427	151.6445
262.000000	80.387	151.5577
265.000000	80.347	151.4181
269.000000	80.302	151.2764
272.000000	80.276	151.2017
276.000000	80.239	151.1024
280.000000	80.202	151.0262
285.000000	80.151	150.9645
290.000000	80.084	150.9281
295.000000	80.024	150.9115
300.000000	79.977	150.8112
304.000000	79.935	150.7365
307.000000	79.901	150.7363
311.000000	79.854	150.7669
315.000000	79.807	150.7872
320.000000	79.756	150.8217
325.000000	79.715	150.8474
330.000000	79.684	150.8282
335.000000	79.650	150.8214
340.000000	79.604	150.8773
345.000000	79.555	150.9085
350.000000	79.514	150.9312
355.000000	79.473	150.9965
360.000000	79.431	151.0619
365.000000	79.392	151.0970
370.000000	79.344	151.1013
375.000000	79.300	151.1605
382.000000	79.248	151.2836
387.000000	79.201	151.3111
395.000000	79.136	151.4140
400.000000	79.096	151.4908
406.000000	79.050	151.5278
412.000000	79.001	151.5361
418.000000	78.949	151.6345
425.000000	78.894	151.7360
431.000000	78.852	151.7787
437.000000	78.812	151.8617
444.000000	78.757	152.0194
450.000000	78.714	152.1218
455.000000	78.686	152.1928
462.000000	78.646	152.3131
468.000000	78.609	152.4316
475.000000	78.570	152.5887
482.000000	78.534	152.6948
487.000000	78.509	152.7451
494.000000	78.469	152.8458
500.000000	78.430	152.9664
508.000000	78.385	153.1905
515.000000	78.350	153.3907
522.000000	78.311	153.5378
530.000000	78.268	153.7351
538.000000	78.231	153.9464
545.000000	78.204	154.1209
552.000000	78.179	154.2941
560.000000	78.146	154.5131
570.000000	78.094	154.7794
580.000000	78.048	155.1036
590.000000	78.015	155.4269
600.000000	77.981	155.6981
608.000000	77.955	155.9539
615.000000	77.930	156.1620
622.000000	77.904	156.3368
630.000000	77.870	156.5590
640.000000	77.828	156.9167
650.000000	77.799	157.2551
660.000000	77.776	157.5898
670.000000	77.758	157.9251
680.000000	77.731	158.2398
690.000000	77.705	158.6021
700.000000	77.689	158.9836
710.000000	77.671	159.4043
720.000000	77.650	159.7878
730.000000	77.627	160.1229
740.000000	77.609	160.4962
750.000000	77.600	160.9160
762.000000	77.594	161.4040
775.000000	77.593	161.8903
788.000000	77.591	162.4356
800.000000	77.600	162.9442
812.000000	77.617	163.3835
825.000000	77.628	163.8602
838.000000	77.633	164.3297
850.000000	77.650	164.8005
862.000000	77.686	165.2662
875.000000	77.724	165.7090
885.000000	77.752	166.0387
900.000000	77.792	166.5251
912.000000	77.822	166.8990
925.000000	77.865	167.3264
938.000000	77.921	167.7180
950.000000	77.970	168.0367
962.000000	78.022	168.3495
975.000000	78.087	168.6597
988.000000	78.162	168.8705
1000.000000	78.236	169.0286
1015.000000	78.307	169.3193
1030.000000	78.372	169.5350
1044.000000	78.444	169.6706
1060.000000	78.520	169.7608
1075.000000	78.586	169.7912
1090.000000	78.662	169.8159
1106.000000	78.751	169.8267
1120.000000	78.827	169.7891
1138.000000	78.923	169.6846
1150.000000	78.985	169.6045
1172.000000	79.090	169.4588
1180.000000	79.126	169.3878
1206.000000	79.234	169.1680
1220.000000	79.281	169.0477
1241.000000	79.350	168.8336
1250.000000	79.381	168.7531
1265.000000	79.434	168.6298
1280.000000	79.487	168.4841
1315.000000	79.601	168.1322
1320.000000	79.615	168.0964
1340.000000	79.671	167.9344
1360.000000	79.717	167.7328
1380.000000	79.757	167.5738
1400.000000	79.808	167.4494
1430.000000	79.892	167.3063
1450.000000	79.941	167.2290
1475.000000	80.005	167.1094
1500.000000	80.073	166.9716
1525.000000	80.137	166.8946
1550.000000	80.207	166.8369
1575.000000	80.276	166.7330
1600.000000	80.346	166.6523
1625.000000	80.419	166.5874
1650.000000	80.490	166.5414
1675.000000	80.561	166.4726
1700.000000	80.636	166.3914
1725.000000	80.711	166.3335
1750.000000	80.789	166.2700
1775.000000	80.868	166.1912
1800.000000	80.950	166.1151
1825.000000	81.032	166.0246
1850.000000	81.116	165.9359
1875.000000	81.201	165.8510
1900.000000	81.286	165.7374
1925.000000	81.377	165.6110
1950.000000	81.474	165.4547
1975.000000	81.575	165.2694
2000.000000	81.676	165.0871
2030.000000	81.795	164.8541
2060.000000	81.919	164.5348
2090.000000	82.051	164.1485
2120.000000	82.181	163.6675
2140.000000	82.264	163.2963
2180.000000	82.422	162.4901
2200.000000	82.493	162.0576
2240.000000	82.626	161.1099
2270.000000	82.716	160.3890
2300.000000	82.797	159.6884
2330.000000	82.868	158.9499
2360.000000	82.931	158.1732
2400.000000	82.997	157.1419
2430.000000	83.039	156.3635
2470.000000	83.086	155.3274
2500.000000	83.107	154.5810
2540.000000	83.114	153.6487
2580.000000	83.107	152.8135
2620.000000	83.087	152.0719
2650.000000	83.065	151.5985
2690.000000	83.030	151.1330
2720.000000	83.000	150.8994
2760.000000	82.964	150.7516
2800.000000	82.939	150.8120
2850.000000	82.941	151.1091
2900.000000	82.993	151.5992
2950.000000	83.106	152.1967
3000.000000	83.285	152.7409
3040.000000	83.473	153.0419
3070.000000	83.638	153.1395
3110.000000	83.881	153.0543
3150.000000	84.149	152.6906
3200.000000	84.501	151.7891
3250.000000	84.846	150.3801
3300.000000	85.165	148.4072
3350.000000	85.437	145.9174
3400.000000	85.642	143.0134
3450.000000	85.769	139.8094
3500.000000	85.808	136.4252
3550.000000	85.751	133.0351
3600.000000	85.595	129.8328
3650.000000	85.350	126.9771
3700.000000	85.033	124.6128
3750.000000	84.670	122.8540
3820.000000	84.132	121.4505
3870.000000	83.757	121.1507
3950.000000	83.228	121.6823
4000.000000	82.969	122.4963
4060.000000	82.742	123.7512
4120.000000	82.612	125.1095
4180.000000	82.574	126.3689
4250.000000	82.616	127.5104
4310.000000	82.697	128.1470
4370.000000	82.798	128.4147
4440.000000	82.924	128.2113
4500.000000	83.019	127.6429
4550.000000	83.080	126.9256
4620.000000	83.127	125.6500
4680.000000	83.125	124.3867
4750.000000	83.067	122.7839
4820.000000	82.945	121.1678
4870.000000	82.819	120.0649
4940.000000	82.595	118.6644
5000.000000	82.369	117.6382
5080.000000	82.028	116.5714
5150.000000	81.705	115.9761
5220.000000	81.376	115.7227
5300.000000	81.002	115.7979
5380.000000	80.632	116.1636
5450.000000	80.325	116.6973
5520.000000	80.036	117.3993
5600.000000	79.720	118.3258
5700.000000	79.338	119.6542
5800.000000	78.979	121.2333
5900.000000	78.631	123.0513
6000.000000	78.308	125.1536
6080.000000	78.072	127.0813
6150.000000	77.887	128.9054
6220.000000	77.727	130.8153
6300.000000	77.573	133.1328
6400.000000	77.419	136.2347
6500.000000	77.315	139.4359
6600.000000	77.266	142.7519
6700.000000	77.286	146.2252
6800.000000	77.393	149.7757
6900.000000	77.612	153.2410
7000.000000	77.938	156.5221
7100.000000	78.356	159.5498
7200.000000	78.873	162.1928
7300.000000	79.492	164.2958
7400.000000	80.201	165.6303
7500.000000	80.984	165.9421
7620.000000	81.986	164.5642
7750.000000	83.001	160.3918
7880.000000	83.679	153.3045
8000.000000	83.860	144.9257
8120.000000	83.541	136.2921
8250.000000	82.677	128.5288
8380.000000	81.444	123.6379
8500.000000	80.161	121.8808
8620.000000	78.875	122.4034
8750.000000	77.570	124.8802
8850.000000	76.662	127.8363
9000.000000	75.473	133.5699
9120.000000	74.677	138.9295
9250.000000	73.977	145.2474
9380.000000	73.432	151.9858
9500.000000	73.070	158.4834
9620.000000	72.841	165.1306
9750.000000	72.744	172.4146
9880.000000	72.805	179.6627
10000.000000	72.996	-173.8123
10150.000000	73.410	-166.0856
10300.000000	74.017	-159.0766
10440.000000	74.733	-153.2902
10600.000000	75.707	-147.7776
10750.000000	76.739	-143.8829
10900.000000	77.847	-141.4297
11060.000000	79.060	-140.6021
11200.000000	80.098	-141.5486
11380.000000	81.300	-145.1439
11500.000000	81.951	-148.9133
11720.000000	82.706	-157.7617
11800.000000	82.827	-161.2350
12060.000000	82.743	-171.8478
12200.000000	82.464	-176.7096
12410.000000	81.826	177.2673
12500.000000	81.495	175.1494
12650.000000	80.900	172.2335
12800.000000	80.286	170.0070
13150.000000	78.888	166.2078
13200.000000	78.685	165.7202
13400.000000	77.821	164.0026
13600.000000	76.872	163.0508
13800.000000	75.883	163.2042
14000.000000	74.921	164.5570
14300.000000	73.631	168.7208
14500.000000	72.962	172.5498
14750.000000	72.423	177.8846
15000.000000	72.247	-176.9417
15250.000000	72.452	-172.8412
15500.000000	73.030	-170.7806
15750.000000	73.824	-172.0324
16000.000000	74.488	-177.3291
16250.000000	74.672	174.1345
16500.000000	74.225	164.8359
16750.000000	73.238	157.2648
17000.000000	71.959	152.5426
17250.000000	70.644	150.1699
17500.000000	69.426	148.9706
17750.000000	68.280	148.0759
18000.000000	67.097	147.2947
18250.000000	65.770	146.9608
18500.000000	64.269	147.8685
18750.000000	62.630	150.6399
19000.000000	60.913	155.5079
19250.000000	59.213	162.1200
19500.000000	57.609	169.9380
19750.000000	56.186	177.9012
20000.000000	55.242	-176.5614
