* Measurement data measured by REW V5.20.13
* Source: EXCL: Mic in at rear panel (Pink)(Realtek(R) Audio), MICROPHONE (마스), L, volume: 1.000
* Format: 256k Log Swept Sine, 1 sweep at -12.0 dBFS with no timing reference
* Dated: 2023. 1. 1 오후 1:51:53
* REW Settings:
*  C-weighting compensation: Off
*  Target level: 75.0 dB
* Note: 
* Measurement: R
* Smoothing: 1/24 octave
* Frequency Step: 1/48 octave
* Start Frequency: 20.300 Hz
*
* Freq(Hz)	SPL(dB)	Phase(degrees)
20.299999	85.281	178.5712
20.600000	85.287	178.7113
20.900000	85.303	178.9501
21.200001	85.326	179.1302
21.400000	85.342	179.1879
21.799999	85.361	179.1693
22.000000	85.361	179.1158
22.400000	85.340	178.9990
22.700001	85.314	178.9488
23.000000	85.290	178.9330
23.299999	85.273	178.9142
23.600000	85.262	178.8607
24.000000	85.251	178.7152
24.299999	85.243	178.5715
24.700001	85.231	178.3851
25.000000	85.225	178.2672
25.400000	85.230	178.1110
25.799999	85.246	177.8789
26.200001	85.260	177.5332
26.500000	85.259	177.2426
26.900000	85.239	176.9195
27.200001	85.220	176.7791
27.600000	85.211	176.6972
28.000000	85.228	176.5616
28.500000	85.259	176.0766
29.000000	85.239	175.4028
29.500000	85.177	175.0522
30.000000	85.176	175.1232
30.400000	85.267	174.9790
30.700001	85.363	174.4246
31.100000	85.444	172.9829
31.500000	85.393	171.1425
32.000000	85.118	169.5378
32.500000	84.764	169.8573
33.000000	84.617	171.7094
33.500000	84.772	173.4156
34.000000	85.036	173.7702
34.500000	85.200	173.1603
35.000000	85.241	172.6080
35.500000	85.250	172.5900
36.000000	85.297	172.7913
36.500000	85.360	172.8121
37.000000	85.394	172.6240
37.500000	85.385	172.4255
38.200001	85.330	172.3209
38.700001	85.281	172.3655
39.500000	85.234	172.5587
40.000000	85.246	172.5207
40.599998	85.275	172.0147
41.200001	85.254	171.1382
41.799999	85.174	170.4131
42.500000	85.088	170.1365
43.099998	85.085	170.1122
43.700001	85.126	169.9307
44.400002	85.166	169.4969
45.000000	85.158	169.1708
45.500000	85.125	169.1351
46.200001	85.080	169.6294
46.799999	85.103	170.4086
47.500000	85.225	171.0450
48.200001	85.356	170.8705
48.700001	85.394	170.3853
49.400002	85.361	169.7081
50.000000	85.296	169.3319
50.799999	85.203	169.0117
51.500000	85.127	168.8862
52.200001	85.094	168.9216
53.000000	85.139	168.7295
53.799999	85.191	167.8997
54.500000	85.173	167.0279
55.200001	85.126	166.4710
56.000000	85.103	166.0868
57.000000	85.083	165.5357
58.000000	85.026	165.2816
59.000000	84.993	165.2903
60.000000	84.946	165.2844
60.799999	84.910	165.5082
61.500000	84.928	165.6653
62.200001	84.963	165.3875
63.000000	84.936	164.6455
64.000000	84.803	164.0805
65.000000	84.721	164.0745
66.000000	84.707	163.9477
67.000000	84.711	163.8014
68.000000	84.757	163.6517
69.000000	84.806	163.2533
70.000000	84.811	162.8094
71.000000	84.784	162.4991
72.000000	84.733	162.2984
73.000000	84.677	162.2400
74.000000	84.644	162.1422
75.000000	84.612	161.8440
76.199997	84.554	161.4541
77.500000	84.502	161.1839
78.800003	84.471	161.0168
80.000000	84.455	160.8134
81.199997	84.418	160.5317
82.500000	84.358	160.3387
83.800003	84.316	160.2191
85.000000	84.295	160.0121
86.199997	84.279	159.7329
87.500000	84.260	159.4223
88.500000	84.239	159.2513
90.000000	84.217	159.0841
91.199997	84.192	158.8344
92.500000	84.130	158.6095
93.800003	84.069	158.5957
95.000000	84.041	158.6135
96.199997	84.031	158.4838
97.500000	84.009	158.1737
98.800003	83.968	157.8958
100.000000	83.934	157.6923
101.500000	83.898	157.4346
103.000000	83.868	157.1801
104.400002	83.840	156.9548
106.000000	83.802	156.7396
107.500000	83.757	156.5910
109.000000	83.709	156.4774
110.599998	83.668	156.3434
112.000000	83.643	156.1278
113.800003	83.609	155.8361
115.000000	83.587	155.7490
117.199997	83.546	155.8980
118.000000	83.537	156.0469
120.599998	83.532	155.9783
122.000000	83.464	155.5664
124.099998	83.341	155.1563
125.000000	83.304	155.0174
126.500000	83.264	154.7893
128.000000	83.233	154.6109
131.500000	83.166	154.4098
132.000000	83.154	154.3795
134.000000	83.099	154.2416
136.000000	83.041	154.1037
138.000000	82.986	154.0119
140.000000	82.937	153.9405
143.000000	82.863	153.7931
145.000000	82.814	153.6590
147.500000	82.748	153.5085
150.000000	82.681	153.4472
152.500000	82.609	153.4638
155.000000	82.542	153.5132
157.500000	82.484	153.4653
160.000000	82.420	153.3313
162.500000	82.341	153.3021
165.000000	82.256	153.4082
167.500000	82.159	153.5422
170.000000	82.048	153.7264
172.500000	81.960	154.0579
175.000000	81.917	154.3723
177.500000	81.870	154.8098
180.000000	81.804	155.5095
182.500000	81.731	156.3609
185.000000	81.709	157.4077
187.500000	81.783	158.6271
190.000000	81.928	159.8288
192.500000	82.121	160.6210
195.000000	82.356	160.4270
197.500000	82.552	159.2986
200.000000	82.667	157.9660
203.000000	82.702	156.5178
206.000000	82.667	155.2780
209.000000	82.599	154.2980
212.000000	82.513	153.6701
214.000000	82.458	153.3815
218.000000	82.355	152.8961
220.000000	82.303	152.6950
224.000000	82.197	152.4743
227.000000	82.129	152.3764
230.000000	82.066	152.1929
233.000000	82.005	152.0131
236.000000	81.950	151.9299
240.000000	81.880	151.8796
243.000000	81.825	151.7812
247.000000	81.746	151.6899
250.000000	81.697	151.6798
254.000000	81.636	151.6201
258.000000	81.551	151.5545
262.000000	81.489	151.5885
265.000000	81.467	151.5812
269.000000	81.428	151.5452
272.000000	81.390	151.5212
276.000000	81.341	151.5192
280.000000	81.304	151.5396
285.000000	81.260	151.5352
290.000000	81.214	151.5681
295.000000	81.165	151.5981
300.000000	81.116	151.6184
304.000000	81.075	151.5978
307.000000	81.048	151.6195
311.000000	81.018	151.6650
315.000000	80.984	151.6889
320.000000	80.945	151.7521
325.000000	80.910	151.8194
330.000000	80.870	151.7971
335.000000	80.832	151.8151
340.000000	80.795	151.8624
345.000000	80.750	151.8866
350.000000	80.712	151.9330
355.000000	80.675	151.9810
360.000000	80.639	152.0369
365.000000	80.604	152.0560
370.000000	80.569	152.1165
375.000000	80.528	152.1920
382.000000	80.471	152.2087
387.000000	80.433	152.2162
395.000000	80.375	152.3080
400.000000	80.343	152.3835
406.000000	80.302	152.4131
412.000000	80.256	152.4796
418.000000	80.216	152.6123
425.000000	80.170	152.7679
431.000000	80.137	152.8734
437.000000	80.101	152.9540
444.000000	80.057	153.0294
450.000000	80.023	153.1156
455.000000	80.003	153.2243
462.000000	79.970	153.3778
468.000000	79.933	153.4750
475.000000	79.898	153.5625
482.000000	79.868	153.6515
487.000000	79.848	153.7243
494.000000	79.822	153.8059
500.000000	79.791	153.8900
508.000000	79.750	154.0643
515.000000	79.714	154.2209
522.000000	79.674	154.3706
530.000000	79.637	154.5097
538.000000	79.610	154.6403
545.000000	79.586	154.7473
552.000000	79.557	154.8725
560.000000	79.521	155.0597
570.000000	79.484	155.3155
580.000000	79.452	155.5953
590.000000	79.413	155.8578
600.000000	79.377	156.1245
608.000000	79.346	156.3474
615.000000	79.318	156.5462
622.000000	79.291	156.7427
630.000000	79.258	156.9574
640.000000	79.226	157.2427
650.000000	79.206	157.5308
660.000000	79.180	157.8688
670.000000	79.149	158.2003
680.000000	79.122	158.5249
690.000000	79.093	158.8916
700.000000	79.070	159.2638
710.000000	79.048	159.6287
720.000000	79.029	160.0070
730.000000	79.014	160.3629
740.000000	79.003	160.7453
750.000000	78.994	161.1451
762.000000	78.989	161.5822
775.000000	78.984	162.1280
788.000000	78.986	162.7002
800.000000	78.992	163.1537
812.000000	78.998	163.6098
825.000000	79.020	164.1517
838.000000	79.052	164.6921
850.000000	79.075	165.1626
862.000000	79.100	165.6118
875.000000	79.138	166.0857
885.000000	79.168	166.4630
900.000000	79.219	166.9356
912.000000	79.265	167.2727
925.000000	79.317	167.6550
938.000000	79.371	168.0105
950.000000	79.429	168.2958
962.000000	79.493	168.5832
975.000000	79.559	168.9170
988.000000	79.625	169.2218
1000.000000	79.696	169.4326
1015.000000	79.790	169.5801
1030.000000	79.874	169.6976
1044.000000	79.954	169.7935
1060.000000	80.044	169.8405
1075.000000	80.124	169.8454
1090.000000	80.203	169.8418
1106.000000	80.296	169.8373
1120.000000	80.379	169.7546
1138.000000	80.476	169.6108
1150.000000	80.540	169.5374
1172.000000	80.655	169.3581
1180.000000	80.696	169.2725
1206.000000	80.822	168.9893
1220.000000	80.884	168.7996
1241.000000	80.976	168.4909
1250.000000	81.013	168.3716
1265.000000	81.074	168.1740
1280.000000	81.130	167.9681
1315.000000	81.264	167.5277
1320.000000	81.281	167.4745
1340.000000	81.342	167.2513
1360.000000	81.394	167.0217
1380.000000	81.451	166.7852
1400.000000	81.517	166.5567
1430.000000	81.619	166.2444
1450.000000	81.682	166.0613
1475.000000	81.760	165.8154
1500.000000	81.836	165.5729
1525.000000	81.910	165.3607
1550.000000	81.986	165.1299
1575.000000	82.067	164.8971
1600.000000	82.149	164.6685
1625.000000	82.232	164.4502
1650.000000	82.316	164.1933
1675.000000	82.399	163.9359
1700.000000	82.485	163.7212
1725.000000	82.570	163.4784
1750.000000	82.654	163.1885
1775.000000	82.740	162.8988
1800.000000	82.831	162.6195
1825.000000	82.921	162.3301
1850.000000	83.010	162.0354
1875.000000	83.097	161.7104
1900.000000	83.183	161.3452
1925.000000	83.274	160.9335
1950.000000	83.367	160.4891
1975.000000	83.459	160.0504
2000.000000	83.545	159.5921
2030.000000	83.647	158.9910
2060.000000	83.750	158.3672
2090.000000	83.850	157.6891
2120.000000	83.946	156.9750
2140.000000	84.009	156.4987
2180.000000	84.127	155.4998
2200.000000	84.184	154.9571
2240.000000	84.295	153.8180
2270.000000	84.373	152.9260
2300.000000	84.445	151.9864
2330.000000	84.511	151.0048
2360.000000	84.566	149.9735
2400.000000	84.618	148.5440
2430.000000	84.644	147.4483
2470.000000	84.658	145.9613
2500.000000	84.652	144.8282
2540.000000	84.619	143.3510
2580.000000	84.557	141.9605
2620.000000	84.466	140.6660
2650.000000	84.379	139.7901
2690.000000	84.241	138.7983
2720.000000	84.124	138.2238
2760.000000	83.954	137.7036
2800.000000	83.780	137.5057
2850.000000	83.574	137.7387
2900.000000	83.410	138.5460
2950.000000	83.327	139.8163
3000.000000	83.350	141.3154
3040.000000	83.458	142.5406
3070.000000	83.593	143.3503
3110.000000	83.835	144.1483
3150.000000	84.129	144.5156
3200.000000	84.536	144.2194
3250.000000	84.945	143.0475
3300.000000	85.313	141.0568
3350.000000	85.606	138.3594
3400.000000	85.801	135.1418
3450.000000	85.888	131.6342
3500.000000	85.863	128.0277
3550.000000	85.726	124.5309
3600.000000	85.486	121.3386
3650.000000	85.161	118.6084
3700.000000	84.774	116.4692
3750.000000	84.345	114.9553
3820.000000	83.718	113.8787
3870.000000	83.280	113.8335
3950.000000	82.641	114.8584
4000.000000	82.304	116.0158
4060.000000	81.984	117.7905
4120.000000	81.761	119.8375
4180.000000	81.640	121.9358
4250.000000	81.612	124.2478
4310.000000	81.665	125.9789
4370.000000	81.764	127.3414
4440.000000	81.920	128.4393
4500.000000	82.078	128.9309
4550.000000	82.207	129.0367
4620.000000	82.374	128.7635
4680.000000	82.494	128.1661
4750.000000	82.590	127.1313
4820.000000	82.626	125.8472
4870.000000	82.612	124.8435
4940.000000	82.537	123.4092
5000.000000	82.426	122.2243
5080.000000	82.218	120.8291
5150.000000	81.995	119.8479
5220.000000	81.744	119.1226
5300.000000	81.434	118.6226
5380.000000	81.112	118.4225
5450.000000	80.827	118.4752
5520.000000	80.544	118.7188
5600.000000	80.221	119.1880
5700.000000	79.814	120.1123
5800.000000	79.412	121.4428
5900.000000	79.032	123.1348
6000.000000	78.686	125.2392
6080.000000	78.438	127.1522
6150.000000	78.250	128.9697
6220.000000	78.090	130.8740
6300.000000	77.937	133.1484
6400.000000	77.795	136.1385
6500.000000	77.713	139.1911
6600.000000	77.675	142.3328
6700.000000	77.691	145.5230
6800.000000	77.776	148.6767
6900.000000	77.954	151.8290
7000.000000	78.230	154.9551
7100.000000	78.598	157.9565
7200.000000	79.060	160.6388
7300.000000	79.618	162.8377
7400.000000	80.264	164.3059
7500.000000	80.988	164.8152
7620.000000	81.922	163.8189
7750.000000	82.884	160.3779
7880.000000	83.556	154.3075
8000.000000	83.778	146.8865
8120.000000	83.541	139.0157
8250.000000	82.797	131.7615
8380.000000	81.695	127.0795
8500.000000	80.531	125.2672
8620.000000	79.358	125.5905
8750.000000	78.163	127.8472
8850.000000	77.327	130.5905
9000.000000	76.239	135.9172
9120.000000	75.521	140.9303
9250.000000	74.902	146.8720
9380.000000	74.442	153.1147
9500.000000	74.151	159.0179
9620.000000	73.980	164.9779
9750.000000	73.920	171.4308
9880.000000	73.995	177.7524
10000.000000	74.188	-176.6674
10150.000000	74.576	-170.1507
10300.000000	75.105	-164.2111
10440.000000	75.710	-159.3030
10600.000000	76.515	-154.5947
10750.000000	77.367	-151.2043
10900.000000	78.306	-148.9568
11060.000000	79.368	-148.0773
11200.000000	80.284	-148.8598
11380.000000	81.330	-152.1547
11500.000000	81.875	-155.6198
11720.000000	82.453	-163.4354
11800.000000	82.528	-166.3794
12060.000000	82.384	-175.0488
12200.000000	82.132	-178.9586
12410.000000	81.594	176.1274
12500.000000	81.317	174.3477
12650.000000	80.815	171.7964
12800.000000	80.288	169.7018
13150.000000	79.018	165.7245
13200.000000	78.823	165.2136
13400.000000	77.972	163.4836
13600.000000	77.013	162.6539
13800.000000	76.000	163.1183
14000.000000	75.015	165.0142
14300.000000	73.751	170.2586
14500.000000	73.151	174.8032
14750.000000	72.726	-179.1462
15000.000000	72.653	-173.3965
15250.000000	72.934	-168.7809
15500.000000	73.573	-166.1164
15750.000000	74.433	-166.3395
16000.000000	75.248	-170.1413
16250.000000	75.739	-177.4574
16500.000000	75.661	173.1246
16750.000000	74.957	164.3329
17000.000000	73.827	158.1256
17250.000000	72.535	154.6105
17500.000000	71.285	152.8175
17750.000000	70.126	151.7490
18000.000000	68.968	150.9416
18250.000000	67.696	150.5326
18500.000000	66.252	151.1785
18750.000000	64.638	153.5412
19000.000000	62.959	157.9653
19250.000000	61.337	164.3613
19500.000000	59.829	172.1100
19750.000000	58.494	-179.9339
20000.000000	57.593	-174.2141
