* Measurement data measured by REW V5.20.13
* Source: EXCL: Mic in at rear panel (Pink)(Realtek(R) Audio), MICROPHONE (마스), L, volume: 1.000
* Format: 256k Log Swept Sine, 1 sweep at -12.0 dBFS with no timing reference
* Dated: 2022. 12. 27 오후 10:13:22
* REW Settings:
*  C-weighting compensation: Off
*  Target level: 75.0 dB
* Note: 
* Measurement: R
* Smoothing: 1/24 octave
* Frequency Step: 1/48 octave
* Start Frequency: 20.300 Hz
*
* Freq(Hz)	SPL(dB)	Phase(degrees)
20.299999	90.901	-163.5060
20.600000	90.912	-163.7172
20.900000	90.935	-164.0899
21.200001	90.952	-164.4361
21.400000	90.962	-164.6613
21.799999	90.979	-165.1327
22.000000	90.987	-165.3885
22.400000	90.997	-165.9345
22.700001	91.001	-166.3648
23.000000	91.003	-166.8062
23.299999	91.005	-167.2532
23.600000	91.008	-167.7032
24.000000	91.016	-168.3074
24.299999	91.026	-168.7651
24.700001	91.040	-169.3802
25.000000	91.049	-169.8383
25.400000	91.060	-170.4295
25.799999	91.069	-170.9819
26.200001	91.081	-171.4924
26.500000	91.092	-171.8551
26.900000	91.106	-172.3253
27.200001	91.115	-172.6746
27.600000	91.122	-173.1360
28.000000	91.124	-173.5808
28.500000	91.120	-174.0932
29.000000	91.113	-174.5616
29.500000	91.107	-175.0203
30.000000	91.101	-175.5030
30.400000	91.095	-175.9096
30.700001	91.088	-176.2206
31.100000	91.077	-176.6326
31.500000	91.065	-177.0340
32.000000	91.051	-177.5189
32.500000	91.041	-177.9995
33.000000	91.036	-178.4988
33.500000	91.032	-179.0196
34.000000	91.027	-179.5346
34.500000	91.019	179.9855
35.000000	91.011	179.5439
35.500000	91.005	179.1226
36.000000	91.000	178.7025
36.500000	90.994	178.2799
37.000000	90.984	177.8699
37.500000	90.971	177.4886
38.200001	90.950	176.9844
38.700001	90.936	176.6081
39.500000	90.904	175.9659
40.000000	90.879	175.5799
40.599998	90.850	175.1536
41.200001	90.825	174.7350
41.799999	90.803	174.2994
42.500000	90.778	173.8005
43.099998	90.761	173.4023
43.700001	90.751	172.9926
44.400002	90.736	172.4594
45.000000	90.711	171.9987
45.500000	90.684	171.6645
46.200001	90.646	171.2870
46.799999	90.621	171.0039
47.500000	90.598	170.6600
48.200001	90.576	170.2871
48.700001	90.559	170.0114
49.400002	90.535	169.6219
50.000000	90.511	169.2909
50.799999	90.476	168.8719
51.500000	90.448	168.5303
52.200001	90.422	168.1909
53.000000	90.392	167.7972
53.799999	90.359	167.4210
54.500000	90.330	167.0992
55.200001	90.301	166.7654
56.000000	90.264	166.3788
57.000000	90.212	165.9121
58.000000	90.157	165.4678
59.000000	90.103	165.0685
60.000000	90.057	164.6854
60.799999	90.024	164.3499
61.500000	89.993	164.0484
62.200001	89.961	163.7770
63.000000	89.928	163.5138
64.000000	89.894	163.1754
65.000000	89.856	162.7809
66.000000	89.808	162.4090
67.000000	89.758	162.0804
68.000000	89.704	161.7670
69.000000	89.649	161.4728
70.000000	89.595	161.1786
71.000000	89.542	160.8779
72.000000	89.492	160.5896
73.000000	89.447	160.3019
74.000000	89.405	159.9902
75.000000	89.359	159.6820
76.199997	89.301	159.3680
77.500000	89.239	159.0591
78.800003	89.175	158.7828
80.000000	89.118	158.5273
81.199997	89.057	158.2623
82.500000	88.995	157.9705
83.800003	88.939	157.6747
85.000000	88.894	157.4238
86.199997	88.853	157.1740
87.500000	88.803	156.9508
88.500000	88.762	156.8172
90.000000	88.693	156.5882
91.199997	88.626	156.3861
92.500000	88.554	156.1618
93.800003	88.484	155.9141
95.000000	88.427	155.7136
96.199997	88.384	155.5326
97.500000	88.343	155.3232
98.800003	88.294	155.1633
100.000000	88.245	155.0819
101.500000	88.186	154.9734
103.000000	88.121	154.7403
104.400002	88.052	154.4746
106.000000	87.979	154.2359
107.500000	87.925	154.0505
109.000000	87.868	153.9124
110.599998	87.808	153.8718
112.000000	87.759	153.8126
113.800003	87.695	153.7114
115.000000	87.657	153.6614
117.199997	87.598	153.6755
118.000000	87.583	153.7195
120.599998	87.529	153.5279
122.000000	87.454	153.3237
124.099998	87.343	153.1485
125.000000	87.304	153.0673
126.500000	87.246	152.9344
128.000000	87.192	152.8340
131.500000	87.063	152.7386
132.000000	87.044	152.7247
134.000000	86.971	152.6600
136.000000	86.910	152.5864
138.000000	86.853	152.5290
140.000000	86.794	152.5099
143.000000	86.703	152.4882
145.000000	86.641	152.4501
147.500000	86.562	152.3715
150.000000	86.481	152.3305
152.500000	86.413	152.3105
155.000000	86.350	152.3151
157.500000	86.279	152.3575
160.000000	86.204	152.3840
162.500000	86.127	152.3842
165.000000	86.060	152.4213
167.500000	86.000	152.4790
170.000000	85.934	152.5429
172.500000	85.860	152.6412
175.000000	85.790	152.7457
177.500000	85.724	152.8081
180.000000	85.658	152.8470
182.500000	85.595	152.9104
185.000000	85.531	153.0139
187.500000	85.466	153.1642
190.000000	85.402	153.3337
192.500000	85.343	153.5471
195.000000	85.293	153.8241
197.500000	85.253	154.0850
200.000000	85.213	154.2931
203.000000	85.175	154.5291
206.000000	85.154	154.7502
209.000000	85.130	154.9332
212.000000	85.099	155.0740
214.000000	85.080	155.1507
218.000000	85.044	155.2702
220.000000	85.026	155.3218
224.000000	84.989	155.4541
227.000000	84.966	155.5640
230.000000	84.949	155.6062
233.000000	84.928	155.5779
236.000000	84.897	155.5445
240.000000	84.847	155.5368
243.000000	84.811	155.5168
247.000000	84.753	155.5229
250.000000	84.710	155.5500
254.000000	84.656	155.5936
258.000000	84.591	155.6598
262.000000	84.518	155.7689
265.000000	84.473	155.8754
269.000000	84.425	155.9910
272.000000	84.389	156.0880
276.000000	84.337	156.2500
280.000000	84.284	156.4027
285.000000	84.227	156.6105
290.000000	84.179	156.8135
295.000000	84.127	156.9868
300.000000	84.074	157.1760
304.000000	84.041	157.3368
307.000000	84.019	157.4412
311.000000	83.986	157.5642
315.000000	83.951	157.6881
320.000000	83.908	157.8686
325.000000	83.873	158.1005
330.000000	83.841	158.3272
335.000000	83.805	158.5184
340.000000	83.765	158.7071
345.000000	83.726	158.9129
350.000000	83.684	159.1544
355.000000	83.641	159.3796
360.000000	83.604	159.5768
365.000000	83.575	159.7957
370.000000	83.543	160.0126
375.000000	83.506	160.2324
382.000000	83.458	160.5363
387.000000	83.429	160.7082
395.000000	83.388	161.0452
400.000000	83.361	161.2739
406.000000	83.331	161.5084
412.000000	83.304	161.7307
418.000000	83.276	161.9550
425.000000	83.242	162.2134
431.000000	83.220	162.4201
437.000000	83.202	162.6044
444.000000	83.182	162.8335
450.000000	83.164	163.0275
455.000000	83.150	163.1708
462.000000	83.132	163.3725
468.000000	83.114	163.5460
475.000000	83.094	163.7381
482.000000	83.074	163.8969
487.000000	83.060	164.0195
494.000000	83.042	164.2029
500.000000	83.025	164.3447
508.000000	83.002	164.5867
515.000000	82.979	164.8128
522.000000	82.959	165.0276
530.000000	82.940	165.2522
538.000000	82.920	165.4730
545.000000	82.905	165.6619
552.000000	82.888	165.8229
560.000000	82.871	166.0123
570.000000	82.852	166.2846
580.000000	82.836	166.5453
590.000000	82.815	166.8345
600.000000	82.793	167.1303
608.000000	82.781	167.3205
615.000000	82.769	167.4809
622.000000	82.758	167.6651
630.000000	82.749	167.8752
640.000000	82.739	168.1191
650.000000	82.730	168.3982
660.000000	82.718	168.6864
670.000000	82.704	168.9697
680.000000	82.696	169.2171
690.000000	82.689	169.4159
700.000000	82.683	169.6337
710.000000	82.679	169.8794
720.000000	82.673	170.1497
730.000000	82.669	170.4488
740.000000	82.666	170.7316
750.000000	82.665	170.9947
762.000000	82.671	171.3158
775.000000	82.681	171.6206
788.000000	82.689	171.8867
800.000000	82.697	172.1493
812.000000	82.710	172.4442
825.000000	82.733	172.7698
838.000000	82.757	173.0536
850.000000	82.779	173.2722
862.000000	82.803	173.5002
875.000000	82.836	173.7278
885.000000	82.869	173.8748
900.000000	82.925	174.0962
912.000000	82.967	174.2655
925.000000	83.012	174.3690
938.000000	83.060	174.4099
950.000000	83.111	174.4503
962.000000	83.166	174.4760
975.000000	83.223	174.4625
988.000000	83.283	174.3965
1000.000000	83.339	174.2838
1015.000000	83.403	174.1072
1030.000000	83.470	173.8817
1044.000000	83.534	173.6272
1060.000000	83.610	173.2865
1075.000000	83.673	172.9274
1090.000000	83.729	172.4910
1106.000000	83.791	171.9380
1120.000000	83.847	171.4316
1138.000000	83.913	170.7484
1150.000000	83.953	170.2653
1172.000000	84.017	169.3247
1180.000000	84.037	168.9732
1206.000000	84.090	167.7929
1220.000000	84.111	167.1106
1241.000000	84.138	166.0636
1250.000000	84.147	165.6150
1265.000000	84.158	164.8653
1280.000000	84.162	164.0952
1315.000000	84.141	162.2492
1320.000000	84.137	161.9822
1340.000000	84.116	160.8942
1360.000000	84.083	159.7773
1380.000000	84.040	158.6378
1400.000000	83.993	157.4663
1430.000000	83.906	155.6057
1450.000000	83.836	154.2414
1475.000000	83.706	152.2911
1500.000000	83.452	150.2369
1525.000000	83.049	149.2148
1550.000000	82.760	149.7165
1575.000000	82.693	149.8803
1600.000000	82.646	149.1420
1625.000000	82.542	148.0841
1650.000000	82.394	147.0156
1675.000000	82.208	145.9860
1700.000000	81.992	144.9379
1725.000000	81.748	143.9704
1750.000000	81.476	143.1739
1775.000000	81.177	142.6240
1800.000000	80.872	142.4016
1825.000000	80.588	142.4567
1850.000000	80.349	142.6536
1875.000000	80.148	142.8554
1900.000000	79.961	142.9887
1925.000000	79.775	143.0126
1950.000000	79.585	142.9403
1975.000000	79.384	142.8254
2000.000000	79.165	142.7245
2030.000000	78.889	142.6772
2060.000000	78.606	142.6865
2090.000000	78.318	142.7568
2120.000000	78.029	142.9315
2140.000000	77.833	143.0931
2180.000000	77.425	143.5518
2200.000000	77.218	143.8478
2240.000000	76.804	144.5671
2270.000000	76.493	145.2338
2300.000000	76.181	145.9688
2330.000000	75.877	146.7603
2360.000000	75.578	147.7194
2400.000000	75.177	149.1654
2430.000000	74.881	150.3003
2470.000000	74.487	151.9611
2500.000000	74.208	153.3627
2540.000000	73.857	155.3524
2580.000000	73.513	157.4071
2620.000000	73.181	159.6641
2650.000000	72.942	161.5315
2690.000000	72.653	164.1382
2720.000000	72.447	166.1044
2760.000000	72.188	168.7435
2800.000000	71.960	171.4278
2850.000000	71.697	175.0453
2900.000000	71.470	178.9127
2950.000000	71.284	-177.1768
3000.000000	71.160	-173.2545
3040.000000	71.097	-170.1494
3070.000000	71.062	-167.8742
3110.000000	71.030	-164.7963
3150.000000	71.023	-161.6767
3200.000000	71.061	-157.8312
3250.000000	71.133	-154.0848
3300.000000	71.227	-150.4259
3350.000000	71.342	-146.8977
3400.000000	71.501	-143.5422
3450.000000	71.692	-140.2401
3500.000000	71.906	-136.9803
3550.000000	72.139	-133.8718
3600.000000	72.386	-130.9552
3650.000000	72.655	-128.1992
3700.000000	72.940	-125.5096
3750.000000	73.239	-122.9088
3820.000000	73.680	-119.5209
3870.000000	74.010	-117.2563
3950.000000	74.542	-113.7183
4000.000000	74.887	-111.5972
4060.000000	75.311	-109.2103
4120.000000	75.757	-106.9175
4180.000000	76.220	-104.8026
4250.000000	76.801	-102.5747
4310.000000	77.323	-100.8158
4370.000000	77.866	-99.1710
4440.000000	78.520	-97.5244
4500.000000	79.108	-96.4467
4550.000000	79.621	-95.7951
4620.000000	80.373	-95.3013
4680.000000	81.039	-95.3226
4750.000000	81.834	-95.9851
4820.000000	82.634	-97.4483
4870.000000	83.191	-99.0307
4940.000000	83.926	-102.0187
5000.000000	84.488	-105.3133
5080.000000	85.096	-110.6630
5150.000000	85.459	-115.9944
5220.000000	85.642	-121.5835
5300.000000	85.624	-127.7763
5380.000000	85.393	-133.2400
5450.000000	85.057	-137.1493
5520.000000	84.639	-140.1488
5600.000000	84.115	-142.4912
5700.000000	83.459	-143.9642
5800.000000	82.852	-144.1462
5900.000000	82.327	-143.3763
6000.000000	81.895	-141.9101
6080.000000	81.615	-140.3575
6150.000000	81.422	-138.8009
6220.000000	81.278	-137.1124
6300.000000	81.172	-135.0604
6400.000000	81.123	-132.3892
6500.000000	81.160	-129.6495
6600.000000	81.281	-126.8863
6700.000000	81.491	-124.1936
6800.000000	81.789	-121.6348
6900.000000	82.193	-119.2541
7000.000000	82.708	-117.1273
7100.000000	83.322	-115.3339
7200.000000	84.032	-113.9763
7300.000000	84.839	-113.1932
7400.000000	85.743	-113.1692
7500.000000	86.743	-114.1624
7620.000000	88.048	-117.2427
7750.000000	89.434	-123.7612
7880.000000	90.455	-134.0620
8000.000000	90.839	-146.0525
8120.000000	90.597	-158.1668
8250.000000	89.753	-168.8267
8380.000000	88.591	-175.8462
8500.000000	87.478	-179.4489
8620.000000	86.461	178.9005
8750.000000	85.518	178.4770
8850.000000	84.911	178.7468
9000.000000	84.180	179.7224
9120.000000	83.745	-179.2297
9250.000000	83.428	-178.0626
9380.000000	83.275	-177.2596
9500.000000	83.247	-177.1994
9620.000000	83.283	-177.9648
9750.000000	83.342	-179.9120
9880.000000	83.341	176.8828
10000.000000	83.209	172.9890
10150.000000	82.791	167.5512
10300.000000	82.072	162.4939
10440.000000	81.185	158.8721
10600.000000	80.025	156.4557
10750.000000	78.896	155.8040
10900.000000	77.792	156.3869
11060.000000	76.676	158.0175
11200.000000	75.761	160.2205
11380.000000	74.672	164.0409
11500.000000	74.011	167.1277
11720.000000	72.970	173.8688
11800.000000	72.658	176.6196
12060.000000	71.917	-173.8495
12200.000000	71.680	-168.5500
12410.000000	71.531	-160.5854
12500.000000	71.545	-157.2121
12650.000000	71.680	-151.7194
12800.000000	71.960	-146.4906
13150.000000	73.233	-136.0262
13200.000000	73.487	-134.8233
13400.000000	74.682	-131.0633
13600.000000	76.133	-129.5713
13800.000000	77.728	-131.2585
14000.000000	79.265	-136.7639
14300.000000	80.972	-151.6774
14500.000000	81.519	-164.2014
14750.000000	81.629	-179.9145
15000.000000	81.443	164.9459
15250.000000	81.116	147.9099
15500.000000	80.240	127.1726
15750.000000	78.244	107.2230
16000.000000	75.162	94.8757
16250.000000	71.645	91.1767
16500.000000	68.361	93.2946
16750.000000	65.607	98.6406
17000.000000	63.391	105.5795
17250.000000	61.645	113.4414
17500.000000	60.330	121.8289
17750.000000	59.439	130.2355
18000.000000	58.971	138.2013
18250.000000	58.947	145.3384
18500.000000	59.384	151.0009
18750.000000	60.346	153.8844
19000.000000	61.694	151.2614
19250.000000	62.783	139.8720
19500.000000	62.856	120.6647
19750.000000	61.633	101.5539
20000.000000	59.973	90.8098
