* Measurement data measured by REW V5.20.13
* Source: EXCL: Mic in at rear panel (Pink)(Realtek(R) Audio), MICROPHONE (마스), L, volume: 1.000
* Format: 256k Log Swept Sine, 1 sweep at -12.0 dBFS with no timing reference
* Dated: 2022. 12. 27 오후 10:49:21
* REW Settings:
*  C-weighting compensation: Off
*  Target level: 75.0 dB
* Note: 
* Measurement: L_foam
* Smoothing: 1/24 octave
* Frequency Step: 1/48 octave
* Start Frequency: 20.300 Hz
*
* Freq(Hz)	SPL(dB)	Phase(degrees)
20.299999	88.865	-149.7403
20.600000	88.894	-149.9947
20.900000	88.950	-150.4523
21.200001	88.995	-150.8974
21.400000	89.020	-151.1902
21.799999	89.061	-151.7867
22.000000	89.077	-152.0930
22.400000	89.105	-152.7060
22.700001	89.123	-153.1604
23.000000	89.141	-153.6140
23.299999	89.161	-154.0722
23.600000	89.184	-154.5401
24.000000	89.220	-155.1843
24.299999	89.249	-155.6816
24.700001	89.288	-156.3531
25.000000	89.316	-156.8498
25.400000	89.350	-157.4844
25.799999	89.386	-158.0785
26.200001	89.425	-158.6427
26.500000	89.456	-159.0588
26.900000	89.495	-159.6151
27.200001	89.520	-160.0314
27.600000	89.545	-160.5707
28.000000	89.563	-161.0688
28.500000	89.580	-161.6173
29.000000	89.597	-162.1129
29.500000	89.617	-162.6097
30.000000	89.636	-163.1416
30.400000	89.649	-163.5907
30.700001	89.656	-163.9352
31.100000	89.663	-164.3967
31.500000	89.668	-164.8547
32.000000	89.673	-165.4151
32.500000	89.679	-165.9644
33.000000	89.689	-166.5196
33.500000	89.701	-167.0892
34.000000	89.713	-167.6528
34.500000	89.722	-168.1786
35.000000	89.731	-168.6581
35.500000	89.744	-169.1131
36.000000	89.760	-169.5753
36.500000	89.775	-170.0561
37.000000	89.784	-170.5333
37.500000	89.786	-170.9762
38.200001	89.787	-171.5427
38.700001	89.788	-171.9539
39.500000	89.781	-172.6656
40.000000	89.770	-173.1038
40.599998	89.752	-173.5823
41.200001	89.740	-174.0239
41.799999	89.734	-174.4671
42.500000	89.733	-175.0093
43.099998	89.735	-175.4967
43.700001	89.735	-175.9996
44.400002	89.724	-176.5648
45.000000	89.712	-176.9848
45.500000	89.706	-177.3000
46.200001	89.705	-177.7622
46.799999	89.699	-178.2001
47.500000	89.680	-178.6779
48.200001	89.663	-179.0660
48.700001	89.659	-179.3271
49.400002	89.660	-179.7459
50.000000	89.658	179.8449
50.799999	89.646	179.3010
51.500000	89.634	178.8620
52.200001	89.624	178.4411
53.000000	89.614	177.9596
53.799999	89.598	177.4802
54.500000	89.579	177.0833
55.200001	89.559	176.7252
56.000000	89.538	176.3429
57.000000	89.510	175.8486
58.000000	89.476	175.3658
59.000000	89.445	174.9199
60.000000	89.418	174.4300
60.799999	89.391	174.0134
61.500000	89.363	173.6832
62.200001	89.338	173.3966
63.000000	89.314	173.0901
64.000000	89.287	172.7045
65.000000	89.261	172.3083
66.000000	89.234	171.8965
67.000000	89.206	171.4815
68.000000	89.175	171.0524
69.000000	89.137	170.6354
70.000000	89.099	170.2643
71.000000	89.066	169.9041
72.000000	89.032	169.5301
73.000000	88.996	169.1765
74.000000	88.962	168.8373
75.000000	88.926	168.4907
76.199997	88.878	168.1140
77.500000	88.832	167.7232
78.800003	88.785	167.3069
80.000000	88.739	166.9481
81.199997	88.691	166.6053
82.500000	88.639	166.2598
83.800003	88.595	165.9417
85.000000	88.559	165.6199
86.199997	88.520	165.2906
87.500000	88.478	164.9526
88.500000	88.440	164.7053
90.000000	88.380	164.3860
91.199997	88.335	164.1648
92.500000	88.294	163.9153
93.800003	88.253	163.6146
95.000000	88.210	163.3206
96.199997	88.165	163.0436
97.500000	88.116	162.7946
98.800003	88.075	162.5704
100.000000	88.039	162.3442
101.500000	87.986	162.0731
103.000000	87.928	161.8376
104.400002	87.873	161.6415
106.000000	87.816	161.4223
107.500000	87.766	161.1652
109.000000	87.711	160.9127
110.599998	87.655	160.6862
112.000000	87.606	160.5215
113.800003	87.551	160.3320
115.000000	87.517	160.1890
117.199997	87.453	159.9180
118.000000	87.430	159.8255
120.599998	87.350	159.5121
122.000000	87.299	159.3754
124.099998	87.226	159.2225
125.000000	87.197	159.1444
126.500000	87.148	159.0009
128.000000	87.099	158.8749
131.500000	86.999	158.6384
132.000000	86.985	158.5992
134.000000	86.921	158.4461
136.000000	86.856	158.3113
138.000000	86.797	158.1651
140.000000	86.736	158.0205
143.000000	86.645	157.9099
145.000000	86.591	157.8452
147.500000	86.527	157.7222
150.000000	86.458	157.5956
152.500000	86.386	157.5065
155.000000	86.312	157.4049
157.500000	86.241	157.3044
160.000000	86.175	157.2744
162.500000	86.115	157.2885
165.000000	86.054	157.2748
167.500000	85.994	157.2454
170.000000	85.934	157.2121
172.500000	85.865	157.2094
175.000000	85.793	157.2301
177.500000	85.731	157.2359
180.000000	85.675	157.2386
182.500000	85.618	157.2451
185.000000	85.556	157.2436
187.500000	85.496	157.2446
190.000000	85.441	157.2554
192.500000	85.387	157.2778
195.000000	85.334	157.3332
197.500000	85.285	157.3920
200.000000	85.234	157.4439
203.000000	85.169	157.5087
206.000000	85.109	157.5604
209.000000	85.055	157.6060
212.000000	85.000	157.6855
214.000000	84.959	157.7456
218.000000	84.879	157.8863
220.000000	84.844	157.9565
224.000000	84.774	158.0834
227.000000	84.721	158.1851
230.000000	84.673	158.3123
233.000000	84.624	158.4419
236.000000	84.575	158.5602
240.000000	84.515	158.7030
243.000000	84.468	158.8025
247.000000	84.397	158.9243
250.000000	84.346	159.0180
254.000000	84.287	159.2251
258.000000	84.226	159.4991
262.000000	84.165	159.6998
265.000000	84.120	159.8213
269.000000	84.060	160.0129
272.000000	84.020	160.1526
276.000000	83.973	160.3155
280.000000	83.928	160.5142
285.000000	83.868	160.7995
290.000000	83.810	161.0543
295.000000	83.759	161.3044
300.000000	83.704	161.5486
304.000000	83.661	161.7283
307.000000	83.631	161.8727
311.000000	83.592	162.0834
315.000000	83.551	162.3152
320.000000	83.503	162.6303
325.000000	83.465	162.9389
330.000000	83.422	163.2278
335.000000	83.379	163.4920
340.000000	83.336	163.7520
345.000000	83.292	164.0428
350.000000	83.256	164.3675
355.000000	83.219	164.6749
360.000000	83.178	164.9468
365.000000	83.139	165.2105
370.000000	83.103	165.4989
375.000000	83.067	165.7637
382.000000	83.016	166.1285
387.000000	82.978	166.3994
395.000000	82.923	166.8355
400.000000	82.890	167.1321
406.000000	82.849	167.4704
412.000000	82.815	167.7936
418.000000	82.778	168.1262
425.000000	82.732	168.4990
431.000000	82.697	168.8256
437.000000	82.671	169.1833
444.000000	82.646	169.5798
450.000000	82.624	169.9008
455.000000	82.603	170.1876
462.000000	82.572	170.5980
468.000000	82.548	170.9329
475.000000	82.523	171.3162
482.000000	82.503	171.6903
487.000000	82.491	171.9626
494.000000	82.471	172.3579
500.000000	82.453	172.6798
508.000000	82.436	173.0989
515.000000	82.425	173.4823
522.000000	82.411	173.8897
530.000000	82.393	174.3115
538.000000	82.373	174.7082
545.000000	82.356	175.0829
552.000000	82.344	175.4605
560.000000	82.332	175.8912
570.000000	82.317	176.3956
580.000000	82.304	176.9118
590.000000	82.291	177.4566
600.000000	82.281	177.9354
608.000000	82.272	178.3159
615.000000	82.269	178.6558
622.000000	82.267	179.0144
630.000000	82.263	179.4315
640.000000	82.260	179.9163
650.000000	82.257	-179.6002
660.000000	82.255	-179.0975
670.000000	82.258	-178.5780
680.000000	82.264	-178.0764
690.000000	82.268	-177.5974
700.000000	82.274	-177.1077
710.000000	82.279	-176.6326
720.000000	82.287	-176.1533
730.000000	82.300	-175.6702
740.000000	82.316	-175.2046
750.000000	82.332	-174.7537
762.000000	82.356	-174.2122
775.000000	82.382	-173.6001
788.000000	82.413	-172.9770
800.000000	82.447	-172.3908
812.000000	82.484	-171.8185
825.000000	82.526	-171.2398
838.000000	82.573	-170.6898
850.000000	82.624	-170.2295
862.000000	82.674	-169.7861
875.000000	82.730	-169.2952
885.000000	82.779	-168.9332
900.000000	82.855	-168.4208
912.000000	82.917	-168.0415
925.000000	82.989	-167.6892
938.000000	83.067	-167.3625
950.000000	83.138	-167.0680
962.000000	83.212	-166.8047
975.000000	83.295	-166.5858
988.000000	83.381	-166.4097
1000.000000	83.463	-166.2599
1015.000000	83.558	-166.1287
1030.000000	83.654	-166.0839
1044.000000	83.747	-166.0901
1060.000000	83.850	-166.1430
1075.000000	83.942	-166.2362
1090.000000	84.034	-166.3806
1106.000000	84.136	-166.5857
1120.000000	84.224	-166.7983
1138.000000	84.333	-167.1189
1150.000000	84.402	-167.3601
1172.000000	84.519	-167.8610
1180.000000	84.560	-168.0588
1206.000000	84.685	-168.7381
1220.000000	84.748	-169.1407
1241.000000	84.833	-169.8083
1250.000000	84.867	-170.1053
1265.000000	84.919	-170.6118
1280.000000	84.966	-171.1461
1315.000000	85.060	-172.4850
1320.000000	85.070	-172.6812
1340.000000	85.101	-173.4848
1360.000000	85.113	-174.3279
1380.000000	85.109	-175.2020
1400.000000	85.093	-176.0775
1430.000000	85.041	-177.3575
1450.000000	84.982	-178.1659
1475.000000	84.873	-179.0450
1500.000000	84.731	-179.6369
1525.000000	84.564	-179.6665
1550.000000	84.462	-178.7473
1575.000000	84.608	-177.5947
1600.000000	84.904	-178.1471
1625.000000	85.021	179.8286
1650.000000	84.944	177.9465
1675.000000	84.792	176.6200
1700.000000	84.624	175.6268
1725.000000	84.459	174.8374
1750.000000	84.301	174.2741
1775.000000	84.149	173.9035
1800.000000	84.008	173.6165
1825.000000	83.881	173.3112
1850.000000	83.755	173.0008
1875.000000	83.621	172.7081
1900.000000	83.485	172.4294
1925.000000	83.345	172.1799
1950.000000	83.199	171.9862
1975.000000	83.050	171.8599
2000.000000	82.899	171.7829
2030.000000	82.715	171.7379
2060.000000	82.528	171.7735
2090.000000	82.341	171.8749
2120.000000	82.155	172.0147
2140.000000	82.029	172.1223
2180.000000	81.775	172.4277
2200.000000	81.645	172.6479
2240.000000	81.386	173.1592
2270.000000	81.200	173.5995
2300.000000	81.018	174.1247
2330.000000	80.836	174.7277
2360.000000	80.651	175.3700
2400.000000	80.402	176.2900
2430.000000	80.220	177.0413
2470.000000	79.988	178.1121
2500.000000	79.820	178.9838
2540.000000	79.597	-179.7191
2580.000000	79.390	-178.3118
2620.000000	79.189	-176.8426
2650.000000	79.041	-175.6589
2690.000000	78.859	-173.9815
2720.000000	78.726	-172.6846
2760.000000	78.558	-170.9124
2800.000000	78.404	-169.0619
2850.000000	78.233	-166.6093
2900.000000	78.089	-163.9961
2950.000000	77.977	-161.4122
3000.000000	77.896	-158.7562
3040.000000	77.847	-156.5637
3070.000000	77.817	-154.9218
3110.000000	77.792	-152.7262
3150.000000	77.786	-150.4651
3200.000000	77.810	-147.6201
3250.000000	77.864	-144.8327
3300.000000	77.948	-142.1229
3350.000000	78.057	-139.4375
3400.000000	78.178	-136.8054
3450.000000	78.330	-134.2894
3500.000000	78.518	-131.8284
3550.000000	78.723	-129.4533
3600.000000	78.942	-127.1624
3650.000000	79.182	-124.9146
3700.000000	79.438	-122.7442
3750.000000	79.705	-120.6878
3820.000000	80.097	-117.9813
3870.000000	80.391	-116.1830
3950.000000	80.875	-113.4154
4000.000000	81.193	-111.7951
4060.000000	81.588	-109.9871
4120.000000	82.004	-108.3136
4180.000000	82.438	-106.7770
4250.000000	82.959	-105.1544
4310.000000	83.419	-103.9469
4370.000000	83.893	-102.9212
4440.000000	84.463	-101.9483
4500.000000	84.972	-101.3400
4550.000000	85.411	-101.0081
4620.000000	86.046	-100.8585
4680.000000	86.610	-101.0769
4750.000000	87.283	-101.7877
4820.000000	87.964	-103.0599
4870.000000	88.448	-104.3493
4940.000000	89.108	-106.7448
5000.000000	89.642	-109.3866
5080.000000	90.276	-113.7456
5150.000000	90.724	-118.2617
5220.000000	91.046	-123.2827
5300.000000	91.237	-129.3533
5380.000000	91.230	-135.3665
5450.000000	91.072	-140.2516
5520.000000	90.796	-144.5575
5600.000000	90.373	-148.6197
5700.000000	89.753	-152.3249
5800.000000	89.104	-154.6100
5900.000000	88.477	-155.7388
6000.000000	87.906	-155.9414
6080.000000	87.502	-155.5854
6150.000000	87.191	-154.9745
6220.000000	86.922	-154.1379
6300.000000	86.663	-152.9632
6400.000000	86.414	-151.2561
6500.000000	86.248	-149.3647
6600.000000	86.161	-147.3593
6700.000000	86.157	-145.3135
6800.000000	86.241	-143.2952
6900.000000	86.430	-141.3671
7000.000000	86.727	-139.6071
7100.000000	87.121	-138.1208
7200.000000	87.604	-137.0248
7300.000000	88.175	-136.4665
7400.000000	88.826	-136.6308
7500.000000	89.546	-137.7520
7620.000000	90.468	-140.7386
7750.000000	91.410	-146.4640
7880.000000	92.038	-154.9030
8000.000000	92.193	-164.3789
8120.000000	91.885	-174.0202
8250.000000	91.093	177.0682
8380.000000	89.995	170.7335
8500.000000	88.879	167.1869
8620.000000	87.775	165.4471
8750.000000	86.655	165.0590
8850.000000	85.869	165.5196
9000.000000	84.824	167.0226
9120.000000	84.092	168.7330
9250.000000	83.398	170.9699
9380.000000	82.796	173.4813
9500.000000	82.320	175.9663
9620.000000	81.921	178.5804
9750.000000	81.576	-178.4772
9880.000000	81.322	-175.4973
10000.000000	81.174	-172.8029
10150.000000	81.104	-169.6617
10300.000000	81.145	-166.9809
10440.000000	81.267	-165.0613
10600.000000	81.465	-163.7199
10750.000000	81.666	-163.3940
10900.000000	81.839	-163.9650
11060.000000	81.939	-165.4527
11200.000000	81.917	-167.2596
11380.000000	81.714	-169.7753
11500.000000	81.472	-171.2848
11720.000000	80.860	-173.1438
11800.000000	80.604	-173.4271
12060.000000	79.737	-172.8303
12200.000000	79.288	-171.6091
12410.000000	78.683	-168.8137
12500.000000	78.464	-167.3431
12650.000000	78.169	-164.6047
12800.000000	77.978	-161.5765
13150.000000	78.011	-154.2284
13200.000000	78.075	-153.2105
13400.000000	78.503	-149.4203
13600.000000	79.239	-146.4607
13800.000000	80.316	-145.0386
14000.000000	81.700	-146.2599
14300.000000	83.886	-156.4600
14500.000000	84.802	-170.1722
14750.000000	84.697	169.1291
15000.000000	83.345	152.4814
15250.000000	81.541	142.5261
15500.000000	80.001	136.2323
15750.000000	78.890	130.0506
16000.000000	77.907	121.8863
16250.000000	76.637	111.9036
16500.000000	74.816	102.4515
16750.000000	72.471	96.1595
17000.000000	69.847	93.9460
17250.000000	67.236	95.2814
17500.000000	64.840	99.0807
17750.000000	62.699	104.5284
18000.000000	60.790	111.0627
18250.000000	59.132	118.3024
18500.000000	57.747	126.0404
18750.000000	56.574	134.2057
19000.000000	55.561	142.8919
19250.000000	54.778	151.9190
19500.000000	54.221	160.7260
19750.000000	53.944	168.7823
20000.000000	53.883	174.4891
