* Measurement data measured by REW V5.20.13
* Source: EXCL: Mic in at rear panel (Pink)(Realtek(R) Audio), MICROPHONE (마스), L, volume: 1.000
* Format: 256k Log Swept Sine, 1 sweep at -12.0 dBFS with no timing reference
* Dated: 2022. 12. 27 오후 10:30:58
* REW Settings:
*  C-weighting compensation: Off
*  Target level: 75.0 dB
* Note: 
* Measurement: R_Velvet
* Smoothing: 1/24 octave
* Frequency Step: 1/48 octave
* Start Frequency: 20.300 Hz
*
* Freq(Hz)	SPL(dB)	Phase(degrees)
20.299999	91.005	-163.9332
20.600000	91.016	-164.1651
20.900000	91.037	-164.5723
21.200001	91.052	-164.9439
21.400000	91.060	-165.1807
21.799999	91.073	-165.6662
22.000000	91.077	-165.9254
22.400000	91.083	-166.4692
22.700001	91.083	-166.8882
23.000000	91.082	-167.3099
23.299999	91.081	-167.7316
23.600000	91.084	-168.1549
24.000000	91.092	-168.7267
24.299999	91.103	-169.1643
24.700001	91.119	-169.7567
25.000000	91.131	-170.2011
25.400000	91.145	-170.7828
25.799999	91.160	-171.3438
26.200001	91.174	-171.8816
26.500000	91.185	-172.2687
26.900000	91.196	-172.7596
27.200001	91.202	-173.1075
27.600000	91.208	-173.5480
28.000000	91.214	-173.9749
28.500000	91.220	-174.5147
29.000000	91.217	-175.0735
29.500000	91.204	-175.6312
30.000000	91.183	-176.1537
30.400000	91.165	-176.5397
30.700001	91.154	-176.8165
31.100000	91.140	-177.1808
31.500000	91.129	-177.5480
32.000000	91.118	-178.0159
32.500000	91.111	-178.5008
33.000000	91.104	-179.0132
33.500000	91.097	-179.5412
34.000000	91.087	179.9557
34.500000	91.077	179.5006
35.000000	91.069	179.0748
35.500000	91.063	178.6503
36.000000	91.054	178.2287
36.500000	91.043	177.8283
37.000000	91.031	177.4517
37.500000	91.019	177.0830
38.200001	90.994	176.5700
38.700001	90.973	176.2239
39.500000	90.942	175.6977
40.000000	90.928	175.3415
40.599998	90.910	174.8702
41.200001	90.887	174.3877
41.799999	90.862	173.9189
42.500000	90.835	173.3844
43.099998	90.812	172.9430
43.700001	90.790	172.5303
44.400002	90.763	172.0816
45.000000	90.740	171.7227
45.500000	90.723	171.4366
46.200001	90.700	171.0228
46.799999	90.675	170.6487
47.500000	90.638	170.2571
48.200001	90.607	169.9404
48.700001	90.595	169.7060
49.400002	90.581	169.2966
50.000000	90.562	168.9030
50.799999	90.527	168.4148
51.500000	90.499	168.0302
52.200001	90.473	167.6650
53.000000	90.444	167.2748
53.799999	90.414	166.8969
54.500000	90.384	166.5762
55.200001	90.352	166.2936
56.000000	90.318	165.9926
57.000000	90.273	165.5682
58.000000	90.218	165.1531
59.000000	90.168	164.7501
60.000000	90.118	164.3398
60.799999	90.085	164.0202
61.500000	90.062	163.7136
62.200001	90.038	163.4062
63.000000	90.016	163.0695
64.000000	89.985	162.5595
65.000000	89.922	162.0846
66.000000	89.856	161.8253
67.000000	89.806	161.5995
68.000000	89.754	161.3442
69.000000	89.701	161.0748
70.000000	89.648	160.7784
71.000000	89.595	160.4662
72.000000	89.542	160.1625
73.000000	89.494	159.8697
74.000000	89.447	159.5682
75.000000	89.398	159.2968
76.199997	89.345	158.9936
77.500000	89.279	158.6589
78.800003	89.216	158.4128
80.000000	89.166	158.1646
81.199997	89.110	157.8664
82.500000	89.043	157.5693
83.800003	88.982	157.3219
85.000000	88.930	157.0752
86.199997	88.875	156.8269
87.500000	88.818	156.5829
88.500000	88.771	156.3983
90.000000	88.703	156.1594
91.199997	88.654	155.9615
92.500000	88.600	155.7464
93.800003	88.547	155.5539
95.000000	88.497	155.3922
96.199997	88.448	155.2314
97.500000	88.393	155.0494
98.800003	88.338	154.8584
100.000000	88.286	154.6752
101.500000	88.219	154.4678
103.000000	88.154	154.2990
104.400002	88.099	154.1680
106.000000	88.036	153.9996
107.500000	87.971	153.8525
109.000000	87.910	153.7175
110.599998	87.849	153.5702
112.000000	87.799	153.4616
113.800003	87.739	153.3295
115.000000	87.693	153.2507
117.199997	87.595	153.1778
118.000000	87.556	153.1707
120.599998	87.456	153.1888
122.000000	87.420	153.0383
124.099998	87.353	152.7571
125.000000	87.323	152.6718
126.500000	87.273	152.5676
128.000000	87.224	152.5065
131.500000	87.114	152.4041
132.000000	87.097	152.3806
134.000000	87.029	152.2942
136.000000	86.962	152.2249
138.000000	86.900	152.1688
140.000000	86.841	152.1155
143.000000	86.746	152.0469
145.000000	86.679	152.0384
147.500000	86.603	152.0199
150.000000	86.531	151.9767
152.500000	86.459	151.9320
155.000000	86.386	151.9000
157.500000	86.320	151.8980
160.000000	86.257	151.9032
162.500000	86.192	151.9474
165.000000	86.129	151.9859
167.500000	86.065	151.9928
170.000000	86.002	152.0009
172.500000	85.935	152.0382
175.000000	85.867	152.0864
177.500000	85.800	152.1389
180.000000	85.738	152.2364
182.500000	85.682	152.3430
185.000000	85.621	152.4257
187.500000	85.559	152.4835
190.000000	85.499	152.4984
192.500000	85.441	152.5164
195.000000	85.385	152.5697
197.500000	85.328	152.6501
200.000000	85.275	152.7440
203.000000	85.217	152.8582
206.000000	85.156	152.9732
209.000000	85.085	153.1231
212.000000	85.019	153.2782
214.000000	84.978	153.3622
218.000000	84.896	153.5732
220.000000	84.857	153.7098
224.000000	84.774	153.9836
227.000000	84.714	154.2665
230.000000	84.670	154.6488
233.000000	84.633	155.0799
236.000000	84.593	155.5233
240.000000	84.569	156.0904
243.000000	84.586	156.4515
247.000000	84.627	156.7202
250.000000	84.654	156.6902
254.000000	84.662	156.4563
258.000000	84.632	156.2094
262.000000	84.582	156.0322
265.000000	84.541	155.9645
269.000000	84.480	155.9183
272.000000	84.435	155.9175
276.000000	84.380	155.9870
280.000000	84.327	156.1083
285.000000	84.267	156.2408
290.000000	84.209	156.4221
295.000000	84.152	156.6213
300.000000	84.107	156.8007
304.000000	84.068	156.9306
307.000000	84.035	157.0141
311.000000	83.993	157.1165
315.000000	83.959	157.2430
320.000000	83.920	157.4560
325.000000	83.877	157.6969
330.000000	83.833	157.9301
335.000000	83.794	158.1456
340.000000	83.762	158.3287
345.000000	83.731	158.4873
350.000000	83.692	158.6462
355.000000	83.646	158.8358
360.000000	83.603	159.0579
365.000000	83.568	159.2595
370.000000	83.535	159.4256
375.000000	83.500	159.5879
382.000000	83.452	159.8716
387.000000	83.415	160.0963
395.000000	83.358	160.4053
400.000000	83.323	160.5582
406.000000	83.282	160.7769
412.000000	83.243	161.0333
418.000000	83.207	161.2708
425.000000	83.171	161.5476
431.000000	83.151	161.7650
437.000000	83.132	161.9611
444.000000	83.096	162.2412
450.000000	83.068	162.5238
455.000000	83.055	162.7688
462.000000	83.041	163.0954
468.000000	83.027	163.3636
475.000000	83.013	163.6270
482.000000	83.007	163.8386
487.000000	83.004	163.9803
494.000000	82.998	164.1404
500.000000	82.991	164.2411
508.000000	82.978	164.4138
515.000000	82.962	164.5659
522.000000	82.945	164.6845
530.000000	82.926	164.8576
538.000000	82.903	165.0471
545.000000	82.884	165.2103
552.000000	82.870	165.3893
560.000000	82.855	165.6128
570.000000	82.833	165.8945
580.000000	82.807	166.1074
590.000000	82.785	166.3192
600.000000	82.764	166.6153
608.000000	82.749	166.8352
615.000000	82.740	167.0045
622.000000	82.731	167.1852
630.000000	82.719	167.4152
640.000000	82.700	167.7056
650.000000	82.686	167.9451
660.000000	82.675	168.1786
670.000000	82.668	168.4058
680.000000	82.657	168.6419
690.000000	82.644	168.9150
700.000000	82.640	169.1963
710.000000	82.639	169.4432
720.000000	82.635	169.6816
730.000000	82.624	169.9329
740.000000	82.616	170.1723
750.000000	82.618	170.4081
762.000000	82.626	170.6989
775.000000	82.631	171.0224
788.000000	82.635	171.3655
800.000000	82.641	171.6724
812.000000	82.657	171.9266
825.000000	82.678	172.1634
838.000000	82.698	172.4540
850.000000	82.722	172.7032
862.000000	82.751	172.9171
875.000000	82.784	173.1409
885.000000	82.811	173.2856
900.000000	82.859	173.5099
912.000000	82.899	173.6770
925.000000	82.948	173.8101
938.000000	82.998	173.8904
950.000000	83.047	173.9304
962.000000	83.096	173.9519
975.000000	83.150	173.9082
988.000000	83.216	173.7789
1000.000000	83.279	173.6617
1015.000000	83.342	173.5848
1030.000000	83.403	173.3945
1044.000000	83.462	173.1086
1060.000000	83.529	172.7352
1075.000000	83.586	172.3885
1090.000000	83.643	171.9662
1106.000000	83.710	171.4406
1120.000000	83.768	170.9522
1138.000000	83.833	170.2814
1150.000000	83.872	169.8109
1172.000000	83.934	168.8852
1180.000000	83.952	168.5411
1206.000000	84.005	167.3342
1220.000000	84.029	166.6617
1241.000000	84.053	165.6508
1250.000000	84.060	165.2074
1265.000000	84.067	164.4416
1280.000000	84.069	163.6564
1315.000000	84.060	161.8619
1320.000000	84.056	161.6006
1340.000000	84.034	160.5124
1360.000000	83.996	159.3956
1380.000000	83.949	158.2458
1400.000000	83.902	157.0561
1430.000000	83.821	155.1700
1450.000000	83.751	153.7756
1475.000000	83.602	151.7296
1500.000000	83.303	149.7336
1525.000000	82.895	149.1974
1550.000000	82.685	149.8516
1575.000000	82.651	149.7131
1600.000000	82.598	148.7868
1625.000000	82.486	147.6909
1650.000000	82.325	146.6316
1675.000000	82.123	145.6205
1700.000000	81.895	144.6053
1725.000000	81.640	143.6643
1750.000000	81.362	142.9411
1775.000000	81.072	142.5244
1800.000000	80.789	142.4447
1825.000000	80.538	142.5723
1850.000000	80.323	142.7411
1875.000000	80.131	142.8417
1900.000000	79.942	142.8328
1925.000000	79.751	142.7294
1950.000000	79.553	142.6118
1975.000000	79.347	142.4990
2000.000000	79.132	142.3862
2030.000000	78.861	142.2783
2060.000000	78.578	142.2828
2090.000000	78.284	142.3821
2120.000000	77.989	142.5846
2140.000000	77.791	142.7834
2180.000000	77.391	143.2402
2200.000000	77.188	143.5073
2240.000000	76.775	144.2087
2270.000000	76.466	144.8554
2300.000000	76.160	145.5634
2330.000000	75.859	146.3965
2360.000000	75.554	147.3224
2400.000000	75.162	148.6570
2430.000000	74.879	149.7751
2470.000000	74.502	151.4691
2500.000000	74.230	152.8737
2540.000000	73.882	154.8828
2580.000000	73.543	157.0064
2620.000000	73.210	159.1671
2650.000000	72.970	160.8651
2690.000000	72.665	163.4204
2720.000000	72.454	165.4426
2760.000000	72.200	168.1586
2800.000000	71.969	170.8981
2850.000000	71.714	174.4395
2900.000000	71.501	178.1105
2950.000000	71.328	-178.1691
3000.000000	71.197	-174.2776
3040.000000	71.112	-171.1272
3070.000000	71.071	-168.7818
3110.000000	71.047	-165.7082
3150.000000	71.045	-162.6538
3200.000000	71.078	-158.8209
3250.000000	71.145	-155.1332
3300.000000	71.233	-151.5186
3350.000000	71.354	-147.9921
3400.000000	71.517	-144.5813
3450.000000	71.705	-141.3229
3500.000000	71.913	-138.2243
3550.000000	72.158	-135.1369
3600.000000	72.428	-132.2032
3650.000000	72.703	-129.4895
3700.000000	72.986	-126.8064
3750.000000	73.286	-124.2249
3820.000000	73.726	-120.9419
3870.000000	74.055	-118.7033
3950.000000	74.585	-115.2354
4000.000000	74.925	-113.1830
4060.000000	75.356	-110.8459
4120.000000	75.811	-108.6640
4180.000000	76.281	-106.6384
4250.000000	76.850	-104.4277
4310.000000	77.365	-102.7067
4370.000000	77.902	-101.1496
4440.000000	78.558	-99.6076
4500.000000	79.152	-98.5996
4550.000000	79.664	-97.9901
4620.000000	80.406	-97.6006
4680.000000	81.071	-97.7647
4750.000000	81.866	-98.5745
4820.000000	82.656	-100.1667
4870.000000	83.203	-101.8649
4940.000000	83.919	-105.0660
5000.000000	84.460	-108.5319
5080.000000	85.027	-114.0481
5150.000000	85.345	-119.4319
5220.000000	85.482	-124.9727
5300.000000	85.422	-131.0360
5380.000000	85.161	-136.3183
5450.000000	84.812	-140.0517
5520.000000	84.394	-142.8963
5600.000000	83.875	-145.1198
5700.000000	83.221	-146.5352
5800.000000	82.599	-146.7015
5900.000000	82.052	-145.9155
6000.000000	81.599	-144.3700
6080.000000	81.306	-142.7449
6150.000000	81.102	-141.1128
6220.000000	80.946	-139.3121
6300.000000	80.822	-137.1172
6400.000000	80.756	-134.2390
6500.000000	80.784	-131.2605
6600.000000	80.899	-128.2465
6700.000000	81.109	-125.2473
6800.000000	81.423	-122.3333
6900.000000	81.857	-119.5535
7000.000000	82.415	-116.9885
7100.000000	83.093	-114.7538
7200.000000	83.890	-112.9796
7300.000000	84.819	-111.8434
7400.000000	85.886	-111.6157
7500.000000	87.089	-112.6743
7620.000000	88.663	-116.4227
7750.000000	90.292	-124.7369
7880.000000	91.385	-137.9416
8000.000000	91.621	-152.6576
8120.000000	91.090	-166.3642
8250.000000	89.919	-177.2896
8380.000000	88.525	176.1470
8500.000000	87.287	172.9748
8620.000000	86.192	171.5920
8750.000000	85.179	171.3026
8850.000000	84.512	171.6120
9000.000000	83.685	172.6303
9120.000000	83.164	173.7548
9250.000000	82.749	175.0791
9380.000000	82.489	176.1389
9500.000000	82.358	176.6116
9620.000000	82.297	176.4343
9750.000000	82.271	175.3079
9880.000000	82.223	173.1028
10000.000000	82.095	170.2099
10150.000000	81.743	165.9104
10300.000000	81.145	161.6186
10440.000000	80.392	158.2762
10600.000000	79.373	155.7012
10750.000000	78.344	154.5448
10900.000000	77.300	154.5026
11060.000000	76.198	155.5972
11200.000000	75.259	157.4566
11380.000000	74.124	160.9877
11500.000000	73.434	164.0028
11720.000000	72.349	170.5878
11800.000000	72.023	173.2515
12060.000000	71.234	-177.4773
12200.000000	70.965	-172.3181
12410.000000	70.738	-164.5841
12500.000000	70.708	-161.3006
12650.000000	70.765	-155.9307
12800.000000	70.963	-150.7660
13150.000000	72.011	-140.1215
13200.000000	72.228	-138.8362
13400.000000	73.260	-134.6186
13600.000000	74.558	-132.4141
13800.000000	76.040	-132.9478
14000.000000	77.521	-136.9332
14300.000000	79.292	-149.5510
14500.000000	79.946	-160.9373
14750.000000	80.186	-175.5968
15000.000000	80.133	170.6192
15250.000000	80.125	155.2233
15500.000000	79.841	134.0864
15750.000000	78.378	109.6461
16000.000000	75.386	91.8692
16250.000000	71.494	85.0415
16500.000000	67.616	86.0277
16750.000000	64.254	91.1596
17000.000000	61.483	98.4554
17250.000000	59.237	107.1083
17500.000000	57.436	116.2527
17750.000000	56.025	125.9427
18000.000000	54.937	135.9932
18250.000000	54.170	146.0728
18500.000000	53.706	156.1461
18750.000000	53.592	165.6218
19000.000000	53.870	174.0283
19250.000000	54.595	-178.4320
19500.000000	55.962	-173.4415
19750.000000	57.790	-173.5811
20000.000000	59.102	-177.2460
