* Measurement data measured by REW V5.20.13
* Source: EXCL: Mic in at rear panel (Pink)(Realtek(R) Audio), MICROPHONE (마스), L, volume: 1.000
* Format: 256k Log Swept Sine, 1 sweep at -12.0 dBFS with no timing reference
* Dated: 2022. 12. 27 오후 10:24:59
* REW Settings:
*  C-weighting compensation: Off
*  Target level: 75.0 dB
* Note: 
* Measurement: L_Velvet
* Smoothing: 1/24 octave
* Frequency Step: 1/48 octave
* Start Frequency: 20.300 Hz
*
* Freq(Hz)	SPL(dB)	Phase(degrees)
20.299999	89.657	-151.2317
20.600000	89.684	-151.4960
20.900000	89.735	-151.9666
21.200001	89.775	-152.4109
21.400000	89.797	-152.6948
21.799999	89.834	-153.2617
22.000000	89.851	-153.5532
22.400000	89.880	-154.1495
22.700001	89.900	-154.6071
23.000000	89.918	-155.0744
23.299999	89.937	-155.5483
23.600000	89.956	-156.0253
24.000000	89.985	-156.6613
24.299999	90.010	-157.1364
24.700001	90.045	-157.7669
25.000000	90.073	-158.2375
25.400000	90.110	-158.8609
25.799999	90.146	-159.4778
26.200001	90.181	-160.0854
26.500000	90.204	-160.5297
26.900000	90.230	-161.0953
27.200001	90.245	-161.4908
27.600000	90.261	-161.9742
28.000000	90.277	-162.4135
28.500000	90.298	-162.9317
29.000000	90.320	-163.4597
29.500000	90.336	-164.0150
30.000000	90.347	-164.5807
30.400000	90.353	-165.0263
30.700001	90.358	-165.3555
31.100000	90.364	-165.7937
31.500000	90.370	-166.2366
32.000000	90.379	-166.7968
32.500000	90.388	-167.3612
33.000000	90.398	-167.9336
33.500000	90.410	-168.5102
34.000000	90.421	-169.0672
34.500000	90.433	-169.5848
35.000000	90.446	-170.0728
35.500000	90.462	-170.5577
36.000000	90.476	-171.0502
36.500000	90.485	-171.5338
37.000000	90.488	-171.9794
37.500000	90.490	-172.3748
38.200001	90.492	-172.8828
38.700001	90.495	-173.2578
39.500000	90.493	-173.9144
40.000000	90.484	-174.3328
40.599998	90.468	-174.8045
41.200001	90.452	-175.2434
41.799999	90.441	-175.6856
42.500000	90.430	-176.2247
43.099998	90.421	-176.6758
43.700001	90.418	-177.1187
44.400002	90.416	-177.6859
45.000000	90.405	-178.2113
45.500000	90.389	-178.6140
46.200001	90.366	-179.0735
46.799999	90.357	-179.4254
47.500000	90.352	-179.8805
48.200001	90.343	179.6403
48.700001	90.334	179.3228
49.400002	90.324	178.9164
50.000000	90.318	178.5759
50.799999	90.311	178.1108
51.500000	90.306	177.6834
52.200001	90.297	177.2338
53.000000	90.278	176.7315
53.799999	90.255	176.2735
54.500000	90.236	175.8788
55.200001	90.215	175.4742
56.000000	90.184	175.0428
57.000000	90.146	174.5891
58.000000	90.118	174.1438
59.000000	90.091	173.6723
60.000000	90.058	173.2126
60.799999	90.032	172.8540
61.500000	90.010	172.5433
62.200001	89.987	172.2298
63.000000	89.957	171.8828
64.000000	89.919	171.5029
65.000000	89.890	171.1021
66.000000	89.857	170.6385
67.000000	89.819	170.2177
68.000000	89.785	169.8282
69.000000	89.750	169.4550
70.000000	89.718	169.1048
71.000000	89.685	168.7564
72.000000	89.648	168.4243
73.000000	89.610	168.1136
74.000000	89.571	167.8132
75.000000	89.534	167.5028
76.199997	89.490	167.0709
77.500000	89.432	166.5804
78.800003	89.373	166.1737
80.000000	89.327	165.8753
81.199997	89.288	165.5879
82.500000	89.247	165.2412
83.800003	89.199	164.8774
85.000000	89.150	164.5848
86.199997	89.109	164.2998
87.500000	89.069	163.9647
88.500000	89.037	163.7083
90.000000	88.989	163.3607
91.199997	88.951	163.0787
92.500000	88.901	162.8088
93.800003	88.851	162.5798
95.000000	88.804	162.3579
96.199997	88.756	162.1376
97.500000	88.707	161.9152
98.800003	88.664	161.6904
100.000000	88.625	161.4727
101.500000	88.573	161.2084
103.000000	88.514	160.9329
104.400002	88.455	160.7145
106.000000	88.395	160.4945
107.500000	88.346	160.2798
109.000000	88.299	160.0793
110.599998	88.251	159.8709
112.000000	88.204	159.6696
113.800003	88.139	159.4305
115.000000	88.102	159.2932
117.199997	88.052	159.0647
118.000000	88.040	158.9733
120.599998	87.972	158.5644
122.000000	87.908	158.4448
124.099998	87.819	158.3534
125.000000	87.784	158.3039
126.500000	87.732	158.1957
128.000000	87.686	158.0660
131.500000	87.592	157.7824
132.000000	87.578	157.7427
134.000000	87.522	157.5855
136.000000	87.459	157.4524
138.000000	87.394	157.3689
140.000000	87.331	157.3083
143.000000	87.242	157.1704
145.000000	87.185	157.0825
147.500000	87.121	156.9798
150.000000	87.055	156.8618
152.500000	86.980	156.7786
155.000000	86.904	156.7294
157.500000	86.837	156.6536
160.000000	86.770	156.5709
162.500000	86.704	156.5425
165.000000	86.644	156.5488
167.500000	86.589	156.5394
170.000000	86.529	156.5018
172.500000	86.465	156.4828
175.000000	86.400	156.4766
177.500000	86.338	156.4818
180.000000	86.277	156.4854
182.500000	86.215	156.5027
185.000000	86.153	156.5280
187.500000	86.090	156.5528
190.000000	86.026	156.5878
192.500000	85.966	156.6434
195.000000	85.906	156.7594
197.500000	85.847	156.9078
200.000000	85.789	157.0404
203.000000	85.722	157.1989
206.000000	85.658	157.4357
209.000000	85.604	157.7076
212.000000	85.557	157.9918
214.000000	85.532	158.2199
218.000000	85.511	158.6985
220.000000	85.516	158.8828
224.000000	85.536	158.9624
227.000000	85.541	158.8195
230.000000	85.531	158.7076
233.000000	85.513	158.6766
236.000000	85.482	158.5934
240.000000	85.423	158.4658
243.000000	85.375	158.4274
247.000000	85.304	158.3963
250.000000	85.251	158.4192
254.000000	85.183	158.5083
258.000000	85.118	158.5946
262.000000	85.058	158.7013
265.000000	85.017	158.7985
269.000000	84.961	158.9344
272.000000	84.920	159.0317
276.000000	84.871	159.1339
280.000000	84.823	159.2451
285.000000	84.766	159.4286
290.000000	84.713	159.6401
295.000000	84.660	159.8421
300.000000	84.613	160.0273
304.000000	84.578	160.1748
307.000000	84.547	160.2966
311.000000	84.507	160.4556
315.000000	84.473	160.6270
320.000000	84.436	160.8344
325.000000	84.399	161.0085
330.000000	84.363	161.2188
335.000000	84.333	161.4522
340.000000	84.299	161.6805
345.000000	84.263	161.8699
350.000000	84.227	162.0746
355.000000	84.186	162.3105
360.000000	84.147	162.5294
365.000000	84.115	162.7202
370.000000	84.085	162.9011
375.000000	84.057	163.0570
382.000000	84.009	163.3528
387.000000	83.968	163.5924
395.000000	83.912	163.8816
400.000000	83.883	164.0849
406.000000	83.847	164.3563
412.000000	83.811	164.6295
418.000000	83.781	164.8928
425.000000	83.750	165.1803
431.000000	83.726	165.4336
437.000000	83.702	165.7000
444.000000	83.671	166.0112
450.000000	83.643	166.2625
455.000000	83.623	166.4745
462.000000	83.605	166.8125
468.000000	83.598	167.1192
475.000000	83.592	167.4610
482.000000	83.591	167.7365
487.000000	83.593	167.8972
494.000000	83.588	168.0999
500.000000	83.578	168.2443
508.000000	83.564	168.4127
515.000000	83.553	168.5900
522.000000	83.542	168.8143
530.000000	83.527	169.0981
538.000000	83.507	169.3736
545.000000	83.496	169.5984
552.000000	83.488	169.8261
560.000000	83.475	170.0683
570.000000	83.458	170.3592
580.000000	83.445	170.6981
590.000000	83.430	171.0621
600.000000	83.417	171.3739
608.000000	83.413	171.6076
615.000000	83.409	171.8231
622.000000	83.403	172.0411
630.000000	83.399	172.2838
640.000000	83.401	172.5892
650.000000	83.404	172.9251
660.000000	83.401	173.2635
670.000000	83.398	173.5765
680.000000	83.399	173.8763
690.000000	83.405	174.1698
700.000000	83.410	174.4796
710.000000	83.417	174.8048
720.000000	83.425	175.1198
730.000000	83.431	175.4282
740.000000	83.436	175.7350
750.000000	83.444	176.0486
762.000000	83.466	176.4169
775.000000	83.495	176.8172
788.000000	83.524	177.2030
800.000000	83.554	177.5184
812.000000	83.588	177.8021
825.000000	83.624	178.1265
838.000000	83.661	178.4706
850.000000	83.703	178.7710
862.000000	83.749	179.0412
875.000000	83.798	179.3179
885.000000	83.839	179.5213
900.000000	83.911	179.7786
912.000000	83.972	179.9412
925.000000	84.038	-179.8952
938.000000	84.107	-179.7566
950.000000	84.176	-179.6770
962.000000	84.252	-179.6333
975.000000	84.339	-179.6239
988.000000	84.431	-179.6596
1000.000000	84.513	-179.7157
1015.000000	84.592	-179.8304
1030.000000	84.677	179.9809
1044.000000	84.763	179.7379
1060.000000	84.859	179.3978
1075.000000	84.943	179.0260
1090.000000	85.028	178.6157
1106.000000	85.124	178.1179
1120.000000	85.210	177.6333
1138.000000	85.317	176.9841
1150.000000	85.383	176.5169
1172.000000	85.495	175.5853
1180.000000	85.533	175.2282
1206.000000	85.644	174.0220
1220.000000	85.699	173.3298
1241.000000	85.774	172.2192
1250.000000	85.803	171.7251
1265.000000	85.846	170.8777
1280.000000	85.885	170.0079
1315.000000	85.954	167.9000
1320.000000	85.961	167.5821
1340.000000	85.974	166.2742
1360.000000	85.966	164.9335
1380.000000	85.940	163.5493
1400.000000	85.904	162.1698
1430.000000	85.815	160.1672
1450.000000	85.731	158.8766
1475.000000	85.605	157.3412
1500.000000	85.449	155.9470
1525.000000	85.260	154.7767
1550.000000	85.035	154.0403
1575.000000	84.806	154.1624
1600.000000	84.720	155.3630
1625.000000	84.965	156.3990
1650.000000	85.356	155.2139
1675.000000	85.536	152.2420
1700.000000	85.475	149.2159
1725.000000	85.308	146.6397
1750.000000	85.120	144.2439
1775.000000	84.937	141.6874
1800.000000	84.727	138.8139
1825.000000	84.413	135.7171
1850.000000	83.930	132.9014
1875.000000	83.315	131.1430
1900.000000	82.702	130.7050
1925.000000	82.203	131.1200
1950.000000	81.831	131.7325
1975.000000	81.542	132.1995
2000.000000	81.295	132.5313
2030.000000	81.011	132.7677
2060.000000	80.713	132.8204
2090.000000	80.409	132.8129
2120.000000	80.102	132.8144
2140.000000	79.892	132.8154
2180.000000	79.461	132.8430
2200.000000	79.241	132.8965
2240.000000	78.784	133.0912
2270.000000	78.430	133.3162
2300.000000	78.076	133.6470
2330.000000	77.728	134.0964
2360.000000	77.380	134.6411
2400.000000	76.897	135.4929
2430.000000	76.535	136.2081
2470.000000	76.063	137.3505
2500.000000	75.712	138.3632
2540.000000	75.243	139.8816
2580.000000	74.775	141.6306
2620.000000	74.317	143.5775
2650.000000	73.981	145.1447
2690.000000	73.537	147.3647
2720.000000	73.220	149.1468
2760.000000	72.824	151.7176
2800.000000	72.443	154.5225
2850.000000	72.003	158.2510
2900.000000	71.584	162.1960
2950.000000	71.215	166.3270
3000.000000	70.910	170.7466
3040.000000	70.707	174.3827
3070.000000	70.580	177.1508
3110.000000	70.430	-179.1423
3150.000000	70.310	-175.4412
3200.000000	70.230	-170.7450
3250.000000	70.206	-165.9933
3300.000000	70.232	-161.4714
3350.000000	70.307	-157.0017
3400.000000	70.425	-152.6044
3450.000000	70.571	-148.3844
3500.000000	70.769	-144.2927
3550.000000	71.018	-140.4613
3600.000000	71.286	-136.8094
3650.000000	71.568	-133.3108
3700.000000	71.879	-129.9430
3750.000000	72.207	-126.6881
3820.000000	72.676	-122.3364
3870.000000	73.034	-119.4721
3950.000000	73.639	-115.1576
4000.000000	74.031	-112.5865
4060.000000	74.509	-109.7292
4120.000000	75.004	-107.0454
4180.000000	75.525	-104.5221
4250.000000	76.162	-101.7702
4310.000000	76.726	-99.6613
4370.000000	77.310	-97.8031
4440.000000	78.015	-95.9074
4500.000000	78.643	-94.5389
4550.000000	79.186	-93.6186
4620.000000	79.975	-92.7240
4680.000000	80.682	-92.3619
4750.000000	81.536	-92.5165
4820.000000	82.406	-93.4045
4870.000000	83.028	-94.5447
4940.000000	83.879	-96.9752
5000.000000	84.568	-99.8850
5080.000000	85.377	-104.9179
5150.000000	85.933	-110.2912
5220.000000	86.310	-116.2916
5300.000000	86.491	-123.4010
5380.000000	86.409	-130.1526
5450.000000	86.155	-135.3082
5520.000000	85.775	-139.4978
5600.000000	85.246	-143.0132
5700.000000	84.535	-145.6438
5800.000000	83.846	-146.6633
5900.000000	83.222	-146.4901
6000.000000	82.686	-145.4021
6080.000000	82.333	-144.0262
6150.000000	82.085	-142.5336
6220.000000	81.890	-140.8464
6300.000000	81.727	-138.7620
6400.000000	81.610	-135.9719
6500.000000	81.587	-133.0547
6600.000000	81.661	-130.0588
6700.000000	81.838	-127.0369
6800.000000	82.118	-124.0697
6900.000000	82.520	-121.2313
7000.000000	83.054	-118.6114
7100.000000	83.713	-116.3128
7200.000000	84.499	-114.4766
7300.000000	85.418	-113.2696
7400.000000	86.477	-112.9438
7500.000000	87.673	-113.9111
7620.000000	89.243	-117.5657
7750.000000	90.872	-125.8062
7880.000000	91.965	-138.9653
8000.000000	92.202	-153.6590
8120.000000	91.669	-167.3294
8250.000000	90.497	-178.1682
8380.000000	89.106	175.4351
8500.000000	87.885	172.4562
8620.000000	86.828	171.2272
8750.000000	85.881	170.9923
8850.000000	85.284	171.1998
9000.000000	84.566	171.6949
9120.000000	84.106	172.0571
9250.000000	83.696	172.3589
9380.000000	83.367	172.4204
9500.000000	83.115	172.2132
9620.000000	82.904	171.7595
9750.000000	82.722	170.8549
9880.000000	82.572	169.3150
10000.000000	82.423	167.1732
10150.000000	82.153	163.4630
10300.000000	81.687	158.9030
10440.000000	81.007	154.5760
10600.000000	79.943	150.5712
10750.000000	78.744	148.5232
10900.000000	77.468	148.3884
11060.000000	76.123	150.1070
11200.000000	75.030	152.8533
11380.000000	73.801	157.6364
11500.000000	73.094	161.4063
11720.000000	72.028	168.9971
11800.000000	71.716	171.8864
12060.000000	70.941	-178.3986
12200.000000	70.662	-173.0198
12410.000000	70.411	-164.8240
12500.000000	70.377	-161.3038
12650.000000	70.424	-155.5027
12800.000000	70.601	-149.8613
13150.000000	71.578	-137.6807
13200.000000	71.793	-136.1158
13400.000000	72.875	-130.5426
13600.000000	74.354	-126.5869
13800.000000	76.223	-125.4886
14000.000000	78.271	-129.1018
14300.000000	80.636	-146.4348
14500.000000	81.083	-163.1136
14750.000000	80.468	179.2574
15000.000000	79.564	168.0607
15250.000000	79.236	157.7014
15500.000000	79.146	141.1533
15750.000000	78.100	118.9326
16000.000000	75.536	101.0987
16250.000000	72.017	93.2563
16500.000000	68.439	92.7834
16750.000000	65.280	96.2162
17000.000000	62.561	101.9543
17250.000000	60.267	109.3272
17500.000000	58.366	117.8847
17750.000000	56.799	127.0418
18000.000000	55.536	136.4740
18250.000000	54.633	146.2226
18500.000000	54.088	155.9974
18750.000000	53.897	165.1411
19000.000000	54.109	173.1850
19250.000000	54.787	179.1892
19500.000000	55.826	-178.9825
19750.000000	56.788	176.5576
20000.000000	57.253	169.5565
