* Measurement data measured by REW V5.20.13
* Source: EXCL: Mic in at rear panel (Pink)(Realtek(R) Audio), MICROPHONE (마스), L, volume: 1.000
* Format: 256k Log Swept Sine, 1 sweep at -12.0 dBFS with no timing reference
* Dated: 2022. 12. 27 오후 10:14:56
* REW Settings:
*  C-weighting compensation: Off
*  Target level: 75.0 dB
* Note: 
* Measurement: L
* Smoothing: 1/24 octave
* Frequency Step: 1/48 octave
* Start Frequency: 20.300 Hz
*
* Freq(Hz)	SPL(dB)	Phase(degrees)
20.299999	89.542	-151.1176
20.600000	89.570	-151.3376
20.900000	89.623	-151.7362
21.200001	89.671	-152.1349
21.400000	89.698	-152.4080
21.799999	89.742	-152.9873
22.000000	89.759	-153.2915
22.400000	89.785	-153.8995
22.700001	89.800	-154.3396
23.000000	89.814	-154.7668
23.299999	89.832	-155.1926
23.600000	89.853	-155.6285
24.000000	89.887	-156.2374
24.299999	89.914	-156.7141
24.700001	89.950	-157.3628
25.000000	89.975	-157.8453
25.400000	90.006	-158.4685
25.799999	90.037	-159.0629
26.200001	90.072	-159.6353
26.500000	90.098	-160.0581
26.900000	90.132	-160.6231
27.200001	90.154	-161.0511
27.600000	90.175	-161.6223
28.000000	90.185	-162.1666
28.500000	90.186	-162.7447
29.000000	90.186	-163.1682
29.500000	90.206	-163.5027
30.000000	90.250	-163.9140
30.400000	90.291	-164.3864
30.700001	90.316	-164.8250
31.100000	90.331	-165.4602
31.500000	90.327	-166.0652
32.000000	90.309	-166.6776
32.500000	90.298	-167.1438
33.000000	90.304	-167.5842
33.500000	90.319	-168.0775
34.000000	90.332	-168.5942
34.500000	90.339	-169.0694
35.000000	90.348	-169.4960
35.500000	90.360	-169.9124
36.000000	90.373	-170.3399
36.500000	90.384	-170.7670
37.000000	90.394	-171.1846
37.500000	90.403	-171.6087
38.200001	90.407	-172.2409
38.700001	90.399	-172.6942
39.500000	90.381	-173.3405
40.000000	90.377	-173.7211
40.599998	90.379	-174.2245
41.200001	90.377	-174.7987
41.799999	90.365	-175.3854
42.500000	90.343	-175.9897
43.099998	90.331	-176.4160
43.700001	90.330	-176.8062
44.400002	90.337	-177.2949
45.000000	90.339	-177.7519
45.500000	90.335	-178.1240
46.200001	90.326	-178.5983
46.799999	90.319	-178.9831
47.500000	90.308	-179.4471
48.200001	90.291	-179.9070
48.700001	90.278	179.7835
49.400002	90.260	179.3584
50.000000	90.242	178.9874
50.799999	90.214	178.5283
51.500000	90.199	178.1690
52.200001	90.195	177.7684
53.000000	90.186	177.2271
53.799999	90.164	176.7141
54.500000	90.145	176.3376
55.200001	90.132	175.9808
56.000000	90.119	175.5590
57.000000	90.095	175.0435
58.000000	90.069	174.5408
59.000000	90.034	174.0433
60.000000	89.993	173.5904
60.799999	89.962	173.2449
61.500000	89.936	172.9436
62.200001	89.912	172.6521
63.000000	89.885	172.3408
64.000000	89.858	171.9757
65.000000	89.839	171.5743
66.000000	89.815	171.1102
67.000000	89.783	170.6636
68.000000	89.747	170.2461
69.000000	89.707	169.8401
70.000000	89.665	169.4724
71.000000	89.629	169.1284
72.000000	89.595	168.7676
73.000000	89.558	168.4100
74.000000	89.520	168.0774
75.000000	89.479	167.7582
76.199997	89.428	167.4024
77.500000	89.371	167.0335
78.800003	89.319	166.6726
80.000000	89.275	166.3462
81.199997	89.238	166.0418
82.500000	89.210	165.6300
83.800003	89.170	165.1813
85.000000	89.130	164.8347
86.199997	89.091	164.5129
87.500000	89.052	164.2498
88.500000	89.032	164.0898
90.000000	89.014	163.7417
91.199997	88.975	163.3645
92.500000	88.905	163.1823
93.800003	88.864	163.1133
95.000000	88.828	162.7987
96.199997	88.759	162.4153
97.500000	88.672	162.1457
98.800003	88.604	161.9939
100.000000	88.561	161.8438
101.500000	88.515	161.6199
103.000000	88.472	161.3270
104.400002	88.428	160.9399
106.000000	88.357	160.4290
107.500000	88.282	160.1132
109.000000	88.227	160.0341
110.599998	88.192	160.0453
112.000000	88.156	160.0396
113.800003	88.095	159.9578
115.000000	88.053	159.8036
117.199997	87.985	159.2203
118.000000	87.959	158.9432
120.599998	87.847	158.4726
122.000000	87.812	158.5666
124.099998	87.769	158.6487
125.000000	87.745	158.6680
126.500000	87.706	158.6368
128.000000	87.666	158.4877
131.500000	87.551	158.0989
132.000000	87.535	158.0609
134.000000	87.470	157.9273
136.000000	87.404	157.8752
138.000000	87.346	157.8252
140.000000	87.287	157.7485
143.000000	87.200	157.6151
145.000000	87.149	157.5182
147.500000	87.083	157.4073
150.000000	87.018	157.3170
152.500000	86.944	157.1881
155.000000	86.864	157.1241
157.500000	86.792	157.0892
160.000000	86.723	157.0374
162.500000	86.655	156.9915
165.000000	86.591	156.9834
167.500000	86.524	157.0027
170.000000	86.453	157.0250
172.500000	86.381	157.0431
175.000000	86.312	157.1080
177.500000	86.249	157.2275
180.000000	86.183	157.3768
182.500000	86.114	157.5526
185.000000	86.047	157.7432
187.500000	85.989	157.9727
190.000000	85.942	158.2360
192.500000	85.911	158.5332
195.000000	85.904	158.7983
197.500000	85.911	158.9713
200.000000	85.921	159.0556
203.000000	85.927	159.0388
206.000000	85.916	158.8905
209.000000	85.891	158.6959
212.000000	85.856	158.4852
214.000000	85.825	158.3502
218.000000	85.751	158.1955
220.000000	85.716	158.1794
224.000000	85.649	158.1683
227.000000	85.594	158.1434
230.000000	85.539	158.1176
233.000000	85.487	158.1226
236.000000	85.434	158.1807
240.000000	85.367	158.2802
243.000000	85.318	158.3163
247.000000	85.244	158.2573
250.000000	85.183	158.2121
254.000000	85.118	158.4730
258.000000	85.066	158.7982
262.000000	85.011	159.0484
265.000000	84.978	159.2221
269.000000	84.945	159.3888
272.000000	84.920	159.5018
276.000000	84.880	159.6771
280.000000	84.838	159.8322
285.000000	84.785	159.9760
290.000000	84.724	160.1245
295.000000	84.670	160.2686
300.000000	84.626	160.4531
304.000000	84.588	160.6169
307.000000	84.557	160.7249
311.000000	84.519	160.8602
315.000000	84.483	161.0104
320.000000	84.445	161.2298
325.000000	84.417	161.4530
330.000000	84.381	161.6937
335.000000	84.341	161.9244
340.000000	84.305	162.1360
345.000000	84.272	162.3585
350.000000	84.233	162.5979
355.000000	84.190	162.7996
360.000000	84.148	162.9978
365.000000	84.113	163.2101
370.000000	84.084	163.4193
375.000000	84.057	163.6364
382.000000	84.018	163.9623
387.000000	83.982	164.2095
395.000000	83.926	164.6396
400.000000	83.904	164.9259
406.000000	83.888	165.2478
412.000000	83.873	165.5210
418.000000	83.858	165.7108
425.000000	83.842	165.8831
431.000000	83.827	166.0113
437.000000	83.806	166.1660
444.000000	83.781	166.3780
450.000000	83.761	166.5551
455.000000	83.741	166.7253
462.000000	83.713	166.9851
468.000000	83.691	167.2143
475.000000	83.671	167.4526
482.000000	83.649	167.6716
487.000000	83.633	167.8285
494.000000	83.610	168.0678
500.000000	83.593	168.2803
508.000000	83.572	168.5464
515.000000	83.557	168.7920
522.000000	83.548	169.0442
530.000000	83.538	169.3423
538.000000	83.522	169.6266
545.000000	83.508	169.8824
552.000000	83.496	170.1422
560.000000	83.486	170.4038
570.000000	83.477	170.7123
580.000000	83.470	171.0634
590.000000	83.462	171.4197
600.000000	83.455	171.7650
608.000000	83.450	172.0408
615.000000	83.447	172.2574
622.000000	83.443	172.4786
630.000000	83.437	172.7382
640.000000	83.428	173.0435
650.000000	83.426	173.3593
660.000000	83.431	173.6910
670.000000	83.431	173.9995
680.000000	83.433	174.2764
690.000000	83.435	174.5638
700.000000	83.438	174.9095
710.000000	83.447	175.2888
720.000000	83.459	175.6318
730.000000	83.468	175.9217
740.000000	83.475	176.2383
750.000000	83.488	176.5762
762.000000	83.508	176.9381
775.000000	83.531	177.3132
788.000000	83.559	177.6715
800.000000	83.590	178.0067
812.000000	83.623	178.3172
825.000000	83.664	178.6470
838.000000	83.710	178.9869
850.000000	83.750	179.2905
862.000000	83.793	179.5665
875.000000	83.848	179.8434
885.000000	83.896	-179.9634
900.000000	83.970	-179.7010
912.000000	84.030	-179.5058
925.000000	84.097	-179.3460
938.000000	84.168	-179.2370
950.000000	84.240	-179.1801
962.000000	84.315	-179.1693
975.000000	84.399	-179.1751
988.000000	84.489	-179.1987
1000.000000	84.570	-179.2574
1015.000000	84.654	-179.3864
1030.000000	84.740	-179.5637
1044.000000	84.829	-179.8072
1060.000000	84.929	179.8324
1075.000000	85.016	179.4565
1090.000000	85.105	179.0406
1106.000000	85.203	178.5437
1120.000000	85.284	178.0558
1138.000000	85.383	177.3860
1150.000000	85.449	176.9116
1172.000000	85.563	175.9874
1180.000000	85.601	175.6393
1206.000000	85.717	174.4303
1220.000000	85.772	173.7341
1241.000000	85.847	172.6345
1250.000000	85.877	172.1409
1265.000000	85.923	171.2888
1280.000000	85.963	170.3968
1315.000000	86.031	168.2491
1320.000000	86.039	167.9295
1340.000000	86.055	166.6043
1360.000000	86.046	165.2411
1380.000000	86.020	163.8541
1400.000000	85.981	162.4827
1430.000000	85.888	160.4432
1450.000000	85.806	159.1370
1475.000000	85.685	157.6123
1500.000000	85.535	156.2083
1525.000000	85.358	154.9561
1550.000000	85.149	154.0065
1575.000000	84.911	153.6482
1600.000000	84.724	154.2738
1625.000000	84.783	155.6488
1650.000000	85.130	155.8018
1675.000000	85.433	153.5809
1700.000000	85.480	150.4707
1725.000000	85.354	147.7089
1750.000000	85.170	145.2948
1775.000000	84.979	142.8889
1800.000000	84.782	140.2593
1825.000000	84.530	137.3541
1850.000000	84.145	134.3996
1875.000000	83.602	132.0298
1900.000000	82.980	130.8162
1925.000000	82.410	130.7169
1950.000000	81.958	131.1736
1975.000000	81.610	131.6999
2000.000000	81.327	132.1375
2030.000000	81.022	132.5243
2060.000000	80.722	132.7411
2090.000000	80.419	132.8419
2120.000000	80.109	132.8912
2140.000000	79.897	132.9249
2180.000000	79.461	133.0041
2200.000000	79.237	133.0579
2240.000000	78.780	133.2480
2270.000000	78.436	133.5248
2300.000000	78.086	133.8960
2330.000000	77.730	134.3509
2360.000000	77.365	134.9044
2400.000000	76.880	135.7860
2430.000000	76.525	136.5436
2470.000000	76.046	137.7798
2500.000000	75.680	138.8260
2540.000000	75.200	140.4017
2580.000000	74.744	142.1808
2620.000000	74.287	144.1431
2650.000000	73.948	145.7065
2690.000000	73.503	147.9412
2720.000000	73.179	149.7601
2760.000000	72.762	152.4199
2800.000000	72.366	155.2725
2850.000000	71.916	158.9580
2900.000000	71.513	162.9828
2950.000000	71.164	167.2579
3000.000000	70.860	171.7118
3040.000000	70.650	175.3453
3070.000000	70.518	178.1339
3110.000000	70.373	-178.0233
3150.000000	70.265	-174.1660
3200.000000	70.187	-169.4719
3250.000000	70.168	-164.7999
3300.000000	70.199	-160.1703
3350.000000	70.264	-155.5890
3400.000000	70.376	-151.1674
3450.000000	70.535	-146.9696
3500.000000	70.731	-142.9027
3550.000000	70.968	-138.9433
3600.000000	71.242	-135.1649
3650.000000	71.536	-131.5812
3700.000000	71.844	-128.2007
3750.000000	72.170	-124.8893
3820.000000	72.661	-120.5650
3870.000000	73.018	-117.7349
3950.000000	73.600	-113.4070
4000.000000	73.976	-110.8536
4060.000000	74.451	-107.9321
4120.000000	74.955	-105.2429
4180.000000	75.481	-102.7260
4250.000000	76.119	-99.9104
4310.000000	76.678	-97.7195
4370.000000	77.255	-95.7923
4440.000000	77.946	-93.7346
4500.000000	78.561	-92.2113
4550.000000	79.100	-91.1813
4620.000000	79.902	-90.1054
4680.000000	80.621	-89.5560
4750.000000	81.491	-89.5054
4820.000000	82.385	-90.2165
4870.000000	83.025	-91.2547
4940.000000	83.902	-93.5569
5000.000000	84.614	-96.3590
5080.000000	85.458	-101.2936
5150.000000	86.050	-106.6174
5220.000000	86.465	-112.6157
5300.000000	86.691	-119.8102
5380.000000	86.650	-126.7067
5450.000000	86.424	-132.0177
5520.000000	86.063	-136.3756
5600.000000	85.542	-140.0676
5700.000000	84.833	-142.8591
5800.000000	84.149	-143.9635
5900.000000	83.538	-143.8429
6000.000000	83.021	-142.8610
6080.000000	82.685	-141.6005
6150.000000	82.449	-140.2672
6220.000000	82.262	-138.7704
6300.000000	82.102	-136.8993
6400.000000	81.988	-134.4002
6500.000000	81.963	-131.7639
6600.000000	82.017	-129.0619
6700.000000	82.151	-126.3670
6800.000000	82.380	-123.7121
6900.000000	82.724	-121.1192
7000.000000	83.192	-118.6725
7100.000000	83.772	-116.4961
7200.000000	84.467	-114.7386
7300.000000	85.274	-113.5825
7400.000000	86.191	-113.2307
7500.000000	87.212	-113.9411
7620.000000	88.548	-116.7093
7750.000000	89.979	-122.8777
7880.000000	91.061	-132.8733
8000.000000	91.513	-144.7143
8120.000000	91.344	-156.8568
8250.000000	90.573	-167.7319
8380.000000	89.475	-175.0540
8500.000000	88.413	-178.9854
8620.000000	87.437	179.0143
8750.000000	86.537	178.2403
8850.000000	85.969	178.2035
9000.000000	85.304	178.4908
9120.000000	84.901	178.6899
9250.000000	84.561	178.7729
9380.000000	84.310	178.6015
9500.000000	84.142	178.0920
9620.000000	84.020	177.1781
9750.000000	83.927	175.5732
9880.000000	83.846	173.1130
10000.000000	83.729	169.9363
10150.000000	83.428	164.8210
10300.000000	82.849	159.0423
10440.000000	82.005	154.0549
10600.000000	80.736	150.0648
10750.000000	79.375	148.5580
10900.000000	77.992	149.1148
11060.000000	76.603	151.5281
11200.000000	75.510	154.7928
11380.000000	74.300	160.0760
11500.000000	73.606	164.0743
11720.000000	72.579	172.1167
11800.000000	72.285	175.1745
12060.000000	71.603	-174.5504
12200.000000	71.390	-168.9267
12410.000000	71.238	-160.4897
12500.000000	71.241	-156.9035
12650.000000	71.351	-151.0139
12800.000000	71.604	-145.2787
13150.000000	72.851	-132.9503
13200.000000	73.113	-131.3877
13400.000000	74.404	-126.0130
13600.000000	76.120	-122.6797
13800.000000	78.215	-122.8094
14000.000000	80.390	-128.5152
14300.000000	82.590	-149.7650
14500.000000	82.785	-167.7042
14750.000000	81.968	174.6571
15000.000000	81.047	162.6152
15250.000000	80.534	149.8318
15500.000000	79.816	132.2321
15750.000000	78.070	113.9532
16000.000000	75.261	102.2442
16250.000000	72.061	98.3065
16500.000000	69.075	99.3572
16750.000000	66.501	103.1306
17000.000000	64.314	108.6595
17250.000000	62.526	115.6327
17500.000000	61.152	123.5342
17750.000000	60.168	131.4979
18000.000000	59.593	139.2729
18250.000000	59.518	146.5500
18500.000000	59.963	152.0192
18750.000000	60.951	153.8602
19000.000000	62.221	148.7654
19250.000000	62.977	133.6338
19500.000000	62.373	111.9250
19750.000000	60.216	93.8701
20000.000000	57.606	85.0735
