* Measurement data measured by REW V5.20.9
* Source: Mic in at rear panel (Pink)(Realtek(R) Audio), MICROPHONE (마스), L, volume: 0.500
* Format: 256k Log Swept Sine, 1 sweep at -12.0 dBFS with no timing reference
* Dated: 2022. 9. 24 오전 11:29:26
* REW Settings:
*  C-weighting compensation: Off
*  Target level: 75.0 dB
* Note: 
* Measurement: R_Deep
* Smoothing: 1/24 octave
* Frequency Step: 1/48 octave
* Start Frequency: 20.300 Hz
*
* Freq(Hz)	SPL(dB)	Phase(degrees)
20.299999	72.685	-157.8107
20.600000	72.695	-158.0805
20.900000	72.711	-158.5016
21.200001	72.718	-158.7409
21.400000	72.725	-158.8168
21.799999	72.756	-158.9056
22.000000	72.780	-158.9840
22.400000	72.833	-159.2980
22.700001	72.864	-159.6690
23.000000	72.877	-160.1014
23.299999	72.874	-160.5190
23.600000	72.862	-160.8765
24.000000	72.846	-161.2417
24.299999	72.844	-161.4677
24.700001	72.854	-161.7769
25.000000	72.868	-162.0479
25.400000	72.886	-162.4606
25.799999	72.901	-162.8923
26.200001	72.915	-163.3109
26.500000	72.926	-163.6173
26.900000	72.941	-164.0324
27.200001	72.950	-164.3556
27.600000	72.957	-164.7935
28.000000	72.958	-165.2103
28.500000	72.957	-165.6661
29.000000	72.960	-166.0625
29.500000	72.969	-166.4489
30.000000	72.979	-166.8538
30.400000	72.985	-167.1799
30.700001	72.988	-167.4154
31.100000	72.992	-167.7118
31.500000	72.996	-167.9939
32.000000	73.003	-168.3442
32.500000	73.009	-168.7045
33.000000	73.014	-169.0698
33.500000	73.019	-169.4268
34.000000	73.023	-169.7659
34.500000	73.026	-170.0877
35.000000	73.030	-170.4020
35.500000	73.035	-170.7212
36.000000	73.038	-171.0472
36.500000	73.038	-171.3663
37.000000	73.037	-171.6627
37.500000	73.038	-171.9387
38.200001	73.040	-172.3269
38.700001	73.041	-172.6170
39.500000	73.038	-173.0735
40.000000	73.035	-173.3474
40.599998	73.032	-173.6709
41.200001	73.027	-173.9770
41.799999	73.027	-174.2683
42.500000	73.032	-174.6583
43.099998	73.029	-175.0553
43.700001	73.012	-175.4043
44.400002	72.995	-175.6617
45.000000	73.000	-175.8633
45.500000	73.010	-176.1174
46.200001	73.009	-176.5464
46.799999	72.996	-176.8370
47.500000	72.993	-177.0854
48.200001	73.003	-177.3877
48.700001	73.005	-177.6389
49.400002	72.999	-177.9335
50.000000	72.998	-178.1148
50.799999	73.007	-178.3709
51.500000	73.012	-178.6482
52.200001	73.009	-178.9127
53.000000	73.004	-179.1745
53.799999	73.000	-179.4468
54.500000	72.991	-179.7022
55.200001	72.980	-179.9498
56.000000	72.967	179.7761
57.000000	72.951	179.4383
58.000000	72.940	179.1179
59.000000	72.931	178.7656
60.000000	72.915	178.4133
60.799999	72.903	178.1622
61.500000	72.895	177.9453
62.200001	72.885	177.7370
63.000000	72.875	177.5305
64.000000	72.867	177.2917
65.000000	72.863	177.0216
66.000000	72.854	176.7259
67.000000	72.840	176.4398
68.000000	72.823	176.1809
69.000000	72.807	175.9339
70.000000	72.791	175.6837
71.000000	72.774	175.4303
72.000000	72.756	175.1931
73.000000	72.739	174.9781
74.000000	72.723	174.7740
75.000000	72.707	174.6051
76.199997	72.694	174.4215
77.500000	72.677	174.1919
78.800003	72.651	173.9644
80.000000	72.618	173.8128
81.199997	72.592	173.7707
82.500000	72.599	173.7111
83.800003	72.617	173.4004
85.000000	72.616	173.0479
86.199997	72.614	172.7204
87.500000	72.607	172.3598
88.500000	72.599	172.1148
90.000000	72.586	171.7786
91.199997	72.576	171.5345
92.500000	72.566	171.2643
93.800003	72.552	170.9908
95.000000	72.536	170.7611
96.199997	72.521	170.5626
97.500000	72.507	170.3626
98.800003	72.491	170.1576
100.000000	72.473	169.9824
101.500000	72.451	169.7786
103.000000	72.427	169.5563
104.400002	72.402	169.3455
106.000000	72.374	169.1303
107.500000	72.354	168.9406
109.000000	72.339	168.7438
110.599998	72.324	168.5189
112.000000	72.308	168.3189
113.800003	72.283	168.0843
115.000000	72.268	167.9357
117.199997	72.241	167.6496
118.000000	72.231	167.5476
120.599998	72.203	167.2542
122.000000	72.189	167.1038
124.099998	72.166	166.8661
125.000000	72.154	166.7597
126.500000	72.134	166.5894
128.000000	72.115	166.4272
131.500000	72.077	166.0904
132.000000	72.072	166.0443
134.000000	72.050	165.8428
136.000000	72.023	165.6321
138.000000	71.996	165.4341
140.000000	71.970	165.2593
143.000000	71.931	165.0232
145.000000	71.906	164.8631
147.500000	71.877	164.6571
150.000000	71.852	164.4498
152.500000	71.824	164.2302
155.000000	71.790	164.0356
157.500000	71.759	163.8581
160.000000	71.726	163.6721
162.500000	71.688	163.4872
165.000000	71.648	163.3141
167.500000	71.606	163.1624
170.000000	71.567	163.0364
172.500000	71.530	162.9160
175.000000	71.491	162.8176
177.500000	71.448	162.7670
180.000000	71.405	162.7556
182.500000	71.369	162.7566
185.000000	71.342	162.7346
187.500000	71.315	162.6645
190.000000	71.281	162.5286
192.500000	71.230	162.3716
195.000000	71.167	162.2727
197.500000	71.093	162.2639
200.000000	71.009	162.3851
203.000000	70.895	162.7436
206.000000	70.772	163.4460
209.000000	70.655	164.6790
212.000000	70.593	166.6563
214.000000	70.645	168.3511
218.000000	71.120	171.3660
220.000000	71.493	171.8521
224.000000	72.134	170.0569
227.000000	72.353	167.4755
230.000000	72.388	165.1021
233.000000	72.335	163.3021
236.000000	72.249	161.9938
240.000000	72.121	160.7757
243.000000	72.031	160.1151
247.000000	71.925	159.4542
250.000000	71.854	159.0773
254.000000	71.768	158.6745
258.000000	71.693	158.3391
262.000000	71.625	158.0428
265.000000	71.577	157.8408
269.000000	71.518	157.5710
272.000000	71.477	157.3681
276.000000	71.426	157.1221
280.000000	71.381	156.9053
285.000000	71.328	156.6510
290.000000	71.280	156.4218
295.000000	71.229	156.2180
300.000000	71.178	156.0150
304.000000	71.145	155.8447
307.000000	71.120	155.7177
311.000000	71.087	155.5547
315.000000	71.056	155.3875
320.000000	71.017	155.1913
325.000000	70.975	155.0334
330.000000	70.932	154.8855
335.000000	70.893	154.7474
340.000000	70.852	154.6183
345.000000	70.810	154.5250
350.000000	70.769	154.4854
355.000000	70.734	154.4687
360.000000	70.712	154.4275
365.000000	70.696	154.3224
370.000000	70.678	154.1501
375.000000	70.655	153.9357
382.000000	70.607	153.6335
387.000000	70.568	153.4255
395.000000	70.508	153.1625
400.000000	70.469	153.0251
406.000000	70.419	152.8652
412.000000	70.371	152.7101
418.000000	70.322	152.5520
425.000000	70.271	152.3802
431.000000	70.230	152.2276
437.000000	70.190	152.0574
444.000000	70.141	151.8742
450.000000	70.093	151.7326
455.000000	70.050	151.6388
462.000000	69.991	151.5513
468.000000	69.943	151.5027
475.000000	69.891	151.4689
482.000000	69.843	151.4405
487.000000	69.810	151.4014
494.000000	69.763	151.3204
500.000000	69.724	151.2545
508.000000	69.670	151.1950
515.000000	69.623	151.1476
522.000000	69.578	151.1301
530.000000	69.526	151.1305
538.000000	69.475	151.1019
545.000000	69.428	151.0852
552.000000	69.382	151.0824
560.000000	69.329	151.0900
570.000000	69.271	151.1183
580.000000	69.212	151.1794
590.000000	69.150	151.2465
600.000000	69.091	151.3130
608.000000	69.041	151.3624
615.000000	68.996	151.4228
622.000000	68.954	151.5023
630.000000	68.910	151.6052
640.000000	68.853	151.7464
650.000000	68.796	151.8859
660.000000	68.744	152.0495
670.000000	68.693	152.2413
680.000000	68.639	152.4345
690.000000	68.586	152.6413
700.000000	68.535	152.8622
710.000000	68.488	153.0839
720.000000	68.443	153.3247
730.000000	68.400	153.5932
740.000000	68.362	153.8697
750.000000	68.323	154.1514
762.000000	68.279	154.4999
775.000000	68.239	154.8929
788.000000	68.201	155.3101
800.000000	68.169	155.6865
812.000000	68.140	156.0734
825.000000	68.115	156.5076
838.000000	68.098	156.9237
850.000000	68.085	157.3138
862.000000	68.078	157.7217
875.000000	68.075	158.1574
885.000000	68.074	158.4960
900.000000	68.080	158.9915
912.000000	68.092	159.3819
925.000000	68.111	159.7967
938.000000	68.135	160.1602
950.000000	68.160	160.4615
962.000000	68.190	160.7626
975.000000	68.228	161.0651
988.000000	68.271	161.3069
1000.000000	68.310	161.5031
1015.000000	68.354	161.7729
1030.000000	68.402	161.9941
1044.000000	68.451	162.1461
1060.000000	68.508	162.2696
1075.000000	68.560	162.3427
1090.000000	68.614	162.3816
1106.000000	68.678	162.3762
1120.000000	68.734	162.3281
1138.000000	68.803	162.2362
1150.000000	68.847	162.1581
1172.000000	68.923	161.9772
1180.000000	68.948	161.9047
1206.000000	69.021	161.6555
1220.000000	69.057	161.5070
1241.000000	69.107	161.2668
1250.000000	69.127	161.1562
1265.000000	69.159	160.9742
1280.000000	69.185	160.8058
1315.000000	69.230	160.4219
1320.000000	69.236	160.3729
1340.000000	69.254	160.1862
1360.000000	69.266	160.0151
1380.000000	69.275	159.8802
1400.000000	69.288	159.7665
1430.000000	69.306	159.6527
1450.000000	69.316	159.5961
1475.000000	69.327	159.5573
1500.000000	69.342	159.5325
1525.000000	69.356	159.5543
1550.000000	69.370	159.6422
1575.000000	69.387	159.7478
1600.000000	69.405	159.8654
1625.000000	69.426	160.0161
1650.000000	69.451	160.1872
1675.000000	69.479	160.3777
1700.000000	69.510	160.5989
1725.000000	69.544	160.8294
1750.000000	69.581	161.0829
1775.000000	69.623	161.3582
1800.000000	69.669	161.6548
1825.000000	69.721	161.9449
1850.000000	69.778	162.2364
1875.000000	69.838	162.5425
1900.000000	69.902	162.8438
1925.000000	69.972	163.1429
1950.000000	70.048	163.4482
1975.000000	70.128	163.7497
2000.000000	70.214	164.0475
2030.000000	70.323	164.3974
2060.000000	70.440	164.7312
2090.000000	70.565	165.0659
2120.000000	70.698	165.3807
2140.000000	70.793	165.5744
2180.000000	70.993	165.9183
2200.000000	71.096	166.0713
2240.000000	71.313	166.3239
2270.000000	71.485	166.4661
2300.000000	71.666	166.5640
2330.000000	71.855	166.6132
2360.000000	72.052	166.6136
2400.000000	72.328	166.5074
2430.000000	72.544	166.3351
2470.000000	72.843	165.9812
2500.000000	73.075	165.6105
2540.000000	73.393	164.9556
2580.000000	73.719	164.1125
2620.000000	74.051	163.0318
2650.000000	74.301	162.0582
2690.000000	74.629	160.5398
2720.000000	74.870	159.2183
2760.000000	75.178	157.2079
2800.000000	75.466	154.9046
2850.000000	75.783	151.6146
2900.000000	76.033	147.9244
2950.000000	76.204	143.9116
3000.000000	76.283	139.6958
3040.000000	76.274	136.2858
3070.000000	76.226	133.7642
3110.000000	76.109	130.5176
3150.000000	75.934	127.4719
3200.000000	75.645	124.0350
3250.000000	75.295	121.0864
3300.000000	74.904	118.6754
3350.000000	74.488	116.8080
3400.000000	74.065	115.4503
3450.000000	73.651	114.5548
3500.000000	73.257	114.0724
3550.000000	72.887	113.9733
3600.000000	72.545	114.1961
3650.000000	72.231	114.6793
3700.000000	71.950	115.3863
3750.000000	71.708	116.2742
3820.000000	71.432	117.7534
3870.000000	71.280	118.9084
3950.000000	71.121	120.8020
4000.000000	71.075	121.9140
4060.000000	71.060	123.0643
4120.000000	71.078	123.9417
4180.000000	71.109	124.5620
4250.000000	71.147	125.0406
4310.000000	71.170	125.2671
4370.000000	71.180	125.3505
4440.000000	71.174	125.3063
4500.000000	71.154	125.1519
4550.000000	71.126	124.9652
4620.000000	71.069	124.6654
4680.000000	71.001	124.4025
4750.000000	70.901	124.1147
4820.000000	70.782	123.8720
4870.000000	70.685	123.7456
4940.000000	70.535	123.6525
5000.000000	70.398	123.6514
5080.000000	70.207	123.7737
5150.000000	70.035	124.0157
5220.000000	69.862	124.3946
5300.000000	69.668	124.9946
5380.000000	69.484	125.7563
5450.000000	69.338	126.5486
5520.000000	69.212	127.4325
5600.000000	69.099	128.4758
5700.000000	68.999	129.6448
5800.000000	68.915	130.5573
5900.000000	68.812	131.2820
6000.000000	68.683	132.0046
6080.000000	68.568	132.6659
6150.000000	68.465	133.3211
6220.000000	68.365	134.0460
6300.000000	68.257	134.9473
6400.000000	68.137	136.1263
6500.000000	68.036	137.2918
6600.000000	67.940	138.4317
6700.000000	67.843	139.5200
6800.000000	67.746	140.5762
6900.000000	67.658	141.6340
7000.000000	67.581	142.7047
7100.000000	67.502	143.8110
7200.000000	67.416	144.9681
7300.000000	67.318	146.1705
7400.000000	67.203	147.4430
7500.000000	67.074	148.8398
7620.000000	66.915	150.7303
7750.000000	66.747	153.1868
7880.000000	66.551	156.1139
8000.000000	66.376	159.1077
8120.000000	66.235	162.3126
8250.000000	66.131	165.9833
8380.000000	66.088	169.8227
8500.000000	66.105	173.4682
8620.000000	66.182	177.1747
8750.000000	66.337	-178.8209
8850.000000	66.519	-175.7985
9000.000000	66.917	-171.5047
9120.000000	67.360	-168.5306
9250.000000	67.962	-166.1691
9380.000000	68.658	-165.1347
9500.000000	69.314	-165.7507
9620.000000	69.880	-168.1122
9750.000000	70.256	-172.4215
9880.000000	70.282	-177.6350
10000.000000	69.977	177.9251
10150.000000	69.259	174.2229
10300.000000	68.372	173.0841
10440.000000	67.567	173.9655
10600.000000	66.788	176.3950
10750.000000	66.219	179.2808
10900.000000	65.778	-177.7682
11060.000000	65.391	-174.8869
11200.000000	65.064	-172.6426
11380.000000	64.585	-169.6841
11500.000000	64.251	-167.2199
11720.000000	63.862	-162.2584
11800.000000	63.783	-160.9505
12060.000000	63.297	-158.1038
12200.000000	62.871	-156.1192
12410.000000	62.167	-152.0355
12500.000000	61.875	-149.9660
12650.000000	61.430	-146.2039
12800.000000	61.045	-142.1707
13150.000000	60.419	-132.5318
13200.000000	60.362	-131.2025
13400.000000	60.211	-126.1654
13600.000000	60.161	-121.7901
13800.000000	60.187	-118.3883
14000.000000	60.232	-116.2034
14300.000000	60.130	-115.3418
14500.000000	59.820	-115.9451
14750.000000	59.073	-116.8087
15000.000000	57.961	-116.4770
15250.000000	56.609	-114.0882
15500.000000	55.220	-109.3485
15750.000000	53.969	-102.6699
16000.000000	52.915	-94.7169
16250.000000	52.071	-86.1970
16500.000000	51.399	-77.7320
16750.000000	50.811	-69.5872
17000.000000	50.211	-61.6503
17250.000000	49.579	-53.2298
17500.000000	48.991	-43.4609
17750.000000	48.594	-32.3101
18000.000000	48.523	-20.3959
18250.000000	48.861	-8.4684
18500.000000	49.638	2.6055
18750.000000	50.858	11.6321
19000.000000	52.416	17.1298
19250.000000	53.986	17.3243
19500.000000	55.109	11.2252
19750.000000	55.403	0.7285
20000.000000	54.729	-9.7435
