* Measurement data measured by REW V5.20.7
* Source: 마이크(Realtek High Definition Audi, MICROPHONE (마스), L, volume: 0.050
* Format: 128k Log Swept Sine, 1 sweep at -12.0 dBFS with no timing reference
* Dated: May 5, 2023 5:34:32 PM
* REW Settings:
*  C-weighting compensation: Off
*  Target level: 75.0 dB
* Note: ; 
* Measurement: Rhapsodio Infinity Plus R
* Smoothing: 1/24 octave
* Frequency Step: 1/48 octave
* Start Frequency: 20.300 Hz
*
* Freq(Hz)	SPL(dB)	Phase(degrees)
20.299999	90.904	50.7938
20.600000	90.899	50.4166
20.900000	90.889	49.7686
21.200001	90.881	49.2135
21.400000	90.878	48.8748
21.799999	90.879	48.1896
22.000000	90.881	47.8163
22.400000	90.883	47.0086
22.700001	90.883	46.3661
23.000000	90.881	45.7064
23.299999	90.882	45.0392
23.600000	90.887	44.3639
24.000000	90.905	43.4401
24.299999	90.926	42.7169
24.700001	90.958	41.7051
25.000000	90.981	40.9224
25.400000	91.007	39.8868
25.799999	91.027	38.9246
26.200001	91.047	38.0832
26.500000	91.068	37.5279
26.900000	91.106	36.8460
27.200001	91.142	36.3368
27.600000	91.191	35.6245
28.000000	91.233	34.8859
28.500000	91.267	34.0148
29.000000	91.293	33.2841
29.500000	91.323	32.6528
30.000000	91.360	32.0035
30.400000	91.381	31.4447
30.700001	91.389	31.0292
31.100000	91.390	30.5353
31.500000	91.389	30.1347
32.000000	91.401	29.7105
32.500000	91.430	29.2302
33.000000	91.459	28.6022
33.500000	91.470	27.8897
34.000000	91.461	27.2446
34.500000	91.451	26.7533
35.000000	91.460	26.3605
35.500000	91.491	25.9213
36.000000	91.529	25.3384
36.500000	91.553	24.6394
37.000000	91.556	23.9493
37.500000	91.547	23.3754
38.200001	91.544	22.7686
38.700001	91.559	22.3633
39.500000	91.591	21.5898
40.000000	91.603	21.0601
40.599998	91.605	20.4593
41.200001	91.603	19.9326
41.799999	91.604	19.4590
42.500000	91.611	18.9167
43.099998	91.618	18.4246
43.700001	91.621	17.9107
44.400002	91.618	17.3181
45.000000	91.613	16.8295
45.500000	91.610	16.4264
46.200001	91.606	15.8609
46.799999	91.601	15.3864
47.500000	91.600	14.8499
48.200001	91.602	14.3133
48.700001	91.603	13.9275
49.400002	91.603	13.4037
50.000000	91.602	12.9834
50.799999	91.601	12.4565
51.500000	91.600	12.0124
52.200001	91.600	11.5769
53.000000	91.600	11.0744
53.799999	91.598	10.5510
54.500000	91.593	10.0811
55.200001	91.584	9.6148
56.000000	91.572	9.0998
57.000000	91.559	8.4892
58.000000	91.550	7.9025
59.000000	91.544	7.3110
60.000000	91.535	6.7082
60.799999	91.524	6.2386
61.500000	91.511	5.8509
62.200001	91.500	5.4836
63.000000	91.489	5.0737
64.000000	91.477	4.5525
65.000000	91.465	4.0232
66.000000	91.451	3.5088
67.000000	91.434	3.0214
68.000000	91.417	2.5579
69.000000	91.400	2.1110
70.000000	91.382	1.6721
71.000000	91.365	1.2307
72.000000	91.349	0.7792
73.000000	91.332	0.3203
74.000000	91.315	-0.1306
75.000000	91.297	-0.5625
76.199997	91.274	-1.0571
77.500000	91.247	-1.5651
78.800003	91.219	-2.0580
80.000000	91.193	-2.5188
81.199997	91.167	-2.9861
82.500000	91.139	-3.4896
83.800003	91.111	-3.9802
85.000000	91.084	-4.4065
86.199997	91.056	-4.8070
87.500000	91.027	-5.2271
88.500000	91.004	-5.5482
90.000000	90.970	-6.0368
91.199997	90.942	-6.4301
92.500000	90.911	-6.8471
93.800003	90.879	-7.2434
95.000000	90.849	-7.5891
96.199997	90.819	-7.9202
97.500000	90.786	-8.2659
98.800003	90.753	-8.6058
100.000000	90.724	-8.9188
101.500000	90.686	-9.3082
103.000000	90.648	-9.6919
104.400002	90.611	-10.0408
106.000000	90.567	-10.4282
107.500000	90.527	-10.7795
109.000000	90.487	-11.1197
110.599998	90.444	-11.4695
112.000000	90.406	-11.7645
113.800003	90.357	-12.1317
115.000000	90.325	-12.3703
117.199997	90.266	-12.7935
118.000000	90.244	-12.9441
120.599998	90.172	-13.4168
122.000000	90.133	-13.6608
124.099998	90.073	-14.0129
125.000000	90.048	-14.1569
126.500000	90.005	-14.3867
128.000000	89.961	-14.6052
131.500000	89.856	-15.0841
132.000000	89.840	-15.1496
134.000000	89.779	-15.4025
136.000000	89.717	-15.6302
138.000000	89.653	-15.8202
140.000000	89.588	-15.9728
143.000000	89.491	-16.1246
145.000000	89.429	-16.1570
147.500000	89.364	-16.1048
150.000000	89.324	-15.9824
152.500000	89.315	-15.9166
155.000000	89.323	-16.0613
157.500000	89.320	-16.4378
160.000000	89.291	-16.9134
162.500000	89.242	-17.3525
165.000000	89.181	-17.7094
167.500000	89.113	-17.9857
170.000000	89.046	-18.1996
172.500000	88.982	-18.3725
175.000000	88.921	-18.5344
177.500000	88.859	-18.7056
180.000000	88.798	-18.8806
182.500000	88.739	-19.0529
185.000000	88.679	-19.2115
187.500000	88.621	-19.3498
190.000000	88.563	-19.4676
192.500000	88.503	-19.5635
195.000000	88.441	-19.6429
197.500000	88.380	-19.7164
200.000000	88.321	-19.7832
203.000000	88.252	-19.8451
206.000000	88.182	-19.8844
209.000000	88.112	-19.9097
212.000000	88.042	-19.9252
214.000000	87.996	-19.9306
218.000000	87.902	-19.9290
220.000000	87.855	-19.9214
224.000000	87.762	-19.8888
227.000000	87.693	-19.8476
230.000000	87.626	-19.7892
233.000000	87.560	-19.7103
236.000000	87.497	-19.6133
240.000000	87.419	-19.4662
243.000000	87.366	-19.3547
247.000000	87.299	-19.2200
250.000000	87.251	-19.1294
254.000000	87.188	-19.0147
258.000000	87.125	-18.8958
262.000000	87.065	-18.7679
265.000000	87.023	-18.6750
269.000000	86.968	-18.5684
272.000000	86.927	-18.5064
276.000000	86.869	-18.4404
280.000000	86.808	-18.3686
285.000000	86.728	-18.2502
290.000000	86.648	-18.0990
295.000000	86.569	-17.9207
300.000000	86.492	-17.7260
304.000000	86.433	-17.5535
307.000000	86.389	-17.4159
311.000000	86.331	-17.2269
315.000000	86.273	-17.0332
320.000000	86.203	-16.7840
325.000000	86.136	-16.5290
330.000000	86.071	-16.2629
335.000000	86.007	-15.9865
340.000000	85.945	-15.7027
345.000000	85.883	-15.4136
350.000000	85.821	-15.1191
355.000000	85.760	-14.8179
360.000000	85.701	-14.5137
365.000000	85.644	-14.2061
370.000000	85.587	-13.8931
375.000000	85.532	-13.5731
382.000000	85.457	-13.1179
387.000000	85.405	-12.7869
395.000000	85.325	-12.2515
400.000000	85.277	-11.9095
406.000000	85.222	-11.4900
412.000000	85.168	-11.0655
418.000000	85.116	-10.6373
425.000000	85.058	-10.1332
431.000000	85.010	-9.6975
437.000000	84.964	-9.2560
444.000000	84.913	-8.7389
450.000000	84.870	-8.2934
455.000000	84.835	-7.9184
462.000000	84.788	-7.3839
468.000000	84.749	-6.9212
475.000000	84.706	-6.3795
482.000000	84.665	-5.8359
487.000000	84.637	-5.4462
494.000000	84.600	-4.8984
500.000000	84.569	-4.4234
508.000000	84.530	-3.7817
515.000000	84.499	-3.2156
522.000000	84.468	-2.6471
530.000000	84.435	-1.9937
538.000000	84.403	-1.3385
545.000000	84.375	-0.7635
552.000000	84.347	-0.1836
560.000000	84.319	0.4804
570.000000	84.285	1.3091
580.000000	84.255	2.1507
590.000000	84.228	2.9999
600.000000	84.204	3.8528
608.000000	84.188	4.5371
615.000000	84.177	5.1395
622.000000	84.168	5.7453
630.000000	84.159	6.4373
640.000000	84.151	7.3032
650.000000	84.147	8.1704
660.000000	84.144	9.0377
670.000000	84.143	9.9025
680.000000	84.147	10.7701
690.000000	84.153	11.6443
700.000000	84.163	12.5230
710.000000	84.174	13.4078
720.000000	84.189	14.2968
730.000000	84.208	15.1892
740.000000	84.230	16.0867
750.000000	84.256	16.9888
762.000000	84.290	18.0721
775.000000	84.331	19.2438
788.000000	84.376	20.4214
800.000000	84.424	21.5088
812.000000	84.477	22.6011
825.000000	84.541	23.7864
838.000000	84.611	24.9648
850.000000	84.682	26.0504
862.000000	84.757	27.1370
875.000000	84.843	28.3097
885.000000	84.913	29.2088
900.000000	85.027	30.5516
912.000000	85.125	31.6171
925.000000	85.240	32.7623
938.000000	85.363	33.8955
950.000000	85.483	34.9292
962.000000	85.610	35.9461
975.000000	85.755	37.0233
988.000000	85.907	38.0771
1000.000000	86.055	39.0268
1015.000000	86.251	40.1747
1030.000000	86.459	41.2746
1044.000000	86.664	42.2491
1060.000000	86.908	43.2957
1075.000000	87.143	44.2013
1090.000000	87.383	45.0238
1106.000000	87.649	45.8014
1120.000000	87.892	46.3935
1138.000000	88.213	47.0237
1150.000000	88.431	47.3561
1172.000000	88.835	47.7805
1180.000000	88.984	47.8741
1206.000000	89.470	47.9511
1220.000000	89.738	47.8528
1241.000000	90.142	47.5265
1250.000000	90.312	47.3220
1265.000000	90.591	46.8995
1280.000000	90.862	46.3818
1315.000000	91.456	44.8475
1320.000000	91.536	44.5951
1340.000000	91.844	43.5110
1360.000000	92.136	42.3222
1380.000000	92.412	41.0463
1400.000000	92.670	39.6923
1430.000000	93.020	37.5423
1450.000000	93.233	36.0432
1475.000000	93.480	34.1020
1500.000000	93.709	32.0830
1525.000000	93.920	29.9834
1550.000000	94.107	27.8007
1575.000000	94.272	25.5342
1600.000000	94.415	23.1849
1625.000000	94.536	20.7590
1650.000000	94.634	18.2623
1675.000000	94.708	15.6995
1700.000000	94.760	13.0751
1725.000000	94.790	10.4045
1750.000000	94.800	7.7129
1775.000000	94.791	5.0290
1800.000000	94.765	2.3842
1825.000000	94.725	-0.1872
1850.000000	94.673	-2.6596
1875.000000	94.610	-5.0133
1900.000000	94.537	-7.2325
1925.000000	94.455	-9.3076
1950.000000	94.365	-11.2311
1975.000000	94.271	-13.0017
2000.000000	94.175	-14.6343
2030.000000	94.061	-16.4556
2060.000000	93.945	-18.1876
2090.000000	93.821	-19.8700
2120.000000	93.682	-21.4964
2140.000000	93.579	-22.5260
2180.000000	93.354	-24.3803
2200.000000	93.235	-25.1840
2240.000000	92.992	-26.5324
2270.000000	92.810	-27.3299
2300.000000	92.629	-27.9572
2330.000000	92.450	-28.4226
2360.000000	92.277	-28.7301
2400.000000	92.058	-28.9062
2430.000000	91.909	-28.8841
2470.000000	91.731	-28.6764
2500.000000	91.615	-28.3949
2540.000000	91.491	-27.8812
2580.000000	91.406	-27.2794
2620.000000	91.361	-26.6903
2650.000000	91.353	-26.3097
2690.000000	91.373	-25.9473
2720.000000	91.404	-25.8339
2760.000000	91.459	-25.9473
2800.000000	91.517	-26.4015
2850.000000	91.567	-27.4444
2900.000000	91.568	-28.8701
2950.000000	91.513	-30.4122
3000.000000	91.409	-31.8122
3040.000000	91.307	-32.6899
3070.000000	91.228	-33.1700
3110.000000	91.130	-33.5795
3150.000000	91.049	-33.7607
3200.000000	90.978	-33.7530
3250.000000	90.946	-33.5783
3300.000000	90.953	-33.3216
3350.000000	90.996	-33.0552
3400.000000	91.071	-32.8298
3450.000000	91.174	-32.6872
3500.000000	91.297	-32.6667
3550.000000	91.434	-32.7962
3600.000000	91.578	-33.0949
3650.000000	91.724	-33.6002
3700.000000	91.867	-34.3790
3750.000000	92.001	-35.5149
3820.000000	92.150	-37.8530
3870.000000	92.209	-40.1300
3950.000000	92.165	-44.8726
4000.000000	92.024	-48.4352
4060.000000	91.728	-53.0543
4120.000000	91.297	-57.6871
4180.000000	90.754	-61.9628
4250.000000	90.017	-66.1248
4310.000000	89.333	-68.7951
4370.000000	88.631	-70.5876
4440.000000	87.822	-71.6300
4500.000000	87.157	-71.7275
4550.000000	86.633	-71.3323
4620.000000	85.959	-70.1787
4680.000000	85.447	-68.7696
4750.000000	84.937	-66.8220
4820.000000	84.521	-64.7425
4870.000000	84.277	-63.3185
4940.000000	83.996	-61.6418
5000.000000	83.786	-60.6726
5080.000000	83.479	-60.1714
5150.000000	83.103	-60.2824
5220.000000	82.574	-60.3918
5300.000000	81.775	-59.7528
5380.000000	80.824	-57.6593
5450.000000	79.929	-54.3680
5520.000000	79.029	-49.6092
5600.000000	78.057	-42.1915
5700.000000	77.156	-29.4104
5800.000000	77.279	-14.0475
5900.000000	78.592	-2.8310
6000.000000	79.783	-0.4977
6080.000000	80.101	-1.4017
6150.000000	80.110	-1.4391
6220.000000	80.040	-0.5967
6300.000000	79.916	1.1883
6400.000000	79.723	4.4639
6500.000000	79.556	8.6269
6600.000000	79.461	13.3784
6700.000000	79.454	18.4462
6800.000000	79.539	23.6449
6900.000000	79.720	28.8289
7000.000000	79.993	33.8717
7100.000000	80.345	38.6430
7200.000000	80.757	42.9711
7300.000000	81.185	46.8109
7400.000000	81.608	50.4200
7500.000000	82.063	54.0230
7620.000000	82.689	58.0688
7750.000000	83.421	61.7555
7880.000000	84.196	64.6540
8000.000000	84.957	66.4646
8120.000000	85.742	67.1535
8250.000000	86.542	66.3315
8380.000000	87.187	63.9671
8500.000000	87.582	60.8896
8620.000000	87.769	57.5596
8750.000000	87.769	54.3136
8850.000000	87.673	52.3577
9000.000000	87.478	50.4041
9120.000000	87.355	49.4984
9250.000000	87.317	48.6369
9380.000000	87.376	47.1802
9500.000000	87.460	44.6974
9620.000000	87.458	40.7994
9750.000000	87.218	35.4400
9880.000000	86.676	30.0078
10000.000000	85.946	25.7319
10150.000000	84.826	21.7764
10300.000000	83.575	19.1319
10440.000000	82.322	17.4838
10600.000000	80.755	16.5423
10750.000000	79.127	17.0786
10900.000000	77.391	19.5069
11060.000000	75.538	24.2205
11200.000000	74.019	29.7115
11380.000000	72.278	37.7858
11500.000000	71.247	43.4423
11720.000000	69.585	53.7947
11800.000000	69.037	57.3949
12060.000000	67.342	67.7373
12200.000000	66.401	72.0343
12410.000000	64.755	76.2157
12500.000000	63.881	77.0110
12650.000000	62.063	76.0476
12800.000000	59.636	68.2691
13150.000000	57.139	-15.9439
13200.000000	58.398	-31.3391
13400.000000	63.590	-73.9384
13600.000000	67.259	-94.6788
13800.000000	69.373	-109.9194
14000.000000	70.155	-122.0818
14300.000000	69.745	-129.9512
14500.000000	69.128	-128.5058
14750.000000	68.471	-121.8300
15000.000000	68.232	-111.9669
15250.000000	68.467	-101.4935
15500.000000	69.213	-90.7358
15750.000000	70.735	-82.5940
16000.000000	72.287	-82.3802
16250.000000	72.854	-88.8558
16500.000000	72.277	-93.7419
16750.000000	71.315	-92.5953
17000.000000	70.721	-88.2469
17250.000000	70.493	-84.6258
17500.000000	70.203	-82.9556
17750.000000	69.643	-82.3343
18000.000000	68.787	-81.6053
18250.000000	67.615	-79.2327
18500.000000	66.275	-73.0403
18750.000000	65.397	-63.6745
19000.000000	65.174	-56.2294
19250.000000	64.914	-50.2963
19500.000000	64.815	-43.1238
19750.000000	64.982	-38.2498
20000.000000	64.991	-36.8001
