* Measurement data measured by REW V5.20.5
* Source: Input device not selected, no input selected, L, volume: no control
* Format: 128k Log Swept Sine, 4 sweeps at -17.0 dBFS with no timing reference
* Dated: 2022. 5. 17 ¿ÀÈÄ 10:58:30
* REW Settings:
*  C-weighting compensation: Off
*  Target level: 75.0 dB
* Note: ; 
* Measurement: FinalE_Right
* Smoothing: 1/24 octave
* Frequency Step: 1/48 octave
* Start Frequency: 20.300 Hz
*
* Freq(Hz)	SPL(dB)	Phase(degrees)
20.299999	90.660	-160.7625
20.600000	90.671	-161.0004
20.900000	90.692	-161.4229
21.200001	90.706	-161.8206
21.400000	90.714	-162.0776
21.799999	90.724	-162.6060
22.000000	90.729	-162.8876
22.400000	90.738	-163.4836
22.700001	90.744	-163.9530
23.000000	90.751	-164.4365
23.299999	90.758	-164.9267
23.600000	90.767	-165.4163
24.000000	90.783	-166.0578
24.299999	90.798	-166.5244
24.700001	90.822	-167.1234
25.000000	90.843	-167.5544
25.400000	90.872	-168.1045
25.799999	90.903	-168.6241
26.200001	90.932	-169.1089
26.500000	90.952	-169.4471
26.900000	90.974	-169.8629
27.200001	90.988	-170.1502
27.600000	91.003	-170.5061
28.000000	91.013	-170.8403
28.500000	91.021	-171.2439
29.000000	91.023	-171.6520
29.500000	91.020	-172.0814
30.000000	91.012	-172.5402
30.400000	91.003	-172.9260
30.700001	90.996	-173.2234
31.100000	90.987	-173.6280
31.500000	90.979	-174.0422
32.000000	90.972	-174.5768
32.500000	90.969	-175.1276
33.000000	90.968	-175.6777
33.500000	90.969	-176.2060
34.000000	90.974	-176.7003
34.500000	90.984	-177.1642
35.000000	90.997	-177.6043
35.500000	91.009	-178.0195
36.000000	91.017	-178.4018
36.500000	91.021	-178.7495
37.000000	91.023	-179.0729
37.500000	91.022	-179.3868
38.200001	91.012	-179.8292
38.700001	91.000	179.8476
39.500000	90.976	179.3059
40.000000	90.961	178.9473
40.599998	90.941	178.5027
41.200001	90.924	178.0543
41.799999	90.911	177.6039
42.500000	90.899	177.0749
43.099998	90.891	176.6333
43.700001	90.883	176.2237
44.400002	90.875	175.7894
45.000000	90.869	175.4406
45.500000	90.862	175.1612
46.200001	90.849	174.7900
46.799999	90.835	174.4856
47.500000	90.816	174.1247
48.200001	90.795	173.7468
48.700001	90.777	173.4742
49.400002	90.752	173.0997
50.000000	90.733	172.7805
50.799999	90.712	172.3458
51.500000	90.695	171.9647
52.200001	90.681	171.5959
53.000000	90.666	171.1895
53.799999	90.650	170.7946
54.500000	90.634	170.4588
55.200001	90.615	170.1306
56.000000	90.590	169.7617
57.000000	90.555	169.3059
58.000000	90.519	168.8532
59.000000	90.484	168.4019
60.000000	90.451	167.9511
60.799999	90.425	167.6007
61.500000	90.404	167.3058
62.200001	90.383	167.0179
63.000000	90.358	166.6962
64.000000	90.324	166.3079
65.000000	90.289	165.9255
66.000000	90.252	165.5455
67.000000	90.214	165.1764
68.000000	90.179	164.8105
69.000000	90.144	164.4420
70.000000	90.108	164.0855
71.000000	90.072	163.7518
72.000000	90.036	163.4318
73.000000	90.001	163.1130
74.000000	89.964	162.7993
75.000000	89.929	162.4891
76.199997	89.886	162.1088
77.500000	89.837	161.6938
78.800003	89.786	161.2875
80.000000	89.738	160.9313
81.199997	89.689	160.5863
82.500000	89.637	160.2150
83.800003	89.584	159.8494
85.000000	89.535	159.5228
86.199997	89.485	159.2090
87.500000	89.432	158.8802
88.500000	89.390	158.6343
90.000000	89.327	158.2701
91.199997	89.276	157.9811
92.500000	89.220	157.6721
93.800003	89.164	157.3722
95.000000	89.111	157.1052
96.199997	89.057	156.8437
97.500000	88.998	156.5646
98.800003	88.937	156.2909
100.000000	88.879	156.0457
101.500000	88.806	155.7532
103.000000	88.732	155.4827
104.400002	88.661	155.2408
106.000000	88.573	154.9882
107.500000	88.485	154.7866
109.000000	88.391	154.6276
110.599998	88.287	154.5256
112.000000	88.192	154.5155
113.800003	88.070	154.6644
115.000000	87.997	154.8873
117.199997	87.903	155.5194
118.000000	87.888	155.7780
120.599998	87.903	156.4117
122.000000	87.933	156.5035
124.099998	87.970	156.3119
125.000000	87.976	156.1519
126.500000	87.971	155.8540
128.000000	87.954	155.5633
131.500000	87.890	155.0176
132.000000	87.880	154.9526
134.000000	87.843	154.6973
136.000000	87.808	154.4141
138.000000	87.770	154.0874
140.000000	87.726	153.7328
143.000000	87.645	153.2076
145.000000	87.582	152.8860
147.500000	87.497	152.5194
150.000000	87.410	152.1884
152.500000	87.319	151.9276
155.000000	87.232	151.7339
157.500000	87.146	151.5599
160.000000	87.062	151.3994
162.500000	86.980	151.2422
165.000000	86.901	151.0902
167.500000	86.823	150.9478
170.000000	86.745	150.8133
172.500000	86.665	150.6893
175.000000	86.583	150.5717
177.500000	86.501	150.4674
180.000000	86.419	150.3752
182.500000	86.336	150.2945
185.000000	86.253	150.2267
187.500000	86.170	150.1714
190.000000	86.087	150.1309
192.500000	86.007	150.1021
195.000000	85.927	150.0827
197.500000	85.849	150.0738
200.000000	85.771	150.0800
203.000000	85.676	150.1090
206.000000	85.582	150.1621
209.000000	85.489	150.2384
212.000000	85.399	150.3400
214.000000	85.341	150.4219
218.000000	85.232	150.6093
220.000000	85.181	150.7021
224.000000	85.085	150.8560
227.000000	85.012	150.9437
230.000000	84.935	151.0201
233.000000	84.853	151.1005
236.000000	84.766	151.2063
240.000000	84.645	151.4233
243.000000	84.552	151.6636
247.000000	84.432	152.1189
250.000000	84.351	152.5771
254.000000	84.272	153.3168
258.000000	84.244	154.0660
262.000000	84.261	154.5934
265.000000	84.284	154.7542
269.000000	84.297	154.7050
272.000000	84.282	154.5672
276.000000	84.236	154.3728
280.000000	84.171	154.2352
285.000000	84.075	154.1660
290.000000	83.973	154.1978
295.000000	83.871	154.2978
300.000000	83.768	154.4496
304.000000	83.686	154.5984
307.000000	83.625	154.7238
311.000000	83.544	154.9072
315.000000	83.464	155.1066
320.000000	83.367	155.3750
325.000000	83.273	155.6612
330.000000	83.181	155.9551
335.000000	83.090	156.2597
340.000000	83.002	156.5794
345.000000	82.917	156.9136
350.000000	82.835	157.2572
355.000000	82.754	157.6106
360.000000	82.675	157.9708
365.000000	82.597	158.3364
370.000000	82.521	158.7127
375.000000	82.446	159.0950
382.000000	82.345	159.6356
387.000000	82.276	160.0271
395.000000	82.168	160.6592
400.000000	82.102	161.0602
406.000000	82.024	161.5466
412.000000	81.947	162.0355
418.000000	81.873	162.5272
425.000000	81.789	163.1043
431.000000	81.719	163.6048
437.000000	81.651	164.1127
444.000000	81.573	164.7129
450.000000	81.509	165.2340
455.000000	81.457	165.6719
462.000000	81.387	166.2909
468.000000	81.328	166.8293
475.000000	81.261	167.4642
482.000000	81.196	168.1051
487.000000	81.151	168.5668
494.000000	81.091	169.2126
500.000000	81.041	169.7643
508.000000	80.979	170.5027
515.000000	80.926	171.1476
522.000000	80.875	171.7872
530.000000	80.819	172.5051
538.000000	80.766	173.2006
545.000000	80.722	173.7825
552.000000	80.678	174.3143
560.000000	80.623	174.8177
570.000000	80.512	175.3083
580.000000	80.326	176.0898
590.000000	80.153	177.5917
600.000000	80.070	179.2613
608.000000	80.036	-179.5784
615.000000	80.007	-178.6667
622.000000	79.974	-177.7967
630.000000	79.929	-176.8003
640.000000	79.866	-175.4798
650.000000	79.803	-173.9883
660.000000	79.764	-172.2491
670.000000	79.790	-170.3870
680.000000	79.886	-168.8182
690.000000	79.990	-167.7956
700.000000	80.047	-167.0803
710.000000	80.061	-166.3519
720.000000	80.055	-165.4932
730.000000	80.045	-164.5154
740.000000	80.036	-163.4541
750.000000	80.034	-162.3314
762.000000	80.038	-160.9220
775.000000	80.052	-159.3397
788.000000	80.075	-157.7149
800.000000	80.107	-156.1885
812.000000	80.150	-154.6497
825.000000	80.209	-152.9688
838.000000	80.280	-151.2760
850.000000	80.357	-149.7137
862.000000	80.446	-148.1586
875.000000	80.555	-146.4913
885.000000	80.648	-145.2264
900.000000	80.804	-143.3641
912.000000	80.943	-141.9057
925.000000	81.108	-140.3703
938.000000	81.287	-138.8907
950.000000	81.464	-137.5801
962.000000	81.652	-136.3307
975.000000	81.868	-135.0494
988.000000	82.095	-133.8478
1000.000000	82.314	-132.8181
1015.000000	82.596	-131.6448
1030.000000	82.885	-130.6089
1044.000000	83.159	-129.7762
1060.000000	83.474	-128.9771
1075.000000	83.769	-128.3643
1090.000000	84.059	-127.8820
1106.000000	84.363	-127.5078
1120.000000	84.622	-127.2918
1138.000000	84.945	-127.1496
1150.000000	85.153	-127.1290
1172.000000	85.521	-127.2172
1180.000000	85.651	-127.2832
1206.000000	86.057	-127.5956
1220.000000	86.273	-127.8149
1241.000000	86.590	-128.1926
1250.000000	86.722	-128.3669
1265.000000	86.937	-128.6676
1280.000000	87.147	-128.9777
1315.000000	87.616	-129.7261
1320.000000	87.681	-129.8363
1340.000000	87.935	-130.2870
1360.000000	88.185	-130.7518
1380.000000	88.436	-131.2312
1400.000000	88.689	-131.7276
1430.000000	89.067	-132.5201
1450.000000	89.316	-133.0931
1475.000000	89.626	-133.8695
1500.000000	89.934	-134.7177
1525.000000	90.237	-135.6373
1550.000000	90.530	-136.6396
1575.000000	90.816	-137.7368
1600.000000	91.098	-138.9410
1625.000000	91.376	-140.2524
1650.000000	91.647	-141.6706
1675.000000	91.910	-143.2036
1700.000000	92.162	-144.8642
1725.000000	92.399	-146.6586
1750.000000	92.620	-148.5835
1775.000000	92.820	-150.6336
1800.000000	92.997	-152.7993
1825.000000	93.147	-155.0665
1850.000000	93.269	-157.4225
1875.000000	93.359	-159.8479
1900.000000	93.416	-162.3129
1925.000000	93.438	-164.7832
1950.000000	93.427	-167.2218
1975.000000	93.384	-169.5965
2000.000000	93.311	-171.8807
2030.000000	93.187	-174.4699
2060.000000	93.029	-176.8657
2090.000000	92.841	-179.0389
2120.000000	92.629	179.0373
2140.000000	92.477	177.9012
2180.000000	92.155	175.9823
2200.000000	91.985	175.1977
2240.000000	91.639	173.9914
2270.000000	91.381	173.4219
2300.000000	91.136	173.1441
2330.000000	90.917	173.1310
2360.000000	90.738	173.2956
2400.000000	90.568	173.5318
2430.000000	90.474	173.5555
2470.000000	90.356	173.3514
2500.000000	90.256	173.1240
2540.000000	90.107	172.8771
2580.000000	89.951	172.7816
2620.000000	89.799	172.8561
2650.000000	89.693	173.0107
2690.000000	89.564	173.3286
2720.000000	89.480	173.6446
2760.000000	89.385	174.1540
2800.000000	89.310	174.7378
2850.000000	89.244	175.5215
2900.000000	89.208	176.3212
2950.000000	89.200	177.1067
3000.000000	89.219	177.8580
3040.000000	89.250	178.4272
3070.000000	89.282	178.8365
3110.000000	89.338	179.3600
3150.000000	89.411	179.8592
3200.000000	89.533	-179.5608
3250.000000	89.697	-179.0809
3300.000000	89.898	-178.7858
3350.000000	90.129	-178.7430
3400.000000	90.381	-178.9951
3450.000000	90.642	-179.5672
3500.000000	90.899	179.5524
3550.000000	91.142	178.4351
3600.000000	91.369	177.1844
3650.000000	91.594	175.8638
3700.000000	91.839	174.4077
3750.000000	92.114	172.6138
3820.000000	92.509	169.1238
3870.000000	92.746	165.8069
3950.000000	92.947	159.2647
4000.000000	92.926	154.6719
4060.000000	92.733	149.0204
4120.000000	92.364	143.6112
4180.000000	91.847	138.7937
4250.000000	91.107	134.1755
4310.000000	90.397	131.1378
4370.000000	89.652	128.9274
4440.000000	88.769	127.3212
4500.000000	88.024	126.7004
4550.000000	87.425	126.6547
4620.000000	86.632	127.1954
4680.000000	85.999	128.0940
4750.000000	85.313	129.5102
4820.000000	84.680	131.2339
4870.000000	84.257	132.6218
4940.000000	83.704	134.7455
5000.000000	83.266	136.7076
5080.000000	82.730	139.4916
5150.000000	82.307	142.0427
5220.000000	81.924	144.6516
5300.000000	81.533	147.6714
5380.000000	81.190	150.7349
5450.000000	80.922	153.4492
5520.000000	80.681	156.1955
5600.000000	80.437	159.3665
5700.000000	80.176	163.3775
5800.000000	79.962	167.4882
5900.000000	79.801	171.7407
6000.000000	79.698	176.1423
6080.000000	79.658	179.7335
6150.000000	79.658	-177.0984
6220.000000	79.690	-173.9137
6300.000000	79.767	-170.2617
6400.000000	79.923	-165.6913
6500.000000	80.147	-161.1357
6600.000000	80.444	-156.6214
6700.000000	80.819	-152.1736
6800.000000	81.278	-147.8243
6900.000000	81.825	-143.6046
7000.000000	82.474	-139.5614
7100.000000	83.242	-135.7782
7200.000000	84.145	-132.3791
7300.000000	85.203	-129.5320
7400.000000	86.439	-127.4976
7500.000000	87.865	-126.7190
7620.000000	89.773	-128.4332
7750.000000	91.850	-135.1118
7880.000000	93.508	-147.9558
8000.000000	94.228	-164.2709
8120.000000	93.969	179.2042
8250.000000	92.833	165.9694
8380.000000	91.361	158.8414
8500.000000	90.104	156.2645
8620.000000	89.110	155.9774
8750.000000	88.372	157.0379
8850.000000	88.041	158.2776
9000.000000	87.925	160.0829
9120.000000	88.159	160.8451
9250.000000	88.725	160.0949
9380.000000	89.526	156.4434
9500.000000	90.256	149.2018
9620.000000	90.646	137.7654
9750.000000	90.330	122.5372
9880.000000	89.130	108.6216
10000.000000	87.409	99.8836
10150.000000	84.887	94.9909
10300.000000	82.401	95.0446
10440.000000	80.319	97.9147
10600.000000	78.271	103.2607
10750.000000	76.638	109.6160
10900.000000	75.240	117.0427
11060.000000	73.991	126.1451
11200.000000	73.128	135.1786
11380.000000	72.450	148.1831
11500.000000	72.377	157.3078
11720.000000	73.171	172.4650
11800.000000	73.682	176.6529
12060.000000	75.404	-176.1223
12200.000000	76.117	-174.9734
12410.000000	76.953	-173.8123
12500.000000	77.310	-173.1511
12650.000000	78.019	-171.9743
12800.000000	78.955	-171.2977
13150.000000	81.989	-177.7663
13200.000000	82.423	179.6066
13400.000000	83.639	163.6808
13600.000000	83.514	143.1281
13800.000000	82.026	127.0010
14000.000000	79.862	119.3796
14300.000000	76.964	118.8204
14500.000000	75.749	121.4266
14750.000000	75.082	124.6226
15000.000000	75.227	124.9743
15250.000000	75.793	118.7540
15500.000000	75.867	103.9461
15750.000000	74.592	86.7336
16000.000000	72.093	76.1827
16250.000000	69.182	73.4147
16500.000000	66.465	75.9682
16750.000000	64.230	81.6851
17000.000000	62.607	88.6218
17250.000000	61.673	94.9635
17500.000000	61.452	98.1683
17750.000000	61.594	94.3072
18000.000000	61.173	81.3746
18250.000000	59.316	65.9249
18500.000000	55.886	58.7415
18750.000000	51.358	64.3305
19000.000000	46.389	81.4592
19250.000000	41.695	107.9236
19500.000000	38.316	140.2857
19750.000000	37.237	171.2211
20000.000000	37.414	-170.7552
