* Measurement data measured by REW V5.20.5
* Source: Input device not selected, no input selected, L, volume: no control
* Format: 128k Log Swept Sine, 4 sweeps at -17.0 dBFS with no timing reference
* Dated: 2022. 5. 17 ¿ÀÈÄ 10:31:55
* REW Settings:
*  C-weighting compensation: Off
*  Target level: 75.0 dB
* Note: ; 
* Measurement: Orza_EtyGreen_R
* Smoothing: 1/24 octave
* Frequency Step: 1/48 octave
* Start Frequency: 20.300 Hz
*
* Freq(Hz)	SPL(dB)	Phase(degrees)
20.299999	82.913	11.9705
20.600000	82.928	11.9168
20.900000	82.957	11.8211
21.200001	82.978	11.7289
21.400000	82.987	11.6667
21.799999	82.998	11.5330
22.000000	83.001	11.4596
22.400000	83.005	11.3014
22.700001	83.006	11.1715
23.000000	83.009	11.0273
23.299999	83.013	10.8664
23.600000	83.018	10.6903
24.000000	83.027	10.4394
24.299999	83.036	10.2463
24.700001	83.051	9.9880
25.000000	83.066	9.7926
25.400000	83.088	9.5260
25.799999	83.112	9.2532
26.200001	83.134	8.9873
26.500000	83.148	8.8049
26.900000	83.165	8.5971
27.200001	83.176	8.4696
27.600000	83.192	8.3293
28.000000	83.209	8.2061
28.500000	83.229	8.0552
29.000000	83.245	7.9019
29.500000	83.255	7.7534
30.000000	83.261	7.6133
30.400000	83.266	7.5023
30.700001	83.270	7.4158
31.100000	83.275	7.2914
31.500000	83.280	7.1528
32.000000	83.285	6.9579
32.500000	83.290	6.7443
33.000000	83.293	6.5267
33.500000	83.295	6.3202
34.000000	83.300	6.1300
34.500000	83.311	5.9474
35.000000	83.326	5.7625
35.500000	83.340	5.5765
36.000000	83.352	5.4027
36.500000	83.363	5.2529
37.000000	83.374	5.1249
37.500000	83.386	5.0055
38.200001	83.398	4.8288
38.700001	83.403	4.6915
39.500000	83.404	4.4683
40.000000	83.400	4.3402
40.599998	83.397	4.2044
41.200001	83.397	4.0726
41.799999	83.401	3.9181
42.500000	83.407	3.7007
43.099998	83.411	3.5066
43.700001	83.414	3.3244
44.400002	83.419	3.1288
45.000000	83.424	2.9778
45.500000	83.429	2.8632
46.200001	83.439	2.6998
46.799999	83.447	2.5380
47.500000	83.449	2.3409
48.200001	83.444	2.1757
48.700001	83.441	2.0835
49.400002	83.438	1.9714
50.000000	83.439	1.8727
50.799999	83.441	1.7235
51.500000	83.443	1.5777
52.200001	83.443	1.4298
53.000000	83.443	1.2740
53.799999	83.444	1.1235
54.500000	83.444	0.9786
55.200001	83.441	0.8278
56.000000	83.435	0.6616
57.000000	83.423	0.4439
58.000000	83.401	0.2946
59.000000	83.397	0.2510
60.000000	83.415	0.0681
60.799999	83.418	-0.1698
61.500000	83.413	-0.3404
62.200001	83.410	-0.4657
63.000000	83.410	-0.5904
64.000000	83.411	-0.7366
65.000000	83.411	-0.8744
66.000000	83.411	-1.0052
67.000000	83.412	-1.1472
68.000000	83.410	-1.3125
69.000000	83.407	-1.4952
70.000000	83.402	-1.6883
71.000000	83.396	-1.8730
72.000000	83.391	-2.0525
73.000000	83.385	-2.2244
74.000000	83.380	-2.3812
75.000000	83.373	-2.5331
76.199997	83.363	-2.7026
77.500000	83.350	-2.8653
78.800003	83.336	-3.0267
80.000000	83.324	-3.1737
81.199997	83.316	-3.3205
82.500000	83.308	-3.5170
83.800003	83.297	-3.7202
85.000000	83.285	-3.8891
86.199997	83.273	-4.0469
87.500000	83.261	-4.2058
88.500000	83.252	-4.3270
90.000000	83.238	-4.5137
91.199997	83.225	-4.6637
92.500000	83.211	-4.8240
93.800003	83.197	-4.9795
95.000000	83.184	-5.1192
96.199997	83.172	-5.2601
97.500000	83.157	-5.4110
98.800003	83.141	-5.5541
100.000000	83.127	-5.6811
101.500000	83.108	-5.8361
103.000000	83.090	-5.9890
104.400002	83.071	-6.1310
106.000000	83.049	-6.2864
107.500000	83.027	-6.4204
109.000000	83.005	-6.5469
110.599998	82.982	-6.6807
112.000000	82.959	-6.7939
113.800003	82.930	-6.9297
115.000000	82.911	-7.0209
117.199997	82.870	-7.1828
118.000000	82.854	-7.2327
120.599998	82.802	-7.3511
122.000000	82.774	-7.3985
124.099998	82.727	-7.4396
125.000000	82.704	-7.4354
126.500000	82.666	-7.3919
128.000000	82.629	-7.3060
131.500000	82.550	-6.8824
132.000000	82.541	-6.7840
134.000000	82.520	-6.2868
136.000000	82.533	-5.6848
138.000000	82.594	-5.1219
140.000000	82.701	-4.7793
143.000000	82.891	-4.9878
145.000000	82.985	-5.5736
147.500000	83.052	-6.4941
150.000000	83.082	-7.4022
152.500000	83.061	-8.1666
155.000000	83.004	-8.6545
157.500000	82.943	-9.0735
160.000000	82.889	-9.4833
162.500000	82.838	-9.8136
165.000000	82.786	-10.0613
167.500000	82.739	-10.2861
170.000000	82.698	-10.5036
172.500000	82.657	-10.6918
175.000000	82.613	-10.8419
177.500000	82.568	-10.9943
180.000000	82.527	-11.1450
182.500000	82.489	-11.2756
185.000000	82.452	-11.3829
187.500000	82.417	-11.4718
190.000000	82.380	-11.5535
192.500000	82.342	-11.6190
195.000000	82.307	-11.6924
197.500000	82.271	-11.7779
200.000000	82.236	-11.8579
203.000000	82.197	-11.9450
206.000000	82.155	-12.0205
209.000000	82.108	-12.0439
212.000000	82.067	-12.0403
214.000000	82.042	-12.0427
218.000000	81.997	-12.0539
220.000000	81.977	-12.0753
224.000000	81.937	-12.0778
227.000000	81.899	-11.9927
230.000000	81.862	-11.9411
233.000000	81.830	-12.0008
236.000000	81.797	-12.0342
240.000000	81.741	-11.9772
243.000000	81.702	-11.9075
247.000000	81.695	-11.8553
250.000000	81.697	-11.8173
254.000000	81.686	-11.7276
258.000000	81.670	-11.6322
262.000000	81.643	-11.5399
265.000000	81.611	-11.4295
269.000000	81.593	-11.2977
272.000000	81.607	-11.3184
276.000000	81.626	-11.4183
280.000000	81.633	-11.5690
285.000000	81.627	-11.8094
290.000000	81.599	-12.0421
295.000000	81.557	-12.2740
300.000000	81.510	-12.4854
304.000000	81.470	-12.6529
307.000000	81.439	-12.7113
311.000000	81.395	-12.6878
315.000000	81.351	-12.6663
320.000000	81.296	-12.6684
325.000000	81.244	-12.6561
330.000000	81.197	-12.6281
335.000000	81.151	-12.5942
340.000000	81.105	-12.5452
345.000000	81.062	-12.4849
350.000000	81.022	-12.4219
355.000000	80.983	-12.3540
360.000000	80.946	-12.2854
365.000000	80.909	-12.2210
370.000000	80.871	-12.1558
375.000000	80.832	-12.0868
382.000000	80.779	-11.9847
387.000000	80.743	-11.9069
395.000000	80.687	-11.7703
400.000000	80.652	-11.6772
406.000000	80.611	-11.5648
412.000000	80.570	-11.4511
418.000000	80.530	-11.3308
425.000000	80.484	-11.1874
431.000000	80.446	-11.0625
437.000000	80.408	-10.9299
444.000000	80.365	-10.7674
450.000000	80.329	-10.6248
455.000000	80.299	-10.5003
462.000000	80.259	-10.3212
468.000000	80.226	-10.1622
475.000000	80.188	-9.9716
482.000000	80.151	-9.7746
487.000000	80.125	-9.6284
494.000000	80.089	-9.4220
500.000000	80.059	-9.2475
508.000000	80.020	-9.0139
515.000000	79.987	-8.8046
522.000000	79.954	-8.5909
530.000000	79.918	-8.3459
538.000000	79.881	-8.0986
545.000000	79.848	-7.8787
552.000000	79.814	-7.6540
560.000000	79.776	-7.3923
570.000000	79.729	-7.0547
580.000000	79.684	-6.7033
590.000000	79.641	-6.3396
600.000000	79.600	-5.9688
608.000000	79.568	-5.6652
615.000000	79.541	-5.3930
622.000000	79.515	-5.1153
630.000000	79.486	-4.7935
640.000000	79.451	-4.3850
650.000000	79.419	-3.9714
660.000000	79.388	-3.5531
670.000000	79.359	-3.1324
680.000000	79.330	-2.7124
690.000000	79.304	-2.2889
700.000000	79.279	-1.8596
710.000000	79.257	-1.4254
720.000000	79.236	-0.9876
730.000000	79.218	-0.5447
740.000000	79.202	-0.0942
750.000000	79.188	0.3644
762.000000	79.174	0.9272
775.000000	79.161	1.5448
788.000000	79.151	2.1704
800.000000	79.145	2.7544
812.000000	79.143	3.3370
825.000000	79.144	3.9620
838.000000	79.151	4.5818
850.000000	79.162	5.1468
862.000000	79.175	5.7002
875.000000	79.192	6.2856
885.000000	79.207	6.7226
900.000000	79.235	7.3557
912.000000	79.262	7.8482
925.000000	79.293	8.3604
938.000000	79.329	8.8502
950.000000	79.365	9.2856
962.000000	79.403	9.7055
975.000000	79.448	10.1414
988.000000	79.497	10.5548
1000.000000	79.543	10.9174
1015.000000	79.603	11.3413
1030.000000	79.663	11.7307
1044.000000	79.720	12.0654
1060.000000	79.784	12.4103
1075.000000	79.843	12.6944
1090.000000	79.899	12.9410
1106.000000	79.955	13.1640
1120.000000	80.003	13.3289
1138.000000	80.060	13.5041
1150.000000	80.096	13.6006
1172.000000	80.159	13.7466
1180.000000	80.180	13.7920
1206.000000	80.249	13.9120
1220.000000	80.290	13.9645
1241.000000	80.356	14.0397
1250.000000	80.384	14.0737
1265.000000	80.428	14.1363
1280.000000	80.471	14.2057
1315.000000	80.563	14.3905
1320.000000	80.575	14.4186
1340.000000	80.622	14.5349
1360.000000	80.667	14.6592
1380.000000	80.715	14.7942
1400.000000	80.766	14.9378
1430.000000	80.842	15.1641
1450.000000	80.892	15.3215
1475.000000	80.954	15.5207
1500.000000	81.014	15.7254
1525.000000	81.070	15.9476
1550.000000	81.119	16.1860
1575.000000	81.164	16.4380
1600.000000	81.210	16.7015
1625.000000	81.258	16.9790
1650.000000	81.308	17.2757
1675.000000	81.361	17.5933
1700.000000	81.417	17.9220
1725.000000	81.476	18.2481
1750.000000	81.537	18.5697
1775.000000	81.601	18.8868
1800.000000	81.667	19.1985
1825.000000	81.736	19.4983
1850.000000	81.808	19.7807
1875.000000	81.881	20.0403
1900.000000	81.957	20.2767
1925.000000	82.034	20.4933
1950.000000	82.113	20.6969
1975.000000	82.193	20.8916
2000.000000	82.275	21.0732
2030.000000	82.376	21.2669
2060.000000	82.480	21.4336
2090.000000	82.586	21.5771
2120.000000	82.696	21.7043
2140.000000	82.772	21.7781
2180.000000	82.924	21.8854
2200.000000	83.001	21.9108
2240.000000	83.152	21.8981
2270.000000	83.265	21.8356
2300.000000	83.374	21.7339
2330.000000	83.481	21.6020
2360.000000	83.585	21.4424
2400.000000	83.720	21.1721
2430.000000	83.816	20.9323
2470.000000	83.941	20.5881
2500.000000	84.039	20.3226
2540.000000	84.178	19.9153
2580.000000	84.321	19.3700
2620.000000	84.454	18.6646
2650.000000	84.541	18.0566
2690.000000	84.636	17.1905
2720.000000	84.692	16.5314
2760.000000	84.746	15.6741
2800.000000	84.776	14.8722
2850.000000	84.779	14.0383
2900.000000	84.771	13.5005
2950.000000	84.785	13.1988
3000.000000	84.835	12.9165
3040.000000	84.894	12.5817
3070.000000	84.941	12.2442
3110.000000	85.000	11.6831
3150.000000	85.049	11.0200
3200.000000	85.095	10.1149
3250.000000	85.125	9.1952
3300.000000	85.138	8.2951
3350.000000	85.138	7.4354
3400.000000	85.128	6.6285
3450.000000	85.110	5.8779
3500.000000	85.087	5.1907
3550.000000	85.059	4.5859
3600.000000	85.028	4.0668
3650.000000	84.995	3.6110
3700.000000	84.962	3.2028
3750.000000	84.929	2.8397
3820.000000	84.886	2.3964
3870.000000	84.857	2.1137
3950.000000	84.815	1.6769
4000.000000	84.792	1.3787
4060.000000	84.764	0.9661
4120.000000	84.737	0.5085
4180.000000	84.709	0.0377
4250.000000	84.676	-0.5209
4310.000000	84.646	-1.0145
4370.000000	84.612	-1.5238
4440.000000	84.562	-2.1323
4500.000000	84.510	-2.6409
4550.000000	84.460	-3.0305
4620.000000	84.383	-3.4962
4680.000000	84.311	-3.8302
4750.000000	84.218	-4.1748
4820.000000	84.119	-4.4820
4870.000000	84.042	-4.6749
4940.000000	83.927	-4.9011
5000.000000	83.822	-5.0485
5080.000000	83.674	-5.1673
5150.000000	83.538	-5.2011
5220.000000	83.397	-5.1806
5300.000000	83.231	-5.0662
5380.000000	83.067	-4.8067
5450.000000	82.926	-4.4451
5520.000000	82.791	-3.9594
5600.000000	82.646	-3.2635
5700.000000	82.486	-2.1984
5800.000000	82.354	-0.9343
5900.000000	82.252	0.5652
6000.000000	82.189	2.3389
6080.000000	82.175	3.9113
6150.000000	82.197	5.3553
6220.000000	82.253	6.8399
6300.000000	82.359	8.5581
6400.000000	82.557	10.6874
6500.000000	82.835	12.7254
6600.000000	83.196	14.5800
6700.000000	83.646	16.1320
6800.000000	84.185	17.2317
6900.000000	84.808	17.6968
7000.000000	85.505	17.3026
7100.000000	86.252	15.7797
7200.000000	86.998	12.8469
7300.000000	87.666	8.3172
7400.000000	88.159	2.2720
7500.000000	88.394	-4.8154
7620.000000	88.284	-13.5966
7750.000000	87.735	-21.9554
7880.000000	86.908	-28.1268
8000.000000	86.071	-31.9254
8120.000000	85.266	-34.4231
8250.000000	84.462	-36.2574
8380.000000	83.710	-37.5657
8500.000000	83.032	-38.3977
8620.000000	82.351	-38.7928
8750.000000	81.611	-38.6094
8850.000000	81.053	-37.9951
9000.000000	80.264	-36.3158
9120.000000	79.696	-34.3782
9250.000000	79.167	-31.7950
9380.000000	78.740	-28.8594
9500.000000	78.442	-25.9738
9620.000000	78.235	-23.0177
9750.000000	78.114	-19.8034
9880.000000	78.097	-16.5965
10000.000000	78.165	-13.6876
10150.000000	78.359	-10.2637
10300.000000	78.674	-7.2304
10440.000000	79.082	-4.8993
10600.000000	79.683	-3.0515
10750.000000	80.371	-2.4114
10900.000000	81.151	-3.2226
11060.000000	82.008	-6.2040
11200.000000	82.665	-10.9436
11380.000000	83.169	-19.8559
11500.000000	83.186	-26.9201
11720.000000	82.478	-39.3875
11800.000000	82.018	-43.0813
12060.000000	80.128	-50.6304
12200.000000	79.034	-52.0877
12410.000000	77.487	-51.7423
12500.000000	76.883	-50.9110
12650.000000	75.971	-48.9052
12800.000000	75.177	-46.3497
13150.000000	73.786	-39.0457
13200.000000	73.639	-37.9012
13400.000000	73.175	-33.2172
13600.000000	72.904	-28.5474
13800.000000	72.819	-24.1013
14000.000000	72.906	-20.0500
14300.000000	73.337	-14.9931
14500.000000	73.813	-12.5231
14750.000000	74.600	-10.7063
15000.000000	75.601	-10.3706
15250.000000	76.928	-11.5946
15500.000000	78.854	-15.1888
15750.000000	81.519	-23.8816
16000.000000	84.449	-43.5100
16250.000000	86.224	-81.6340
16500.000000	85.281	-130.7585
16750.000000	81.349	-165.0099
17000.000000	75.686	-178.4948
17250.000000	69.915	178.1235
17500.000000	64.776	179.5371
17750.000000	60.056	-172.8231
18000.000000	55.686	-155.3188
18250.000000	53.483	-134.7893
18500.000000	53.873	-130.7290
18750.000000	53.294	-144.1640
19000.000000	50.685	-156.7823
19250.000000	46.670	-160.6224
19500.000000	42.042	-159.0067
19750.000000	37.446	-156.5270
20000.000000	34.279	-155.6586
