* Measurement data measured by REW V5.20.7
* Source: Input device not selected, no input selected, L, volume: no control
* Format: 128k Log Swept Sine, 1 sweep at -12.0 dBFS with no timing reference
* Dated: 2022. 5. 1 ¿ÀÈÄ 6:23:02
* REW Settings:
*  C-weighting compensation: Off
*  Target level: 75.0 dB
* Note: 
* Measurement: L
* Smoothing: 1/24 octave
* Frequency Step: 1/48 octave
* Start Frequency: 20.300 Hz
*
* Freq(Hz)	SPL(dB)	Phase(degrees)
20.299999	80.321	33.8067
20.600000	80.572	33.5375
20.900000	81.009	32.6501
21.200001	81.277	30.8237
21.400000	81.354	29.3726
21.799999	81.317	26.6476
22.000000	81.241	25.6467
22.400000	81.071	24.4830
22.700001	80.990	23.9854
23.000000	80.958	23.3361
23.299999	80.927	22.2844
23.600000	80.841	20.9057
24.000000	80.586	19.0611
24.299999	80.293	18.2444
24.700001	79.850	18.4524
25.000000	79.574	19.5881
25.400000	79.390	21.9244
25.799999	79.459	24.3389
26.200001	79.729	26.1111
26.500000	80.012	26.7868
26.900000	80.430	26.7057
27.200001	80.726	25.9300
27.600000	81.040	24.1347
28.000000	81.216	21.9445
28.500000	81.252	19.5734
29.000000	81.190	18.3024
29.500000	81.151	18.0029
30.000000	81.175	18.0779
30.400000	81.216	18.1726
30.700001	81.248	18.2576
31.100000	81.294	18.3808
31.500000	81.343	18.4394
32.000000	81.386	18.3025
32.500000	81.383	17.9847
33.000000	81.335	17.6488
33.500000	81.263	17.3085
34.000000	81.176	16.9293
34.500000	81.092	16.6109
35.000000	81.064	16.3000
35.500000	81.110	15.5167
36.000000	81.140	13.9966
36.500000	81.062	12.4615
37.000000	80.960	12.0334
37.500000	81.042	12.5390
38.200001	81.412	12.1378
38.700001	81.503	11.1332
39.500000	81.554	14.2006
40.000000	82.261	18.0868
40.599998	83.569	18.4706
41.200001	84.308	12.1321
41.799999	84.046	4.6549
42.500000	82.857	2.7314
43.099998	82.057	6.6168
43.700001	81.885	9.9618
44.400002	81.798	10.7908
45.000000	81.546	11.1175
45.500000	81.383	11.7446
46.200001	81.339	11.8947
46.799999	81.337	10.9575
47.500000	81.307	10.0049
48.200001	81.484	10.0066
48.700001	81.834	9.7207
49.400002	82.376	7.2034
50.000000	82.534	3.7065
50.799999	82.236	1.3921
51.500000	82.012	2.8885
52.200001	82.084	4.5981
53.000000	82.116	5.1200
53.799999	81.997	5.7780
54.500000	81.902	6.0118
55.200001	81.690	5.7574
56.000000	81.386	6.5029
57.000000	81.389	7.0305
58.000000	81.299	5.1985
59.000000	81.111	5.7491
60.000000	81.377	6.3336
60.799999	81.487	5.1691
61.500000	81.391	4.6837
62.200001	81.283	5.2342
63.000000	81.253	6.2015
64.000000	81.313	7.0240
65.000000	81.492	6.8037
66.000000	81.625	4.5917
67.000000	81.456	2.1554
68.000000	81.236	2.1959
69.000000	81.350	3.2532
70.000000	81.564	3.3552
71.000000	81.653	3.4037
72.000000	81.666	4.0108
73.000000	81.666	4.9370
74.000000	81.655	5.3617
75.000000	81.503	5.2804
76.199997	81.238	5.7334
77.500000	81.061	5.9143
78.800003	80.993	5.6843
80.000000	81.035	4.5340
81.199997	80.998	3.1472
82.500000	80.972	2.4319
83.800003	81.023	1.9866
85.000000	81.080	1.2409
86.199997	81.042	0.5109
87.500000	81.004	0.5354
88.500000	81.048	0.7078
90.000000	81.138	1.0050
91.199997	81.245	1.6938
92.500000	81.438	1.9937
93.800003	81.435	1.2544
95.000000	81.239	1.4290
96.199997	81.138	2.4420
97.500000	81.249	3.3082
98.800003	81.453	3.0998
100.000000	81.535	2.9417
101.500000	81.658	4.4211
103.000000	81.967	5.7172
104.400002	82.140	4.8410
106.000000	82.055	2.7626
107.500000	81.991	0.9570
109.000000	82.120	-0.7711
110.599998	82.291	-2.6215
112.000000	82.213	-3.2887
113.800003	81.928	-2.3026
115.000000	81.760	-2.3048
117.199997	81.606	-6.8696
118.000000	81.563	-10.1308
120.599998	80.858	-13.5328
122.000000	81.034	-9.0143
124.099998	81.617	-5.5308
125.000000	81.715	-4.8166
126.500000	81.701	-4.0171
128.000000	81.607	-3.7359
131.500000	81.585	-4.9542
132.000000	81.599	-5.1268
134.000000	81.627	-5.4279
136.000000	81.598	-5.3167
138.000000	81.569	-5.3153
140.000000	81.544	-5.8219
143.000000	81.449	-6.3079
145.000000	81.422	-6.4098
147.500000	81.438	-6.6207
150.000000	81.453	-6.7174
152.500000	81.434	-6.6921
155.000000	81.409	-6.7974
157.500000	81.420	-7.0741
160.000000	81.434	-7.1898
162.500000	81.441	-7.1816
165.000000	81.428	-7.5754
167.500000	81.394	-7.9042
170.000000	81.381	-8.0452
172.500000	81.368	-7.9507
175.000000	81.391	-8.1580
177.500000	81.393	-8.8504
180.000000	81.385	-9.4020
182.500000	81.380	-9.5320
185.000000	81.371	-9.4444
187.500000	81.355	-9.5972
190.000000	81.313	-9.9398
192.500000	81.284	-10.0204
195.000000	81.286	-10.0534
197.500000	81.281	-10.3048
200.000000	81.242	-10.7079
203.000000	81.187	-10.8654
206.000000	81.170	-10.7632
209.000000	81.137	-10.8185
212.000000	81.081	-11.0145
214.000000	81.077	-11.2145
218.000000	81.103	-11.8138
220.000000	81.088	-11.9919
224.000000	81.049	-12.1648
227.000000	81.039	-12.3481
230.000000	81.016	-12.3959
233.000000	80.992	-12.4581
236.000000	80.976	-12.5221
240.000000	80.969	-12.3702
243.000000	80.923	-12.2767
247.000000	80.832	-11.9643
250.000000	80.828	-11.6654
254.000000	80.928	-12.0155
258.000000	81.004	-12.7990
262.000000	81.044	-13.3451
265.000000	81.085	-13.7184
269.000000	81.083	-14.1404
272.000000	81.032	-14.4892
276.000000	80.990	-14.9277
280.000000	80.964	-15.0685
285.000000	80.880	-15.4089
290.000000	80.894	-15.7258
295.000000	80.881	-15.7241
300.000000	80.839	-15.6434
304.000000	80.781	-15.7570
307.000000	80.748	-15.9651
311.000000	80.733	-16.3431
315.000000	80.723	-16.6866
320.000000	80.714	-16.9305
325.000000	80.697	-17.0721
330.000000	80.674	-17.2894
335.000000	80.652	-17.5003
340.000000	80.616	-17.6103
345.000000	80.550	-17.6437
350.000000	80.503	-17.7166
355.000000	80.486	-17.9557
360.000000	80.464	-18.0219
365.000000	80.435	-18.0470
370.000000	80.423	-18.1786
375.000000	80.408	-18.2823
382.000000	80.394	-18.5506
387.000000	80.393	-18.7479
395.000000	80.315	-18.6720
400.000000	80.246	-18.6068
406.000000	80.197	-18.7407
412.000000	80.165	-18.9074
418.000000	80.130	-19.1390
425.000000	80.090	-19.4276
431.000000	80.091	-19.6589
437.000000	80.075	-19.9122
444.000000	80.000	-20.0272
450.000000	79.939	-20.0032
455.000000	79.906	-20.0440
462.000000	79.862	-20.2234
468.000000	79.824	-20.2573
475.000000	79.786	-20.0745
482.000000	79.739	-20.0012
487.000000	79.705	-19.9565
494.000000	79.666	-19.9441
500.000000	79.625	-19.9469
508.000000	79.585	-20.0593
515.000000	79.550	-20.2137
522.000000	79.537	-20.2485
530.000000	79.511	-20.1424
538.000000	79.465	-20.0426
545.000000	79.434	-20.0955
552.000000	79.417	-20.2665
560.000000	79.378	-20.3916
570.000000	79.296	-20.2333
580.000000	79.242	-20.0027
590.000000	79.221	-20.0571
600.000000	79.192	-20.1437
608.000000	79.159	-19.8936
615.000000	79.125	-19.6995
622.000000	79.081	-19.6580
630.000000	79.032	-19.5301
640.000000	78.969	-19.2435
650.000000	78.926	-19.0351
660.000000	78.911	-18.7697
670.000000	78.887	-18.5108
680.000000	78.832	-18.5201
690.000000	78.785	-18.4391
700.000000	78.757	-18.0528
710.000000	78.735	-17.7941
720.000000	78.703	-17.5436
730.000000	78.667	-17.2827
740.000000	78.662	-17.1094
750.000000	78.652	-16.8146
762.000000	78.621	-16.3363
775.000000	78.603	-15.8993
788.000000	78.577	-15.4698
800.000000	78.571	-15.1626
812.000000	78.592	-14.8003
825.000000	78.588	-14.3712
838.000000	78.595	-14.1814
850.000000	78.590	-13.7920
862.000000	78.598	-13.1060
875.000000	78.633	-12.6954
885.000000	78.660	-12.5098
900.000000	78.653	-11.9685
912.000000	78.692	-11.5307
925.000000	78.749	-11.1455
938.000000	78.772	-10.6062
950.000000	78.789	-10.1899
962.000000	78.818	-9.9442
975.000000	78.873	-9.6678
988.000000	78.926	-9.1243
1000.000000	78.971	-8.6959
1015.000000	79.020	-8.9593
1030.000000	79.084	-8.9111
1044.000000	79.155	-8.6243
1060.000000	79.208	-8.4713
1075.000000	79.261	-8.3626
1090.000000	79.350	-8.3582
1106.000000	79.430	-8.4595
1120.000000	79.466	-8.4542
1138.000000	79.527	-8.4193
1150.000000	79.565	-8.2913
1172.000000	79.623	-8.0946
1180.000000	79.650	-8.0711
1206.000000	79.730	-8.3492
1220.000000	79.772	-8.5069
1241.000000	79.821	-8.4958
1250.000000	79.832	-8.4803
1265.000000	79.851	-8.5528
1280.000000	79.871	-8.6151
1315.000000	79.942	-8.6770
1320.000000	79.949	-8.6898
1340.000000	79.972	-8.7251
1360.000000	80.019	-8.7010
1380.000000	80.067	-8.5923
1400.000000	80.082	-8.4692
1430.000000	80.123	-8.4851
1450.000000	80.148	-8.3284
1475.000000	80.176	-8.1146
1500.000000	80.211	-8.0212
1525.000000	80.255	-7.7907
1550.000000	80.305	-7.6112
1575.000000	80.339	-7.4846
1600.000000	80.377	-7.1998
1625.000000	80.411	-6.8837
1650.000000	80.445	-6.7532
1675.000000	80.495	-6.6578
1700.000000	80.548	-6.3293
1725.000000	80.603	-5.8920
1750.000000	80.666	-5.5060
1775.000000	80.723	-5.1766
1800.000000	80.779	-4.8018
1825.000000	80.822	-4.2897
1850.000000	80.852	-3.7082
1875.000000	80.903	-3.0801
1900.000000	81.003	-2.3162
1925.000000	81.144	-1.4954
1950.000000	81.314	-0.6806
1975.000000	81.526	-0.1280
2000.000000	81.760	-0.0517
2030.000000	81.997	-0.4388
2060.000000	82.177	-0.9277
2090.000000	82.333	-1.3372
2120.000000	82.461	-1.6487
2140.000000	82.534	-1.7954
2180.000000	82.698	-2.0902
2200.000000	82.795	-2.2291
2240.000000	82.991	-2.4495
2270.000000	83.122	-2.7100
2300.000000	83.260	-3.0945
2330.000000	83.395	-3.4501
2360.000000	83.527	-3.7679
2400.000000	83.718	-4.3074
2430.000000	83.861	-4.7726
2470.000000	84.036	-5.4626
2500.000000	84.165	-6.0894
2540.000000	84.334	-6.9612
2580.000000	84.487	-7.9508
2620.000000	84.612	-9.0670
2650.000000	84.692	-9.9892
2690.000000	84.788	-11.2139
2720.000000	84.853	-12.1183
2760.000000	84.915	-13.4639
2800.000000	84.955	-14.9350
2850.000000	84.949	-16.7324
2900.000000	84.873	-18.2378
2950.000000	84.766	-19.3307
3000.000000	84.675	-20.1289
3040.000000	84.613	-20.7455
3070.000000	84.574	-21.2068
3110.000000	84.527	-21.8652
3150.000000	84.454	-22.6169
3200.000000	84.295	-23.5352
3250.000000	84.074	-24.0978
3300.000000	83.837	-24.0140
3350.000000	83.646	-23.2426
3400.000000	83.542	-22.0969
3450.000000	83.527	-21.0753
3500.000000	83.560	-20.3111
3550.000000	83.606	-19.7808
3600.000000	83.660	-19.4343
3650.000000	83.711	-19.2453
3700.000000	83.760	-19.0095
3750.000000	83.804	-18.8350
3820.000000	83.853	-18.6561
3870.000000	83.879	-18.4879
3950.000000	83.954	-18.3026
4000.000000	84.024	-18.2198
4060.000000	84.107	-18.1655
4120.000000	84.197	-18.2228
4180.000000	84.291	-18.4145
4250.000000	84.405	-18.7519
4310.000000	84.489	-19.0883
4370.000000	84.570	-19.6241
4440.000000	84.679	-20.3982
4500.000000	84.769	-21.1467
4550.000000	84.828	-21.9052
4620.000000	84.887	-23.1386
4680.000000	84.924	-24.2877
4750.000000	84.933	-25.7347
4820.000000	84.905	-27.2258
4870.000000	84.858	-28.3142
4940.000000	84.755	-29.8301
5000.000000	84.637	-31.0884
5080.000000	84.435	-32.5776
5150.000000	84.226	-33.6584
5220.000000	83.998	-34.6192
5300.000000	83.725	-35.4368
5380.000000	83.430	-35.8358
5450.000000	83.159	-35.8738
5520.000000	82.891	-35.6132
5600.000000	82.610	-35.0463
5700.000000	82.283	-34.0175
5800.000000	81.975	-32.6151
5900.000000	81.718	-30.8671
6000.000000	81.543	-28.7951
6080.000000	81.452	-26.9938
6150.000000	81.395	-25.4449
6220.000000	81.356	-23.8302
6300.000000	81.325	-21.9031
6400.000000	81.331	-19.5258
6500.000000	81.411	-16.9664
6600.000000	81.540	-14.2747
6700.000000	81.747	-11.4419
6800.000000	82.097	-8.6814
6900.000000	82.582	-6.3558
7000.000000	83.176	-4.7773
7100.000000	83.850	-4.3278
7200.000000	84.545	-5.5012
7300.000000	85.161	-8.3922
7400.000000	85.583	-12.6898
7500.000000	85.735	-17.8624
7620.000000	85.527	-23.8905
7750.000000	84.918	-28.8014
7880.000000	84.077	-31.5469
8000.000000	83.234	-32.1747
8120.000000	82.432	-31.2079
8250.000000	81.681	-28.7634
8380.000000	81.095	-25.4930
8500.000000	80.701	-22.3466
8620.000000	80.420	-19.3650
8750.000000	80.186	-16.5891
8850.000000	80.011	-14.7526
9000.000000	79.703	-12.0803
9120.000000	79.389	-9.9309
9250.000000	79.017	-7.3076
9380.000000	78.660	-4.0981
9500.000000	78.376	-0.5473
9620.000000	78.133	3.3503
9750.000000	77.969	7.9410
9880.000000	77.952	12.8674
10000.000000	78.029	17.5339
10150.000000	78.232	23.2781
10300.000000	78.583	28.5854
10440.000000	79.106	33.0842
10600.000000	79.929	37.5405
10750.000000	80.892	40.5875
10900.000000	82.034	41.8638
11060.000000	83.345	40.5954
11200.000000	84.411	36.5211
11380.000000	85.373	27.0948
11500.000000	85.588	19.1412
11720.000000	84.989	5.5458
11800.000000	84.522	1.9068
12060.000000	82.654	-3.8915
12200.000000	81.679	-3.9257
12410.000000	80.492	-1.6707
12500.000000	80.102	-0.2249
12650.000000	79.598	2.5414
12800.000000	79.251	5.3436
13150.000000	78.913	10.0698
13200.000000	78.900	10.3991
13400.000000	78.845	10.4821
13600.000000	78.665	8.5802
13800.000000	78.173	5.4240
14000.000000	77.309	2.5807
14300.000000	75.432	1.9138
14500.000000	74.036	4.4799
14750.000000	72.410	10.8287
15000.000000	71.159	19.4788
15250.000000	70.459	29.4509
15500.000000	70.736	39.3911
15750.000000	72.151	43.7194
16000.000000	73.874	35.2313
16250.000000	74.386	9.7268
16500.000000	72.418	-24.4785
16750.000000	67.534	-77.5473
17000.000000	61.389	93.6173
17250.000000	60.222	-167.1481
17500.000000	63.499	88.5508
17750.000000	65.361	52.4581
18000.000000	64.394	20.7861
18250.000000	61.405	-43.5295
18500.000000	58.169	-74.5737
18750.000000	55.866	154.2737
19000.000000	54.508	-66.5215
19250.000000	53.688	176.6621
19500.000000	53.381	28.1113
19750.000000	53.650	-9.8281
20000.000000	54.287	77.7617
