* Measurement data measured by REW V5.20.5
* Source: Input device not selected, no input selected, L, volume: no control
* Format: 128k Log Swept Sine, 4 sweeps at -17.0 dBFS with no timing reference
* Dated: 2022. 5. 17 ¿ÀÈÄ 10:34:38
* REW Settings:
*  C-weighting compensation: Off
*  Target level: 75.0 dB
* Note: ; 
* Measurement: Orza_EtyGreen_L
* Smoothing: 1/24 octave
* Frequency Step: 1/48 octave
* Start Frequency: 20.300 Hz
*
* Freq(Hz)	SPL(dB)	Phase(degrees)
20.299999	82.333	10.8543
20.600000	82.350	10.8185
20.900000	82.383	10.7577
21.200001	82.409	10.7056
21.400000	82.422	10.6706
21.799999	82.441	10.5892
22.000000	82.447	10.5405
22.400000	82.455	10.4319
22.700001	82.457	10.3469
23.000000	82.459	10.2615
23.299999	82.461	10.1739
23.600000	82.464	10.0815
24.000000	82.473	9.9459
24.299999	82.481	9.8331
24.700001	82.497	9.6676
25.000000	82.510	9.5329
25.400000	82.531	9.3386
25.799999	82.554	9.1240
26.200001	82.577	8.8870
26.500000	82.593	8.6983
26.900000	82.609	8.4441
27.200001	82.617	8.2631
27.600000	82.624	8.0478
28.000000	82.630	7.8672
28.500000	82.638	7.6777
29.000000	82.648	7.5018
29.500000	82.658	7.3241
30.000000	82.667	7.1465
30.400000	82.674	7.0082
30.700001	82.679	6.9064
31.100000	82.687	6.7706
31.500000	82.694	6.6333
32.000000	82.703	6.4617
32.500000	82.711	6.2956
33.000000	82.719	6.1361
33.500000	82.727	5.9790
34.000000	82.736	5.8208
34.500000	82.746	5.6614
35.000000	82.756	5.5025
35.500000	82.763	5.3476
36.000000	82.769	5.2037
36.500000	82.774	5.0767
37.000000	82.779	4.9630
37.500000	82.786	4.8501
38.200001	82.793	4.6767
38.700001	82.796	4.5470
39.500000	82.801	4.3441
40.000000	82.805	4.2112
40.599998	82.809	4.0393
41.200001	82.810	3.8731
41.799999	82.810	3.7331
42.500000	82.815	3.5921
43.099998	82.821	3.4655
43.700001	82.826	3.3329
44.400002	82.831	3.1866
45.000000	82.834	3.0699
45.500000	82.838	2.9715
46.200001	82.842	2.8275
46.799999	82.843	2.7022
47.500000	82.844	2.5612
48.200001	82.844	2.4316
48.700001	82.845	2.3452
49.400002	82.848	2.2215
50.000000	82.851	2.1023
50.799999	82.852	1.9326
51.500000	82.850	1.8004
52.200001	82.849	1.6934
53.000000	82.850	1.5823
53.799999	82.854	1.4653
54.500000	82.858	1.3582
55.200001	82.863	1.2430
56.000000	82.870	1.0961
57.000000	82.880	0.9014
58.000000	82.891	0.6631
59.000000	82.889	0.3909
60.000000	82.877	0.2020
60.799999	82.871	0.0990
61.500000	82.869	0.0076
62.200001	82.866	-0.0877
63.000000	82.864	-0.2003
64.000000	82.861	-0.3561
65.000000	82.857	-0.5274
66.000000	82.852	-0.7028
67.000000	82.847	-0.8710
68.000000	82.842	-1.0347
69.000000	82.837	-1.1935
70.000000	82.831	-1.3428
71.000000	82.824	-1.4798
72.000000	82.818	-1.6078
73.000000	82.813	-1.7380
74.000000	82.807	-1.8736
75.000000	82.799	-2.0059
76.199997	82.790	-2.1622
77.500000	82.779	-2.3342
78.800003	82.766	-2.4971
80.000000	82.756	-2.6458
81.199997	82.745	-2.7888
82.500000	82.736	-2.9460
83.800003	82.725	-3.1088
85.000000	82.713	-3.2495
86.199997	82.700	-3.3800
87.500000	82.686	-3.5227
88.500000	82.673	-3.6315
90.000000	82.655	-3.7887
91.199997	82.640	-3.9136
92.500000	82.624	-4.0457
93.800003	82.608	-4.1689
95.000000	82.592	-4.2707
96.199997	82.577	-4.3654
97.500000	82.560	-4.4637
98.800003	82.542	-4.5553
100.000000	82.525	-4.6330
101.500000	82.503	-4.7218
103.000000	82.481	-4.7937
104.400002	82.461	-4.8422
106.000000	82.440	-4.8804
107.500000	82.421	-4.9074
109.000000	82.402	-4.9267
110.599998	82.382	-4.9337
112.000000	82.367	-4.9309
113.800003	82.348	-4.9157
115.000000	82.336	-4.8844
117.199997	82.318	-4.7836
118.000000	82.314	-4.7384
120.599998	82.306	-4.5702
122.000000	82.308	-4.4644
124.099998	82.323	-4.2904
125.000000	82.334	-4.2133
126.500000	82.361	-4.0967
128.000000	82.397	-4.0158
131.500000	82.516	-4.1184
132.000000	82.534	-4.1804
134.000000	82.601	-4.5440
136.000000	82.648	-5.0505
138.000000	82.670	-5.6234
140.000000	82.670	-6.1871
143.000000	82.640	-6.9252
145.000000	82.609	-7.3394
147.500000	82.563	-7.7913
150.000000	82.515	-8.1708
152.500000	82.471	-8.4811
155.000000	82.426	-8.7458
157.500000	82.378	-8.9545
160.000000	82.333	-9.1444
162.500000	82.291	-9.3249
165.000000	82.250	-9.4891
167.500000	82.208	-9.6395
170.000000	82.166	-9.7780
172.500000	82.126	-9.8991
175.000000	82.087	-10.0063
177.500000	82.048	-10.1034
180.000000	82.007	-10.1947
182.500000	81.968	-10.2758
185.000000	81.928	-10.3476
187.500000	81.888	-10.4090
190.000000	81.847	-10.4609
192.500000	81.808	-10.4995
195.000000	81.768	-10.5198
197.500000	81.728	-10.5183
200.000000	81.686	-10.4887
203.000000	81.636	-10.4100
206.000000	81.590	-10.2865
209.000000	81.549	-10.0977
212.000000	81.517	-9.8235
214.000000	81.505	-9.6010
218.000000	81.510	-9.1331
220.000000	81.531	-8.9339
224.000000	81.602	-8.7471
227.000000	81.660	-8.8607
230.000000	81.704	-9.1606
233.000000	81.725	-9.5563
236.000000	81.724	-9.9659
240.000000	81.697	-10.4456
243.000000	81.666	-10.7365
247.000000	81.619	-11.0532
250.000000	81.582	-11.2423
254.000000	81.532	-11.4365
258.000000	81.482	-11.5860
262.000000	81.434	-11.7017
265.000000	81.397	-11.7741
269.000000	81.351	-11.8418
272.000000	81.320	-11.8669
276.000000	81.279	-11.8879
280.000000	81.238	-11.8984
285.000000	81.185	-11.8904
290.000000	81.136	-11.8684
295.000000	81.089	-11.8177
300.000000	81.041	-11.7269
304.000000	81.001	-11.6219
307.000000	80.976	-11.5489
311.000000	80.950	-11.4835
315.000000	80.930	-11.4236
320.000000	80.908	-11.3800
325.000000	80.885	-11.3928
330.000000	80.858	-11.4213
335.000000	80.826	-11.4587
340.000000	80.787	-11.4939
345.000000	80.746	-11.5061
350.000000	80.705	-11.4941
355.000000	80.664	-11.4616
360.000000	80.623	-11.4162
365.000000	80.583	-11.3603
370.000000	80.545	-11.2904
375.000000	80.507	-11.2127
382.000000	80.456	-11.1026
387.000000	80.421	-11.0161
395.000000	80.367	-10.8691
400.000000	80.333	-10.7738
406.000000	80.295	-10.6584
412.000000	80.257	-10.5437
418.000000	80.219	-10.4289
425.000000	80.176	-10.2853
431.000000	80.141	-10.1588
437.000000	80.106	-10.0281
444.000000	80.065	-9.8681
450.000000	80.032	-9.7277
455.000000	80.005	-9.6075
462.000000	79.967	-9.4332
468.000000	79.936	-9.2761
475.000000	79.900	-9.0878
482.000000	79.865	-8.8963
487.000000	79.841	-8.7586
494.000000	79.808	-8.5614
500.000000	79.781	-8.3880
508.000000	79.746	-8.1541
515.000000	79.716	-7.9507
522.000000	79.686	-7.7457
530.000000	79.652	-7.5049
538.000000	79.618	-7.2628
545.000000	79.588	-7.0512
552.000000	79.557	-6.8378
560.000000	79.522	-6.5877
570.000000	79.478	-6.2650
580.000000	79.437	-5.9354
590.000000	79.398	-5.5904
600.000000	79.361	-5.2299
608.000000	79.332	-4.9341
615.000000	79.307	-4.6730
622.000000	79.283	-4.4077
630.000000	79.257	-4.0972
640.000000	79.225	-3.7037
650.000000	79.196	-3.3086
660.000000	79.169	-2.9105
670.000000	79.143	-2.5070
680.000000	79.119	-2.1003
690.000000	79.096	-1.6965
700.000000	79.075	-1.2891
710.000000	79.056	-0.8745
720.000000	79.039	-0.4543
730.000000	79.024	-0.0288
740.000000	79.010	0.4066
750.000000	78.999	0.8491
762.000000	78.988	1.3849
775.000000	78.980	1.9768
788.000000	78.974	2.5774
800.000000	78.972	3.1341
812.000000	78.973	3.6865
825.000000	78.979	4.2802
838.000000	78.990	4.8726
850.000000	79.004	5.4133
862.000000	79.020	5.9402
875.000000	79.040	6.4938
885.000000	79.058	6.9058
900.000000	79.089	7.5060
912.000000	79.119	7.9711
925.000000	79.154	8.4536
938.000000	79.193	8.9117
950.000000	79.231	9.3146
962.000000	79.272	9.7006
975.000000	79.320	10.0977
988.000000	79.371	10.4739
1000.000000	79.420	10.8046
1015.000000	79.482	11.1877
1030.000000	79.545	11.5322
1044.000000	79.604	11.8258
1060.000000	79.672	12.1244
1075.000000	79.733	12.3689
1090.000000	79.791	12.5823
1106.000000	79.850	12.7705
1120.000000	79.900	12.8991
1138.000000	79.959	13.0242
1150.000000	79.997	13.0883
1172.000000	80.063	13.1746
1180.000000	80.086	13.1988
1206.000000	80.159	13.2531
1220.000000	80.203	13.2707
1241.000000	80.271	13.2928
1250.000000	80.300	13.3050
1265.000000	80.347	13.3304
1280.000000	80.392	13.3624
1315.000000	80.489	13.4639
1320.000000	80.502	13.4802
1340.000000	80.551	13.5467
1360.000000	80.598	13.6194
1380.000000	80.648	13.7071
1400.000000	80.702	13.8036
1430.000000	80.783	13.9525
1450.000000	80.836	14.0476
1475.000000	80.900	14.1639
1500.000000	80.963	14.2874
1525.000000	81.022	14.4260
1550.000000	81.073	14.5814
1575.000000	81.120	14.7502
1600.000000	81.168	14.9287
1625.000000	81.216	15.1239
1650.000000	81.266	15.3407
1675.000000	81.320	15.5745
1700.000000	81.374	15.8159
1725.000000	81.432	16.0585
1750.000000	81.493	16.3020
1775.000000	81.558	16.5414
1800.000000	81.627	16.7690
1825.000000	81.701	16.9734
1850.000000	81.777	17.1417
1875.000000	81.853	17.2734
1900.000000	81.928	17.3759
1925.000000	82.003	17.4576
1950.000000	82.078	17.5267
1975.000000	82.154	17.5853
2000.000000	82.231	17.6308
2030.000000	82.325	17.6637
2060.000000	82.420	17.6694
2090.000000	82.516	17.6488
2120.000000	82.613	17.6072
2140.000000	82.679	17.5701
2180.000000	82.806	17.4657
2200.000000	82.867	17.3933
2240.000000	82.985	17.2223
2270.000000	83.072	17.0879
2300.000000	83.159	16.9500
2330.000000	83.250	16.7980
2360.000000	83.346	16.6059
2400.000000	83.476	16.2384
2430.000000	83.569	15.8744
2470.000000	83.685	15.3049
2500.000000	83.766	14.8374
2540.000000	83.867	14.1712
2580.000000	83.960	13.4538
2620.000000	84.044	12.6850
2650.000000	84.099	12.0767
2690.000000	84.161	11.2282
2720.000000	84.197	10.5749
2760.000000	84.232	9.6999
2800.000000	84.247	8.8369
2850.000000	84.232	7.8090
2900.000000	84.180	6.9352
2950.000000	84.108	6.3455
3000.000000	84.044	6.0547
3040.000000	84.017	5.9485
3070.000000	84.013	5.8742
3110.000000	84.024	5.7115
3150.000000	84.044	5.4467
3200.000000	84.069	4.9951
3250.000000	84.088	4.4675
3300.000000	84.099	3.9091
3350.000000	84.100	3.3476
3400.000000	84.094	2.8005
3450.000000	84.083	2.2798
3500.000000	84.067	1.8023
3550.000000	84.050	1.3862
3600.000000	84.031	1.0279
3650.000000	84.011	0.7123
3700.000000	83.991	0.4243
3750.000000	83.972	0.1577
3820.000000	83.943	-0.1822
3870.000000	83.922	-0.4073
3950.000000	83.886	-0.7428
4000.000000	83.865	-0.9509
4060.000000	83.843	-1.2202
4120.000000	83.827	-1.5083
4180.000000	83.820	-1.8122
4250.000000	83.822	-2.2220
4310.000000	83.829	-2.6451
4370.000000	83.837	-3.1471
4440.000000	83.841	-3.8324
4500.000000	83.833	-4.4838
4550.000000	83.818	-5.0468
4620.000000	83.781	-5.8288
4680.000000	83.732	-6.4806
4750.000000	83.655	-7.2167
4820.000000	83.556	-7.9086
4870.000000	83.474	-8.3640
4940.000000	83.342	-8.9342
5000.000000	83.216	-9.3498
5080.000000	83.033	-9.7882
5150.000000	82.862	-10.0625
5220.000000	82.681	-10.2481
5300.000000	82.465	-10.3248
5380.000000	82.245	-10.1907
5450.000000	82.052	-9.8715
5520.000000	81.865	-9.3567
5600.000000	81.665	-8.5344
5700.000000	81.450	-7.1812
5800.000000	81.286	-5.5305
5900.000000	81.184	-3.6388
6000.000000	81.147	-1.5710
6080.000000	81.165	0.1314
6150.000000	81.217	1.6173
6220.000000	81.303	3.0802
6300.000000	81.440	4.7088
6400.000000	81.670	6.6563
6500.000000	81.969	8.4524
6600.000000	82.345	10.0194
6700.000000	82.800	11.2573
6800.000000	83.336	12.0265
6900.000000	83.946	12.1504
7000.000000	84.621	11.4269
7100.000000	85.334	9.6249
7200.000000	86.042	6.5156
7300.000000	86.679	1.9404
7400.000000	87.162	-4.0560
7500.000000	87.417	-11.1167
7620.000000	87.366	-20.1258
7750.000000	86.888	-29.2833
7880.000000	86.083	-36.8255
8000.000000	85.173	-42.1007
8120.000000	84.189	-45.8683
8250.000000	83.096	-48.4580
8380.000000	82.019	-49.6898
8500.000000	81.067	-49.7769
8620.000000	80.175	-49.0062
8750.000000	79.293	-47.3834
8850.000000	78.683	-45.6948
9000.000000	77.891	-42.6386
9120.000000	77.363	-39.8803
9250.000000	76.892	-36.6916
9380.000000	76.527	-33.3727
9500.000000	76.289	-30.2936
9620.000000	76.141	-27.3182
9750.000000	76.072	-24.2700
9880.000000	76.090	-21.3844
10000.000000	76.177	-18.8998
10150.000000	76.376	-16.1926
10300.000000	76.665	-14.1163
10440.000000	77.001	-12.9041
10600.000000	77.437	-12.5792
10750.000000	77.853	-13.4882
10900.000000	78.220	-15.6750
11060.000000	78.482	-19.3345
11200.000000	78.538	-23.3836
11380.000000	78.316	-29.0239
11500.000000	77.984	-32.5553
11720.000000	77.068	-37.5646
11800.000000	76.666	-38.7716
12060.000000	75.267	-40.3135
12200.000000	74.517	-39.7944
12410.000000	73.473	-37.6482
12500.000000	73.069	-36.3452
12650.000000	72.463	-33.8501
12800.000000	71.937	-31.1103
13150.000000	71.011	-23.8606
13200.000000	70.917	-22.7438
13400.000000	70.644	-18.2020
13600.000000	70.535	-13.6805
13800.000000	70.594	-9.3605
14000.000000	70.814	-5.4279
14300.000000	71.429	-0.6136
14500.000000	72.019	1.5822
14750.000000	72.910	2.8058
15000.000000	73.908	2.2029
15250.000000	75.007	0.0107
15500.000000	76.387	-3.4276
15750.000000	78.352	-8.9470
16000.000000	80.960	-19.9369
16250.000000	83.733	-42.1417
16500.000000	85.352	-82.7127
16750.000000	84.107	-132.6801
17000.000000	79.832	-165.2251
17250.000000	74.016	-178.3860
17500.000000	68.293	176.6765
17750.000000	63.331	174.7053
18000.000000	58.912	174.4398
18250.000000	54.705	175.6456
18500.000000	50.539	177.7180
18750.000000	46.357	174.9093
19000.000000	42.124	120.6881
19250.000000	37.717	141.9996
19500.000000	33.218	-34.2130
19750.000000	29.357	42.3198
20000.000000	27.315	-58.9932
