* Measurement data measured by REW V5.20.7
* Source: Mic in at rear panel (Pink)(Realtek(R) Audio), MICROPHONE (마스), L, volume: 1.000
* Format: 128k Log Swept Sine, 1 sweep at -12.0 dBFS with no timing reference
* Dated: 2022. 5. 9 오후 1:13:05
* REW Settings:
*  C-weighting compensation: Off
*  Target level: 75.0 dB
* Note: 
* Measurement: R_Treble
* Smoothing: 1/24 octave
* Frequency Step: 1/48 octave
* Start Frequency: 20.300 Hz
*
* Freq(Hz)	SPL(dB)	Phase(degrees)
20.299999	67.949	-93.9913
20.600000	68.001	-93.8028
20.900000	68.123	-93.5002
21.200001	68.276	-93.3379
21.400000	68.386	-93.3754
21.799999	68.598	-93.8025
22.000000	68.689	-94.1566
22.400000	68.827	-94.9805
22.700001	68.905	-95.5453
23.000000	68.980	-95.9695
23.299999	69.067	-96.2752
23.600000	69.173	-96.5458
24.000000	69.344	-97.0158
24.299999	69.479	-97.5368
24.700001	69.641	-98.4293
25.000000	69.734	-99.1301
25.400000	69.828	-99.9174
25.799999	69.917	-100.4195
26.200001	70.034	-100.7079
26.500000	70.142	-100.9057
26.900000	70.300	-101.2740
27.200001	70.414	-101.6532
27.600000	70.546	-102.2387
28.000000	70.656	-102.8102
28.500000	70.776	-103.4488
29.000000	70.895	-104.1090
29.500000	71.003	-104.8855
30.000000	71.076	-105.6861
30.400000	71.113	-106.2089
30.700001	71.142	-106.4887
31.100000	71.201	-106.7337
31.500000	71.292	-106.9251
32.000000	71.444	-107.2884
32.500000	71.612	-107.9397
33.000000	71.751	-108.8001
33.500000	71.844	-109.5846
34.000000	71.923	-110.0426
34.500000	72.035	-110.2584
35.000000	72.188	-110.5656
35.500000	72.327	-111.1458
36.000000	72.409	-111.7372
36.500000	72.455	-111.9481
37.000000	72.538	-111.7949
37.500000	72.685	-111.7746
38.200001	72.877	-112.6367
38.700001	72.913	-113.4904
39.500000	72.876	-113.8162
40.000000	72.923	-113.5435
40.599998	73.071	-113.5991
41.200001	73.207	-114.3807
41.799999	73.278	-115.4401
42.500000	73.325	-116.5364
43.099998	73.371	-117.3662
43.700001	73.424	-118.0724
44.400002	73.512	-118.6338
45.000000	73.635	-119.0396
45.500000	73.755	-119.4944
46.200001	73.916	-120.3153
46.799999	74.037	-121.0954
47.500000	74.145	-122.0636
48.200001	74.194	-122.8739
48.700001	74.206	-123.1148
49.400002	74.259	-122.9938
50.000000	74.364	-122.9299
50.799999	74.510	-123.4099
51.500000	74.572	-124.0352
52.200001	74.608	-124.4395
53.000000	74.684	-124.7459
53.799999	74.785	-125.2301
54.500000	74.857	-125.8160
55.200001	74.906	-126.3837
56.000000	74.958	-126.9063
57.000000	75.039	-127.5752
58.000000	75.098	-128.3201
59.000000	75.144	-128.8830
60.000000	75.223	-129.3210
60.799999	75.309	-129.7033
61.500000	75.389	-130.0750
62.200001	75.467	-130.4710
63.000000	75.548	-130.9649
64.000000	75.621	-131.5808
65.000000	75.688	-131.9955
66.000000	75.794	-132.4173
67.000000	75.890	-133.1727
68.000000	75.936	-133.8916
69.000000	75.983	-134.4068
70.000000	76.030	-134.9487
71.000000	76.076	-135.3256
72.000000	76.159	-135.6498
73.000000	76.238	-136.1743
74.000000	76.286	-136.6730
75.000000	76.328	-137.0007
76.199997	76.398	-137.2517
77.500000	76.501	-137.7045
78.800003	76.574	-138.4037
80.000000	76.619	-139.0274
81.199997	76.648	-139.7178
82.500000	76.655	-140.2838
83.800003	76.727	-140.6344
85.000000	76.829	-141.2589
86.199997	76.894	-141.9126
87.500000	76.962	-142.3954
88.500000	77.016	-142.7630
90.000000	77.077	-143.2342
91.199997	77.124	-143.5467
92.500000	77.183	-143.9309
93.800003	77.249	-144.5138
95.000000	77.286	-145.1899
96.199997	77.294	-145.7558
97.500000	77.296	-146.0916
98.800003	77.313	-146.2621
100.000000	77.337	-146.3976
101.500000	77.381	-146.7287
103.000000	77.416	-147.2698
104.400002	77.457	-147.8008
106.000000	77.524	-148.5388
107.500000	77.566	-149.2344
109.000000	77.606	-149.7179
110.599998	77.647	-150.2632
112.000000	77.654	-150.6474
113.800003	77.709	-150.8761
115.000000	77.772	-151.2185
117.199997	77.863	-151.9503
118.000000	77.892	-152.2870
120.599998	77.879	-153.3252
122.000000	77.881	-153.4301
124.099998	77.965	-153.6224
125.000000	78.006	-153.7930
126.500000	78.047	-154.2015
128.000000	78.036	-154.6422
131.500000	77.985	-155.4917
132.000000	77.990	-155.6080
134.000000	78.068	-155.8990
136.000000	78.200	-156.2536
138.000000	78.252	-156.7889
140.000000	78.221	-157.2778
143.000000	78.206	-157.8170
145.000000	78.278	-158.0866
147.500000	78.370	-158.4722
150.000000	78.387	-159.0994
152.500000	78.381	-159.7681
155.000000	78.401	-160.3370
157.500000	78.432	-160.6822
160.000000	78.467	-161.0869
162.500000	78.498	-161.5866
165.000000	78.534	-161.9472
167.500000	78.589	-162.3704
170.000000	78.625	-162.9700
172.500000	78.645	-163.4443
175.000000	78.681	-163.7518
177.500000	78.713	-164.0618
180.000000	78.712	-164.3900
182.500000	78.696	-164.7433
185.000000	78.685	-165.3001
187.500000	78.683	-165.8502
190.000000	78.703	-166.2378
192.500000	78.724	-166.6067
195.000000	78.747	-167.1273
197.500000	78.770	-167.7127
200.000000	78.791	-167.9728
203.000000	78.813	-168.0562
206.000000	78.827	-168.3288
209.000000	78.865	-168.7163
212.000000	78.906	-169.0994
214.000000	78.907	-169.3662
218.000000	78.880	-169.9110
220.000000	78.887	-170.1600
224.000000	78.945	-170.5434
227.000000	78.969	-170.8036
230.000000	78.950	-171.2283
233.000000	78.916	-171.7481
236.000000	78.897	-172.2415
240.000000	78.902	-172.7559
243.000000	78.950	-173.0707
247.000000	79.026	-173.5160
250.000000	79.042	-173.9104
254.000000	79.026	-174.5916
258.000000	78.992	-175.1340
262.000000	78.964	-175.6257
265.000000	78.951	-176.0607
269.000000	78.928	-176.4685
272.000000	78.910	-176.4871
276.000000	78.892	-176.2839
280.000000	78.836	-176.2235
285.000000	78.797	-176.3318
290.000000	78.853	-176.5499
295.000000	78.918	-176.9744
300.000000	78.960	-177.4733
304.000000	78.977	-177.9002
307.000000	78.983	-178.1903
311.000000	78.984	-178.4972
315.000000	78.988	-178.7899
320.000000	79.014	-179.0939
325.000000	79.042	-179.4994
330.000000	79.054	-179.9469
335.000000	79.064	179.7316
340.000000	79.066	179.3413
345.000000	79.080	178.8959
350.000000	79.093	178.5472
355.000000	79.084	178.3253
360.000000	79.065	178.0417
365.000000	79.064	177.6982
370.000000	79.070	177.4070
375.000000	79.073	177.1240
382.000000	79.076	176.6898
387.000000	79.074	176.4018
395.000000	79.072	176.0632
400.000000	79.076	175.7325
406.000000	79.079	175.2003
412.000000	79.065	174.7593
418.000000	79.057	174.3938
425.000000	79.064	174.0850
431.000000	79.059	173.7977
437.000000	79.047	173.3746
444.000000	79.025	172.9066
450.000000	79.002	172.5720
455.000000	78.990	172.3005
462.000000	78.978	171.9141
468.000000	78.961	171.6765
475.000000	78.950	171.4528
482.000000	78.945	171.1597
487.000000	78.938	170.9125
494.000000	78.912	170.5632
500.000000	78.885	170.2211
508.000000	78.873	169.7630
515.000000	78.853	169.4909
522.000000	78.809	169.2044
530.000000	78.782	168.8441
538.000000	78.767	168.4622
545.000000	78.736	168.1514
552.000000	78.683	167.9207
560.000000	78.622	167.6402
570.000000	78.574	167.2491
580.000000	78.533	167.0351
590.000000	78.466	166.8033
600.000000	78.365	166.5409
608.000000	78.297	166.4666
615.000000	78.249	166.4576
622.000000	78.197	166.4764
630.000000	78.119	166.5623
640.000000	78.027	166.8374
650.000000	77.970	167.3550
660.000000	77.954	168.1021
670.000000	78.013	168.7999
680.000000	78.123	169.0701
690.000000	78.226	168.9266
700.000000	78.288	168.5849
710.000000	78.309	168.2103
720.000000	78.311	167.7708
730.000000	78.300	167.2910
740.000000	78.271	166.9057
750.000000	78.226	166.6609
762.000000	78.178	166.4484
775.000000	78.128	166.2483
788.000000	78.075	166.1484
800.000000	78.031	166.1874
812.000000	77.990	166.1697
825.000000	77.956	166.1781
838.000000	77.925	166.2738
850.000000	77.889	166.4078
862.000000	77.842	166.5817
875.000000	77.803	166.7931
885.000000	77.788	166.9229
900.000000	77.770	167.0834
912.000000	77.757	167.2965
925.000000	77.750	167.5020
938.000000	77.746	167.6729
950.000000	77.743	167.9055
962.000000	77.739	168.1531
975.000000	77.731	168.4324
988.000000	77.712	168.7232
1000.000000	77.702	168.9581
1015.000000	77.750	169.1064
1030.000000	77.795	169.2225
1044.000000	77.812	169.3696
1060.000000	77.835	169.5613
1075.000000	77.873	169.6834
1090.000000	77.906	169.8349
1106.000000	77.931	169.9941
1120.000000	77.960	170.1330
1138.000000	78.007	170.2737
1150.000000	78.041	170.3170
1172.000000	78.088	170.3472
1180.000000	78.099	170.3611
1206.000000	78.134	170.4731
1220.000000	78.149	170.4862
1241.000000	78.165	170.4710
1250.000000	78.174	170.4548
1265.000000	78.198	170.4074
1280.000000	78.243	170.3488
1315.000000	78.454	170.2911
1320.000000	78.487	170.2816
1340.000000	78.612	170.2814
1360.000000	78.715	170.3457
1380.000000	78.788	170.3505
1400.000000	78.833	170.3177
1430.000000	78.882	170.2690
1450.000000	78.918	170.2916
1475.000000	78.956	170.3875
1500.000000	79.004	170.4691
1525.000000	79.062	170.5141
1550.000000	79.117	170.5917
1575.000000	79.170	170.6857
1600.000000	79.228	170.8052
1625.000000	79.294	170.8578
1650.000000	79.367	170.8719
1675.000000	79.446	170.9590
1700.000000	79.531	171.0113
1725.000000	79.615	171.0130
1750.000000	79.697	171.0267
1775.000000	79.784	171.0524
1800.000000	79.885	171.0499
1825.000000	79.990	170.9875
1850.000000	80.095	170.8522
1875.000000	80.193	170.7618
1900.000000	80.291	170.6755
1925.000000	80.392	170.5053
1950.000000	80.493	170.2439
1975.000000	80.597	169.9475
2000.000000	80.700	169.6667
2030.000000	80.816	169.2849
2060.000000	80.931	168.7952
2090.000000	81.048	168.2133
2120.000000	81.158	167.6097
2140.000000	81.225	167.1901
2180.000000	81.344	166.3060
2200.000000	81.397	165.8386
2240.000000	81.487	164.8280
2270.000000	81.542	164.0123
2300.000000	81.584	163.1987
2330.000000	81.613	162.3824
2360.000000	81.629	161.5483
2400.000000	81.633	160.4276
2430.000000	81.628	159.6099
2470.000000	81.615	158.5924
2500.000000	81.595	157.8650
2540.000000	81.548	156.8895
2580.000000	81.478	155.9804
2620.000000	81.393	155.1779
2650.000000	81.324	154.6099
2690.000000	81.225	153.9134
2720.000000	81.145	153.4859
2760.000000	81.034	152.9762
2800.000000	80.918	152.5468
2850.000000	80.762	152.1273
2900.000000	80.598	151.7837
2950.000000	80.437	151.5713
3000.000000	80.272	151.4370
3040.000000	80.130	151.4701
3070.000000	80.023	151.5815
3110.000000	79.886	151.7721
3150.000000	79.761	152.0015
3200.000000	79.613	152.3363
3250.000000	79.462	152.7508
3300.000000	79.312	153.3027
3350.000000	79.166	153.9312
3400.000000	79.029	154.5876
3450.000000	78.906	155.3154
3500.000000	78.785	156.1165
3550.000000	78.659	156.9784
3600.000000	78.546	157.8827
3650.000000	78.441	158.8450
3700.000000	78.341	159.8720
3750.000000	78.243	160.9097
3820.000000	78.110	162.4717
3870.000000	78.025	163.7291
3950.000000	77.913	165.8000
4000.000000	77.872	167.1527
4060.000000	77.853	168.8437
4120.000000	77.852	170.5154
4180.000000	77.853	172.2288
4250.000000	77.875	174.1769
4310.000000	77.896	175.6113
4370.000000	77.918	176.9279
4440.000000	77.970	178.4888
4500.000000	78.041	179.8443
4550.000000	78.117	-179.0395
4620.000000	78.242	-177.4261
4680.000000	78.367	-176.0585
4750.000000	78.538	-174.5013
4820.000000	78.728	-172.9993
4870.000000	78.876	-171.9533
4940.000000	79.104	-170.5070
5000.000000	79.315	-169.3242
5080.000000	79.622	-167.8882
5150.000000	79.926	-166.8167
5220.000000	80.259	-165.9586
5300.000000	80.661	-165.3232
5380.000000	81.085	-165.0385
5450.000000	81.465	-165.1356
5520.000000	81.844	-165.5473
5600.000000	82.274	-166.3878
5700.000000	82.777	-168.1059
5800.000000	83.233	-170.4696
5900.000000	83.638	-173.4743
6000.000000	83.958	-177.2456
6080.000000	84.123	179.2579
6150.000000	84.189	176.0395
6220.000000	84.171	172.8165
6300.000000	84.036	169.3343
6400.000000	83.720	165.5728
6500.000000	83.296	162.6867
6600.000000	82.817	160.7561
6700.000000	82.323	159.6766
6800.000000	81.844	159.3651
6900.000000	81.411	159.6854
7000.000000	81.023	160.5294
7100.000000	80.682	161.8331
7200.000000	80.417	163.4684
7300.000000	80.252	165.2316
7400.000000	80.166	167.0245
7500.000000	80.125	168.8183
7620.000000	80.142	170.8727
7750.000000	80.222	172.7234
7880.000000	80.314	174.0188
8000.000000	80.390	174.4759
8120.000000	80.458	173.9955
8250.000000	80.504	172.3312
8380.000000	80.455	169.5358
8500.000000	80.262	166.2771
8620.000000	79.898	162.8505
8750.000000	79.309	159.3391
8850.000000	78.745	156.9468
9000.000000	77.771	154.0718
9120.000000	76.866	152.5309
9250.000000	75.795	151.8478
9380.000000	74.678	152.3667
9500.000000	73.635	153.8160
9620.000000	72.611	156.0518
9750.000000	71.547	159.1804
9880.000000	70.544	162.9188
10000.000000	69.668	166.8217
10150.000000	68.652	172.1180
10300.000000	67.747	177.8700
10440.000000	66.984	-176.3345
10600.000000	66.182	-169.5959
10750.000000	65.477	-163.1858
10900.000000	64.853	-156.5947
11060.000000	64.299	-149.1819
11200.000000	63.945	-142.3558
11380.000000	63.609	-133.6824
11500.000000	63.399	-128.2423
11720.000000	63.060	-118.4731
11800.000000	62.963	-114.7763
12060.000000	62.795	-102.1663
12200.000000	62.774	-95.0913
12410.000000	62.882	-84.3782
12500.000000	63.005	-79.8847
12650.000000	63.301	-72.4030
12800.000000	63.709	-64.7961
13150.000000	65.224	-48.0314
13200.000000	65.509	-45.8000
13400.000000	66.849	-37.5784
13600.000000	68.652	-31.5317
13800.000000	70.860	-30.5803
14000.000000	72.857	-38.5876
14300.000000	73.553	-66.0531
14500.000000	72.012	-81.6274
14750.000000	68.806	-87.5602
15000.000000	65.554	-83.1569
15250.000000	62.857	-74.3505
15500.000000	60.699	-63.5181
15750.000000	58.982	-51.7078
16000.000000	57.645	-39.5621
16250.000000	56.608	-26.8552
16500.000000	55.889	-14.0845
16750.000000	55.435	-1.4984
17000.000000	55.079	11.5981
17250.000000	54.792	24.6456
17500.000000	54.735	37.9939
17750.000000	54.860	51.9063
18000.000000	55.164	66.2145
18250.000000	55.645	80.3140
18500.000000	56.407	93.8915
18750.000000	57.491	106.9680
19000.000000	58.876	118.5861
19250.000000	60.537	127.5761
19500.000000	62.098	132.0199
19750.000000	63.057	131.2294
20000.000000	63.353	128.7273
