* Measurement data measured by REW V5.20.7
* Source: Mic in at rear panel (Pink)(Realtek(R) Audio), MICROPHONE (마스), L, volume: 1.000
* Format: 128k Log Swept Sine, 1 sweep at -12.0 dBFS with no timing reference
* Dated: 2022. 5. 9 오후 1:15:11
* REW Settings:
*  C-weighting compensation: Off
*  Target level: 75.0 dB
* Note: 
* Measurement: L_Treble
* Smoothing: 1/24 octave
* Frequency Step: 1/48 octave
* Start Frequency: 20.300 Hz
*
* Freq(Hz)	SPL(dB)	Phase(degrees)
20.299999	66.897	-91.7758
20.600000	66.988	-91.8562
20.900000	67.156	-92.0296
21.200001	67.281	-92.2438
21.400000	67.343	-92.3371
21.799999	67.449	-92.3192
22.000000	67.510	-92.2128
22.400000	67.677	-91.9615
22.700001	67.846	-91.9625
23.000000	68.032	-92.3040
23.299999	68.198	-92.9938
23.600000	68.319	-93.9116
24.000000	68.400	-95.1787
24.299999	68.419	-95.9085
24.700001	68.433	-96.4300
25.000000	68.469	-96.5560
25.400000	68.575	-96.6310
25.799999	68.727	-96.8782
26.200001	68.884	-97.3300
26.500000	68.991	-97.6803
26.900000	69.129	-98.0126
27.200001	69.248	-98.1632
27.600000	69.446	-98.4007
28.000000	69.666	-98.9431
28.500000	69.896	-100.1599
29.000000	70.017	-101.5290
29.500000	70.056	-102.4421
30.000000	70.098	-102.7305
30.400000	70.176	-102.7634
30.700001	70.262	-102.8380
31.100000	70.393	-103.1195
31.500000	70.518	-103.6024
32.000000	70.641	-104.3637
32.500000	70.725	-105.1239
33.000000	70.781	-105.6994
33.500000	70.833	-105.9693
34.000000	70.922	-105.9950
34.500000	71.071	-106.0579
35.000000	71.255	-106.4193
35.500000	71.429	-107.1045
36.000000	71.568	-107.9202
36.500000	71.674	-108.6801
37.000000	71.764	-109.3071
37.500000	71.848	-109.8008
38.200001	71.982	-110.3505
38.700001	72.097	-110.7829
39.500000	72.241	-111.7063
40.000000	72.279	-112.2066
40.599998	72.308	-112.4597
41.200001	72.376	-112.5094
41.799999	72.480	-112.7850
42.500000	72.580	-113.4840
43.099998	72.636	-114.0428
43.700001	72.704	-114.4537
44.400002	72.799	-115.0213
45.000000	72.844	-115.5627
45.500000	72.849	-115.7072
46.200001	72.909	-115.1628
46.799999	73.110	-114.5537
47.500000	73.452	-114.9275
48.200001	73.682	-116.5853
48.700001	73.713	-117.8183
49.400002	73.656	-118.6369
50.000000	73.654	-118.6307
50.799999	73.766	-118.8061
51.500000	73.856	-119.5522
52.200001	73.884	-120.3503
53.000000	73.907	-120.8479
53.799999	73.992	-121.0769
54.500000	74.115	-121.4211
55.200001	74.236	-122.0520
56.000000	74.322	-122.8202
57.000000	74.409	-123.3106
58.000000	74.536	-123.8097
59.000000	74.607	-124.5900
60.000000	74.639	-125.0636
60.799999	74.699	-125.3222
61.500000	74.771	-125.6674
62.200001	74.837	-126.1138
63.000000	74.906	-126.6127
64.000000	75.010	-127.2246
65.000000	75.105	-128.0048
66.000000	75.143	-128.4904
67.000000	75.225	-128.3208
68.000000	75.400	-128.4308
69.000000	75.515	-129.2127
70.000000	75.542	-129.8696
71.000000	75.585	-130.3378
72.000000	75.644	-130.9426
73.000000	75.705	-131.6703
74.000000	75.748	-132.4748
75.000000	75.771	-133.0229
76.199997	75.837	-133.3042
77.500000	75.940	-133.6310
78.800003	76.037	-134.0419
80.000000	76.117	-134.5543
81.199997	76.182	-135.2210
82.500000	76.241	-136.0081
83.800003	76.315	-136.6778
85.000000	76.407	-137.1671
86.199997	76.506	-137.6230
87.500000	76.593	-138.1350
88.500000	76.637	-138.5601
90.000000	76.663	-139.0876
91.199997	76.688	-139.4493
92.500000	76.727	-139.8525
93.800003	76.794	-140.2543
95.000000	76.867	-140.7663
96.199997	76.909	-141.3177
97.500000	76.930	-141.7102
98.800003	76.965	-142.0024
100.000000	77.014	-142.4023
101.500000	77.081	-143.1359
103.000000	77.147	-143.9261
104.400002	77.212	-144.5092
106.000000	77.295	-144.9629
107.500000	77.360	-145.3502
109.000000	77.392	-145.7173
110.599998	77.406	-146.0926
112.000000	77.416	-146.3944
113.800003	77.472	-146.7910
115.000000	77.531	-147.1769
117.199997	77.611	-148.2010
118.000000	77.613	-148.5811
120.599998	77.579	-149.2064
122.000000	77.622	-149.3687
124.099998	77.720	-150.1181
125.000000	77.748	-150.4734
126.500000	77.787	-150.8769
128.000000	77.841	-151.1026
131.500000	77.915	-151.8180
132.000000	77.917	-151.8964
134.000000	77.948	-152.3167
136.000000	77.979	-152.9683
138.000000	78.018	-153.4793
140.000000	78.086	-153.9492
143.000000	78.167	-154.6620
145.000000	78.212	-154.9215
147.500000	78.280	-155.2893
150.000000	78.302	-155.9906
152.500000	78.306	-156.7328
155.000000	78.340	-157.3722
157.500000	78.383	-157.8578
160.000000	78.410	-158.2470
162.500000	78.438	-158.6884
165.000000	78.487	-159.1050
167.500000	78.562	-159.5314
170.000000	78.614	-160.0852
172.500000	78.632	-160.6803
175.000000	78.643	-161.1584
177.500000	78.673	-161.5495
180.000000	78.696	-162.0406
182.500000	78.691	-162.5143
185.000000	78.672	-162.9109
187.500000	78.649	-163.2451
190.000000	78.644	-163.6299
192.500000	78.658	-164.1523
195.000000	78.692	-164.6949
197.500000	78.735	-165.1957
200.000000	78.765	-165.6613
203.000000	78.784	-166.1313
206.000000	78.832	-166.4519
209.000000	78.877	-166.6872
212.000000	78.910	-166.9581
214.000000	78.922	-167.3213
218.000000	78.920	-167.9946
220.000000	78.927	-168.2279
224.000000	78.976	-168.7262
227.000000	79.019	-169.1247
230.000000	79.025	-169.6508
233.000000	78.993	-170.2676
236.000000	78.985	-170.8831
240.000000	78.998	-171.5276
243.000000	79.023	-171.8262
247.000000	79.061	-172.3226
250.000000	79.072	-172.7036
254.000000	79.068	-173.2799
258.000000	79.024	-174.1049
262.000000	78.995	-174.8922
265.000000	78.998	-175.2020
269.000000	78.978	-175.2836
272.000000	78.944	-175.2602
276.000000	78.938	-175.0337
280.000000	78.932	-174.8925
285.000000	78.907	-175.0235
290.000000	78.963	-175.2134
295.000000	79.019	-175.5878
300.000000	79.065	-175.9861
304.000000	79.087	-176.4473
307.000000	79.110	-176.8501
311.000000	79.145	-177.2427
315.000000	79.158	-177.5013
320.000000	79.165	-177.9145
325.000000	79.193	-178.4270
330.000000	79.216	-178.9962
335.000000	79.220	-179.4304
340.000000	79.225	-179.7747
345.000000	79.242	179.7413
350.000000	79.250	179.1914
355.000000	79.251	178.7365
360.000000	79.249	178.3999
365.000000	79.261	178.0280
370.000000	79.275	177.6556
375.000000	79.278	177.3221
382.000000	79.277	176.8270
387.000000	79.282	176.3703
395.000000	79.298	175.6495
400.000000	79.298	175.3115
406.000000	79.292	175.0918
412.000000	79.281	174.6832
418.000000	79.267	174.1292
425.000000	79.266	173.5631
431.000000	79.260	173.1155
437.000000	79.247	172.6902
444.000000	79.243	172.2185
450.000000	79.244	171.7952
455.000000	79.238	171.4758
462.000000	79.222	171.1754
468.000000	79.202	170.9198
475.000000	79.192	170.5070
482.000000	79.177	170.1321
487.000000	79.157	169.8895
494.000000	79.147	169.5155
500.000000	79.141	169.1477
508.000000	79.130	168.5791
515.000000	79.123	168.0493
522.000000	79.092	167.5084
530.000000	79.058	166.9806
538.000000	79.033	166.5746
545.000000	79.005	166.2543
552.000000	78.979	165.8840
560.000000	78.949	165.5078
570.000000	78.918	165.1487
580.000000	78.844	164.6738
590.000000	78.763	164.0761
600.000000	78.685	163.4979
608.000000	78.633	163.1905
615.000000	78.594	163.0165
622.000000	78.555	162.8912
630.000000	78.509	162.7263
640.000000	78.444	162.5494
650.000000	78.381	162.4482
660.000000	78.328	162.3704
670.000000	78.299	162.4036
680.000000	78.310	162.5206
690.000000	78.345	162.4534
700.000000	78.373	162.0665
710.000000	78.387	161.3511
720.000000	78.382	160.5334
730.000000	78.344	159.6609
740.000000	78.283	158.7982
750.000000	78.197	158.0312
762.000000	78.063	157.1288
775.000000	77.890	156.0660
788.000000	77.663	155.0814
800.000000	77.390	154.4348
812.000000	77.050	154.1382
825.000000	76.629	154.5432
838.000000	76.209	156.0854
850.000000	75.910	158.4783
862.000000	75.765	161.3895
875.000000	75.788	164.2954
885.000000	75.895	166.0018
900.000000	76.121	167.8112
912.000000	76.302	168.7077
925.000000	76.473	169.2243
938.000000	76.618	169.4997
950.000000	76.727	169.6180
962.000000	76.818	169.6449
975.000000	76.898	169.6180
988.000000	76.958	169.4520
1000.000000	77.012	169.2882
1015.000000	77.078	169.5247
1030.000000	77.135	169.7095
1044.000000	77.185	169.6948
1060.000000	77.232	169.7383
1075.000000	77.268	169.7721
1090.000000	77.303	169.7654
1106.000000	77.327	169.7816
1120.000000	77.352	169.7545
1138.000000	77.389	169.7050
1150.000000	77.411	169.7318
1172.000000	77.452	169.8804
1180.000000	77.469	169.9004
1206.000000	77.509	169.7502
1220.000000	77.512	169.6660
1241.000000	77.506	169.6501
1250.000000	77.500	169.6379
1265.000000	77.506	169.6207
1280.000000	77.546	169.6669
1315.000000	77.728	169.8273
1320.000000	77.759	169.8443
1340.000000	77.871	169.9043
1360.000000	77.953	169.9877
1380.000000	78.010	170.1264
1400.000000	78.035	170.2884
1430.000000	78.058	170.4627
1450.000000	78.084	170.5416
1475.000000	78.122	170.8061
1500.000000	78.172	171.2175
1525.000000	78.220	171.5923
1550.000000	78.281	171.8843
1575.000000	78.358	172.1495
1600.000000	78.443	172.4293
1625.000000	78.526	172.7180
1650.000000	78.611	173.0724
1675.000000	78.715	173.4807
1700.000000	78.833	173.8072
1725.000000	78.965	174.0777
1750.000000	79.102	174.2890
1775.000000	79.245	174.3911
1800.000000	79.395	174.4353
1825.000000	79.546	174.4225
1850.000000	79.697	174.3591
1875.000000	79.845	174.2388
1900.000000	79.999	174.0453
1925.000000	80.159	173.7323
1950.000000	80.311	173.3253
1975.000000	80.456	172.8378
2000.000000	80.598	172.2847
2030.000000	80.761	171.5270
2060.000000	80.914	170.6414
2090.000000	81.045	169.6559
2120.000000	81.151	168.6389
2140.000000	81.213	167.9369
2180.000000	81.319	166.5011
2200.000000	81.363	165.7581
2240.000000	81.424	164.2776
2270.000000	81.443	163.1920
2300.000000	81.447	162.0985
2330.000000	81.439	161.0486
2360.000000	81.417	160.0842
2400.000000	81.367	158.8948
2430.000000	81.322	158.0526
2470.000000	81.255	157.0020
2500.000000	81.195	156.2809
2540.000000	81.101	155.4237
2580.000000	80.992	154.6650
2620.000000	80.874	154.0093
2650.000000	80.782	153.5754
2690.000000	80.654	153.0669
2720.000000	80.561	152.7239
2760.000000	80.439	152.3336
2800.000000	80.313	152.0780
2850.000000	80.147	151.8819
2900.000000	79.979	151.7667
2950.000000	79.813	151.7654
3000.000000	79.644	151.8955
3040.000000	79.518	152.0929
3070.000000	79.425	152.2570
3110.000000	79.303	152.5052
3150.000000	79.178	152.7904
3200.000000	79.018	153.1877
3250.000000	78.873	153.6972
3300.000000	78.729	154.3658
3350.000000	78.584	155.0341
3400.000000	78.447	155.7623
3450.000000	78.322	156.5859
3500.000000	78.203	157.4459
3550.000000	78.088	158.3384
3600.000000	77.982	159.3488
3650.000000	77.874	160.3880
3700.000000	77.765	161.4805
3750.000000	77.666	162.6479
3820.000000	77.536	164.4050
3870.000000	77.446	165.8476
3950.000000	77.356	168.3026
4000.000000	77.349	169.8267
4060.000000	77.371	171.6523
4120.000000	77.402	173.4295
4180.000000	77.431	175.0987
4250.000000	77.461	176.8867
4310.000000	77.484	178.4073
4370.000000	77.518	179.9299
4440.000000	77.591	-178.4021
4500.000000	77.682	-176.9860
4550.000000	77.774	-175.7487
4620.000000	77.925	-174.0331
4680.000000	78.079	-172.6266
4750.000000	78.283	-170.9844
4820.000000	78.501	-169.3857
4870.000000	78.672	-168.3051
4940.000000	78.935	-166.9044
5000.000000	79.175	-165.7944
5080.000000	79.517	-164.4174
5150.000000	79.849	-163.3487
5220.000000	80.204	-162.4671
5300.000000	80.636	-161.7020
5380.000000	81.101	-161.2780
5450.000000	81.535	-161.2719
5520.000000	81.990	-161.6482
5600.000000	82.523	-162.6069
5700.000000	83.167	-164.7057
5800.000000	83.747	-167.8773
5900.000000	84.229	-172.0595
6000.000000	84.562	-177.1404
6080.000000	84.685	178.3928
6150.000000	84.676	174.4092
6220.000000	84.558	170.5576
6300.000000	84.298	166.5493
6400.000000	83.819	162.4697
6500.000000	83.235	159.6508
6600.000000	82.607	158.0639
6700.000000	81.987	157.6218
6800.000000	81.438	158.1089
6900.000000	80.973	159.1711
7000.000000	80.578	160.6369
7100.000000	80.250	162.4814
7200.000000	80.010	164.6220
7300.000000	79.870	166.8365
7400.000000	79.810	169.0421
7500.000000	79.814	171.2368
7620.000000	79.896	173.7980
7750.000000	80.060	176.3161
7880.000000	80.268	178.1890
8000.000000	80.486	179.0551
8120.000000	80.737	178.7603
8250.000000	81.002	176.8318
8380.000000	81.155	173.1373
8500.000000	81.100	168.5292
8620.000000	80.792	163.4565
8750.000000	80.151	158.3141
8850.000000	79.487	155.0735
9000.000000	78.330	151.7369
9120.000000	77.330	150.3463
9250.000000	76.217	149.8344
9380.000000	75.082	150.2296
9500.000000	74.023	151.4129
9620.000000	72.966	153.3588
9750.000000	71.844	156.3057
9880.000000	70.768	160.0302
10000.000000	69.820	164.0678
10150.000000	68.738	169.8183
10300.000000	67.819	176.0916
10440.000000	67.089	-177.7721
10600.000000	66.342	-170.8460
10750.000000	65.721	-164.4771
10900.000000	65.182	-158.1337
11060.000000	64.666	-150.9969
11200.000000	64.258	-144.6650
11380.000000	63.787	-136.0385
11500.000000	63.539	-130.0623
11720.000000	63.275	-118.8884
11800.000000	63.237	-114.8871
12060.000000	63.205	-102.1974
12200.000000	63.253	-95.3455
12410.000000	63.498	-84.8412
12500.000000	63.685	-80.3541
12650.000000	64.115	-72.9030
12800.000000	64.664	-65.5819
13150.000000	66.605	-49.9542
13200.000000	66.978	-47.9695
13400.000000	68.736	-41.3437
13600.000000	70.959	-38.8415
13800.000000	73.224	-44.9871
14000.000000	74.472	-62.5254
14300.000000	72.960	-92.3491
14500.000000	70.272	-100.0070
14750.000000	66.660	-97.5042
15000.000000	63.688	-88.7885
15250.000000	61.387	-77.4889
15500.000000	59.524	-65.0219
15750.000000	57.959	-52.2621
16000.000000	56.815	-39.2218
16250.000000	56.078	-26.2896
16500.000000	55.572	-13.0168
16750.000000	55.190	0.2440
17000.000000	54.987	13.5748
17250.000000	54.996	27.0602
17500.000000	55.195	40.6241
17750.000000	55.656	54.0364
18000.000000	56.269	67.5474
18250.000000	57.115	81.0678
18500.000000	58.264	93.4856
18750.000000	59.484	103.0102
19000.000000	61.063	111.5005
19250.000000	63.079	116.8659
19500.000000	64.618	114.5671
19750.000000	65.074	107.4353
20000.000000	64.887	102.8673
