* Measurement data measured by REW V5.20.13
* Source: EXCL: Mic in at rear panel (Pink)(Realtek(R) Audio), MICROPHONE (마스), R, volume: 1.000
* Format: 256k Log Swept Sine, 1 sweep at -12.0 dBFS with no timing reference
* Dated: 2023. 2. 14 오후 10:12:52
* REW Settings:
*  C-weighting compensation: Off
*  Target level: 75.0 dB
* Note: 
* Measurement: R_Treble
* Smoothing: 1/24 octave
* Frequency Step: 1/48 octave
* Start Frequency: 20.300 Hz
*
* Freq(Hz)	SPL(dB)	Phase(degrees)
20.299999	95.918	-162.2200
20.600000	95.920	-162.5229
20.900000	95.922	-163.0597
21.200001	95.919	-163.5603
21.400000	95.915	-163.8792
21.799999	95.903	-164.5200
22.000000	95.895	-164.8530
22.400000	95.879	-165.5400
22.700001	95.865	-166.0701
23.000000	95.851	-166.6123
23.299999	95.837	-167.1628
23.600000	95.824	-167.7179
24.000000	95.810	-168.4581
24.299999	95.801	-169.0075
24.700001	95.793	-169.7249
25.000000	95.788	-170.2468
25.400000	95.783	-170.9160
25.799999	95.781	-171.5518
26.200001	95.779	-172.1552
26.500000	95.779	-172.5892
26.900000	95.775	-173.1472
27.200001	95.770	-173.5525
27.600000	95.760	-174.0768
28.000000	95.747	-174.5835
28.500000	95.726	-175.1954
29.000000	95.700	-175.7902
29.500000	95.669	-176.3713
30.000000	95.634	-176.9365
30.400000	95.606	-177.3766
30.700001	95.585	-177.7023
31.100000	95.558	-178.1377
31.500000	95.533	-178.5807
32.000000	95.503	-179.1475
32.500000	95.473	-179.7205
33.000000	95.445	179.7103
33.500000	95.421	179.1470
34.000000	95.398	178.5919
34.500000	95.373	178.0587
35.000000	95.346	177.5666
35.500000	95.320	177.1216
36.000000	95.298	176.7059
36.500000	95.278	176.2930
37.000000	95.258	175.8694
37.500000	95.232	175.4438
38.200001	95.188	174.8733
38.700001	95.154	174.4866
39.500000	95.099	173.8741
40.000000	95.064	173.4865
40.599998	95.021	173.0228
41.200001	94.978	172.5664
41.799999	94.936	172.1196
42.500000	94.889	171.6246
43.099998	94.853	171.2285
43.700001	94.823	170.8308
44.400002	94.784	170.3393
45.000000	94.740	169.9406
45.500000	94.699	169.6768
46.200001	94.651	169.4024
46.799999	94.624	169.1611
47.500000	94.597	168.7800
48.200001	94.561	168.3327
48.700001	94.530	168.0191
49.400002	94.483	167.6079
50.000000	94.444	167.2711
50.799999	94.392	166.8376
51.500000	94.348	166.4757
52.200001	94.305	166.1321
53.000000	94.257	165.7627
53.799999	94.211	165.4051
54.500000	94.168	165.0948
55.200001	94.122	164.8003
56.000000	94.069	164.4941
57.000000	94.007	164.1205
58.000000	93.942	163.7301
59.000000	93.873	163.3674
60.000000	93.807	163.0288
60.799999	93.756	162.7430
61.500000	93.710	162.4917
62.200001	93.663	162.2576
63.000000	93.611	162.0146
64.000000	93.549	161.7292
65.000000	93.489	161.4446
66.000000	93.429	161.1668
67.000000	93.370	160.8946
68.000000	93.309	160.6266
69.000000	93.246	160.3825
70.000000	93.183	160.1513
71.000000	93.120	159.9302
72.000000	93.058	159.7104
73.000000	92.995	159.4854
74.000000	92.930	159.2893
75.000000	92.869	159.1133
76.199997	92.801	158.8918
77.500000	92.724	158.6586
78.800003	92.644	158.4579
80.000000	92.571	158.3054
81.199997	92.500	158.1388
82.500000	92.420	157.9531
83.800003	92.343	157.7812
85.000000	92.276	157.6249
86.199997	92.209	157.4790
87.500000	92.136	157.3545
88.500000	92.078	157.2887
90.000000	91.990	157.2603
91.199997	91.932	157.2299
92.500000	91.874	157.0872
93.800003	91.810	156.8429
95.000000	91.733	156.6048
96.199997	91.648	156.5367
97.500000	91.579	156.6043
98.800003	91.535	156.6113
100.000000	91.492	156.5229
101.500000	91.426	156.4194
103.000000	91.353	156.3567
104.400002	91.279	156.3227
106.000000	91.189	156.2795
107.500000	91.101	156.2078
109.000000	91.017	156.1414
110.599998	90.939	156.1251
112.000000	90.879	156.1873
113.800003	90.793	156.3572
115.000000	90.717	156.4660
117.199997	90.508	156.4930
118.000000	90.409	156.5139
120.599998	90.209	157.2039
122.000000	90.228	157.1079
124.099998	90.180	156.7850
125.000000	90.138	156.9008
126.500000	90.062	157.3130
128.000000	89.971	157.7742
131.500000	89.721	158.9876
132.000000	89.689	159.2080
134.000000	89.586	160.2872
136.000000	89.520	161.6644
138.000000	89.520	163.3250
140.000000	89.648	164.8838
143.000000	90.027	165.8764
145.000000	90.255	165.3948
147.500000	90.394	164.1268
150.000000	90.408	162.7460
152.500000	90.344	161.6479
155.000000	90.255	161.0601
157.500000	90.165	160.7605
160.000000	90.071	160.5916
162.500000	89.982	160.4647
165.000000	89.892	160.3642
167.500000	89.807	160.3373
170.000000	89.727	160.3437
172.500000	89.650	160.3999
175.000000	89.577	160.5077
177.500000	89.508	160.6342
180.000000	89.439	160.7534
182.500000	89.370	160.8720
185.000000	89.308	161.0166
187.500000	89.248	161.1801
190.000000	89.187	161.3504
192.500000	89.128	161.5032
195.000000	89.074	161.6584
197.500000	89.026	161.8730
200.000000	88.983	162.1056
203.000000	88.927	162.3515
206.000000	88.871	162.5682
209.000000	88.820	162.7864
212.000000	88.770	163.0303
214.000000	88.738	163.2003
218.000000	88.674	163.5291
220.000000	88.644	163.6989
224.000000	88.583	164.0507
227.000000	88.534	164.2979
230.000000	88.487	164.5346
233.000000	88.445	164.7742
236.000000	88.405	165.0222
240.000000	88.350	165.3656
243.000000	88.307	165.6413
247.000000	88.251	165.9924
250.000000	88.210	166.2307
254.000000	88.156	166.5710
258.000000	88.103	166.9514
262.000000	88.053	167.3375
265.000000	88.017	167.5964
269.000000	87.972	167.9050
272.000000	87.939	168.1683
276.000000	87.898	168.5950
280.000000	87.857	169.0311
285.000000	87.815	169.5530
290.000000	87.783	170.0770
295.000000	87.748	170.5346
300.000000	87.712	170.9696
304.000000	87.684	171.3473
307.000000	87.668	171.6414
311.000000	87.650	172.0360
315.000000	87.624	172.4415
320.000000	87.591	173.0393
325.000000	87.578	173.7414
330.000000	87.595	174.4176
335.000000	87.635	174.9542
340.000000	87.677	175.2803
345.000000	87.698	175.4091
350.000000	87.690	175.4962
355.000000	87.665	175.6532
360.000000	87.631	175.8609
365.000000	87.600	176.1163
370.000000	87.571	176.4230
375.000000	87.543	176.7392
382.000000	87.505	177.2133
387.000000	87.481	177.5804
395.000000	87.445	178.1273
400.000000	87.423	178.4678
406.000000	87.397	178.8654
412.000000	87.375	179.2758
418.000000	87.354	179.7208
425.000000	87.329	-179.7776
431.000000	87.308	-179.3679
437.000000	87.293	-178.9515
444.000000	87.278	-178.4588
450.000000	87.267	-178.0305
455.000000	87.261	-177.6798
462.000000	87.249	-177.2086
468.000000	87.239	-176.8018
475.000000	87.230	-176.3100
482.000000	87.222	-175.8076
487.000000	87.217	-175.4519
494.000000	87.213	-174.9802
500.000000	87.212	-174.5890
508.000000	87.212	-174.0663
515.000000	87.210	-173.6145
522.000000	87.207	-173.1651
530.000000	87.205	-172.6491
538.000000	87.204	-172.1161
545.000000	87.202	-171.6385
552.000000	87.204	-171.1580
560.000000	87.208	-170.6376
570.000000	87.209	-169.9935
580.000000	87.215	-169.3522
590.000000	87.221	-168.7145
600.000000	87.227	-168.0678
608.000000	87.231	-167.5633
615.000000	87.235	-167.1296
622.000000	87.241	-166.6944
630.000000	87.250	-166.1866
640.000000	87.264	-165.5380
650.000000	87.279	-164.8860
660.000000	87.292	-164.2284
670.000000	87.307	-163.5803
680.000000	87.325	-162.9471
690.000000	87.343	-162.3206
700.000000	87.360	-161.6959
710.000000	87.377	-161.0591
720.000000	87.398	-160.4102
730.000000	87.417	-159.7681
740.000000	87.440	-159.1589
750.000000	87.463	-158.5530
762.000000	87.491	-157.8116
775.000000	87.514	-157.0312
788.000000	87.522	-156.1987
800.000000	87.519	-155.1952
812.000000	87.562	-153.8973
825.000000	87.688	-152.7616
838.000000	87.785	-152.1393
850.000000	87.816	-151.3888
862.000000	87.862	-150.0931
875.000000	88.048	-148.5966
885.000000	88.240	-148.1176
900.000000	88.422	-148.0934
912.000000	88.499	-147.9305
925.000000	88.577	-147.5524
938.000000	88.662	-147.0807
950.000000	88.745	-146.6070
962.000000	88.833	-146.1360
975.000000	88.931	-145.6531
988.000000	89.032	-145.1785
1000.000000	89.130	-144.7681
1015.000000	89.260	-144.3356
1030.000000	89.394	-143.9458
1044.000000	89.516	-143.6029
1060.000000	89.654	-143.2524
1075.000000	89.784	-142.9594
1090.000000	89.915	-142.7210
1106.000000	90.061	-142.5152
1120.000000	90.190	-142.3639
1138.000000	90.356	-142.2176
1150.000000	90.464	-142.1400
1172.000000	90.658	-142.0303
1180.000000	90.728	-142.0068
1206.000000	90.951	-141.9975
1220.000000	91.067	-142.0178
1241.000000	91.237	-142.0615
1250.000000	91.308	-142.0912
1265.000000	91.426	-142.1643
1280.000000	91.542	-142.2524
1315.000000	91.804	-142.4910
1320.000000	91.841	-142.5299
1340.000000	91.981	-142.6913
1360.000000	92.116	-142.8579
1380.000000	92.251	-143.0502
1400.000000	92.388	-143.2724
1430.000000	92.591	-143.6144
1450.000000	92.723	-143.8567
1475.000000	92.886	-144.1948
1500.000000	93.047	-144.5588
1525.000000	93.205	-144.9416
1550.000000	93.362	-145.3521
1575.000000	93.516	-145.7922
1600.000000	93.668	-146.2623
1625.000000	93.816	-146.7545
1650.000000	93.961	-147.2773
1675.000000	94.103	-147.8442
1700.000000	94.242	-148.4459
1725.000000	94.376	-149.0762
1750.000000	94.505	-149.7402
1775.000000	94.632	-150.4421
1800.000000	94.752	-151.1766
1825.000000	94.867	-151.9471
1850.000000	94.978	-152.7555
1875.000000	95.082	-153.5904
1900.000000	95.180	-154.4525
1925.000000	95.270	-155.3446
1950.000000	95.354	-156.2597
1975.000000	95.431	-157.1944
2000.000000	95.500	-158.1491
2030.000000	95.573	-159.3158
2060.000000	95.634	-160.4920
2090.000000	95.685	-161.6775
2120.000000	95.725	-162.8690
2140.000000	95.745	-163.6630
2180.000000	95.769	-165.2410
2200.000000	95.772	-166.0199
2240.000000	95.765	-167.5439
2270.000000	95.748	-168.6553
2300.000000	95.723	-169.7309
2330.000000	95.689	-170.7707
2360.000000	95.646	-171.7753
2400.000000	95.579	-173.0487
2430.000000	95.522	-173.9520
2470.000000	95.439	-175.0824
2500.000000	95.371	-175.8666
2540.000000	95.276	-176.8392
2580.000000	95.176	-177.7395
2620.000000	95.073	-178.5528
2650.000000	94.993	-179.1119
2690.000000	94.887	-179.7947
2720.000000	94.808	179.7438
2760.000000	94.701	179.1919
2800.000000	94.596	178.7003
2850.000000	94.468	178.1709
2900.000000	94.344	177.7223
2950.000000	94.225	177.3470
3000.000000	94.112	177.0368
3040.000000	94.026	176.8298
3070.000000	93.965	176.6910
3110.000000	93.887	176.5263
3150.000000	93.814	176.3876
3200.000000	93.728	176.2510
3250.000000	93.651	176.1401
3300.000000	93.581	176.0520
3350.000000	93.518	175.9750
3400.000000	93.461	175.8945
3450.000000	93.416	175.8250
3500.000000	93.383	175.7592
3550.000000	93.358	175.6792
3600.000000	93.339	175.5889
3650.000000	93.322	175.4835
3700.000000	93.311	175.3523
3750.000000	93.303	175.1996
3820.000000	93.295	174.9382
3870.000000	93.289	174.7152
3950.000000	93.275	174.2891
4000.000000	93.266	173.9730
4060.000000	93.255	173.5436
4120.000000	93.242	173.0583
4180.000000	93.226	172.5156
4250.000000	93.199	171.8106
4310.000000	93.165	171.1382
4370.000000	93.113	170.4169
4440.000000	93.033	169.5207
4500.000000	92.952	168.7024
4550.000000	92.876	167.9873
4620.000000	92.751	166.9320
4680.000000	92.623	165.9736
4750.000000	92.441	164.7844
4820.000000	92.203	163.5262
4870.000000	91.976	162.6416
4940.000000	91.525	161.9102
5000.000000	91.044	162.8527
5080.000000	90.753	166.7090
5150.000000	91.017	168.5667
5220.000000	91.217	167.5484
5300.000000	91.130	165.6464
5380.000000	90.878	164.4636
5450.000000	90.623	163.9855
5520.000000	90.366	163.8731
5600.000000	90.079	164.0729
5700.000000	89.747	164.7023
5800.000000	89.451	165.6495
5900.000000	89.194	166.8143
6000.000000	88.974	168.1184
6080.000000	88.825	169.2548
6150.000000	88.715	170.3134
6220.000000	88.626	171.4106
6300.000000	88.548	172.7098
6400.000000	88.486	174.4006
6500.000000	88.470	176.1323
6600.000000	88.504	177.8724
6700.000000	88.589	179.5847
6800.000000	88.736	-178.7717
6900.000000	88.962	-177.2381
7000.000000	89.271	-175.8701
7100.000000	89.654	-174.7366
7200.000000	90.108	-173.9468
7300.000000	90.630	-173.6112
7400.000000	91.217	-173.8524
7500.000000	91.869	-174.8257
7620.000000	92.724	-177.2575
7750.000000	93.664	178.0887
7880.000000	94.422	170.9147
8000.000000	94.822	162.1232
8120.000000	94.817	152.0931
8250.000000	94.307	141.5134
8380.000000	93.367	132.8331
8500.000000	92.275	127.1221
8620.000000	91.109	123.5096
8750.000000	89.869	121.4893
8850.000000	88.975	120.9370
9000.000000	87.768	121.2669
9120.000000	86.928	122.2302
9250.000000	86.140	123.7112
9380.000000	85.474	125.4520
9500.000000	84.968	127.1599
9620.000000	84.561	128.8630
9750.000000	84.227	130.5914
9880.000000	84.000	132.0876
10000.000000	83.880	133.1422
10150.000000	83.843	133.8137
10300.000000	83.916	133.4938
10440.000000	84.053	132.0210
10600.000000	84.230	128.5730
10750.000000	84.326	123.3654
10900.000000	84.241	116.2756
11060.000000	83.834	107.1441
11200.000000	83.154	98.5901
11380.000000	81.848	87.9699
11500.000000	80.760	81.4425
11720.000000	78.464	69.9427
11800.000000	77.541	65.4554
12060.000000	73.982	46.7564
12200.000000	71.452	30.3870
12410.000000	66.380	-21.1838
12500.000000	63.897	-58.7760
12650.000000	61.101	-129.5077
12800.000000	60.487	178.5265
13150.000000	56.823	160.9539
13200.000000	56.157	165.5656
13400.000000	54.430	-170.9821
13600.000000	54.251	-146.0903
13800.000000	55.209	-122.7379
14000.000000	56.847	-102.1724
14300.000000	60.023	-78.5900
14500.000000	62.482	-66.9863
14750.000000	65.830	-56.8776
15000.000000	69.392	-52.4885
15250.000000	73.001	-54.9814
15500.000000	76.082	-66.9670
15750.000000	77.724	-88.0080
16000.000000	77.695	-108.6761
16250.000000	76.786	-121.6099
16500.000000	75.890	-128.9398
16750.000000	75.203	-135.0471
17000.000000	74.384	-141.5367
17250.000000	73.116	-146.1774
17500.000000	71.527	-145.5501
17750.000000	70.257	-139.2286
18000.000000	69.956	-130.9645
18250.000000	70.516	-125.4642
18500.000000	71.268	-124.8529
18750.000000	71.697	-128.0671
19000.000000	71.644	-132.3677
19250.000000	71.226	-135.4677
19500.000000	70.667	-136.7626
19750.000000	70.225	-136.9893
20000.000000	70.029	-136.9678
