* Measurement data measured by REW V5.20.13
* Source: EXCL: Mic in at rear panel (Pink)(Realtek(R) Audio), MICROPHONE (마스), R, volume: 1.000
* Format: 256k Log Swept Sine, 1 sweep at -12.0 dBFS with no timing reference
* Dated: 2023. 2. 14 오후 10:11:50
* REW Settings:
*  C-weighting compensation: Off
*  Target level: 75.0 dB
* Note: 
* Measurement: R_Bass
* Smoothing: 1/24 octave
* Frequency Step: 1/48 octave
* Start Frequency: 20.300 Hz
*
* Freq(Hz)	SPL(dB)	Phase(degrees)
20.299999	95.859	-162.2327
20.600000	95.856	-162.4428
20.900000	95.853	-162.8045
21.200001	95.857	-163.1239
21.400000	95.864	-163.3424
21.799999	95.882	-163.8606
22.000000	95.890	-164.1774
22.400000	95.897	-164.9047
22.700001	95.891	-165.4893
23.000000	95.879	-166.0714
23.299999	95.864	-166.6362
23.600000	95.851	-167.1865
24.000000	95.839	-167.9140
24.299999	95.833	-168.4661
24.700001	95.827	-169.2072
25.000000	95.822	-169.7516
25.400000	95.815	-170.4412
25.799999	95.811	-171.0831
26.200001	95.811	-171.6932
26.500000	95.811	-172.1423
26.900000	95.808	-172.7341
27.200001	95.802	-173.1657
27.600000	95.789	-173.7100
28.000000	95.772	-174.2106
28.500000	95.752	-174.7923
29.000000	95.732	-175.3650
29.500000	95.709	-175.9493
30.000000	95.681	-176.5358
30.400000	95.657	-176.9985
30.700001	95.638	-177.3430
31.100000	95.614	-177.8050
31.500000	95.588	-178.2721
32.000000	95.554	-178.8532
32.500000	95.520	-179.4137
33.000000	95.490	-179.9502
33.500000	95.468	179.5209
34.000000	95.450	178.9849
34.500000	95.430	178.4486
35.000000	95.407	177.9316
35.500000	95.382	177.4485
36.000000	95.357	176.9981
36.500000	95.333	176.5703
37.000000	95.308	176.1533
37.500000	95.281	175.7415
38.200001	95.237	175.1770
38.700001	95.202	174.7897
39.500000	95.145	174.1909
40.000000	95.110	173.8132
40.599998	95.068	173.3498
41.200001	95.024	172.8899
41.799999	94.981	172.4449
42.500000	94.934	171.9431
43.099998	94.896	171.5334
43.700001	94.861	171.1517
44.400002	94.824	170.7233
45.000000	94.794	170.3462
45.500000	94.767	170.0295
46.200001	94.724	169.6084
46.799999	94.687	169.2701
47.500000	94.643	168.8798
48.200001	94.598	168.4976
48.700001	94.565	168.2409
49.400002	94.521	167.9017
50.000000	94.486	167.6151
50.799999	94.442	167.2299
51.500000	94.404	166.8903
52.200001	94.366	166.5478
53.000000	94.318	166.1722
53.799999	94.269	165.8279
54.500000	94.226	165.5266
55.200001	94.179	165.2187
56.000000	94.121	164.9012
57.000000	94.053	164.5504
58.000000	93.988	164.1821
59.000000	93.923	163.8243
60.000000	93.859	163.4534
60.799999	93.805	163.1575
61.500000	93.756	162.9248
62.200001	93.706	162.7235
63.000000	93.651	162.5437
64.000000	93.594	162.3371
65.000000	93.540	162.0224
66.000000	93.464	161.6890
67.000000	93.381	161.5172
68.000000	93.321	161.4409
69.000000	93.280	161.2642
70.000000	93.234	161.0155
71.000000	93.185	160.7948
72.000000	93.139	160.5789
73.000000	93.093	160.3322
74.000000	93.039	160.0706
75.000000	92.979	159.8544
76.199997	92.912	159.6345
77.500000	92.843	159.4086
78.800003	92.780	159.1825
80.000000	92.721	158.9557
81.199997	92.658	158.7380
82.500000	92.579	158.5318
83.800003	92.498	158.4091
85.000000	92.432	158.3255
86.199997	92.376	158.1755
87.500000	92.312	157.9023
88.500000	92.252	157.6671
90.000000	92.151	157.4886
91.199997	92.095	157.4707
92.500000	92.050	157.4163
93.800003	92.005	157.3952
95.000000	91.964	157.3905
96.199997	91.916	157.3626
97.500000	91.853	157.2765
98.800003	91.772	157.1711
100.000000	91.700	157.1085
101.500000	91.624	156.9925
103.000000	91.552	156.8899
104.400002	91.487	156.8729
106.000000	91.409	156.8792
107.500000	91.332	156.8463
109.000000	91.260	156.7552
110.599998	91.205	156.6517
112.000000	91.169	156.6487
113.800003	91.115	156.8607
115.000000	91.052	157.0412
117.199997	90.805	157.2109
118.000000	90.670	157.3618
120.599998	90.481	158.7264
122.000000	90.593	158.2996
124.099998	90.647	157.1004
125.000000	90.639	156.9257
126.500000	90.612	156.9746
128.000000	90.560	157.1450
131.500000	90.391	157.2660
132.000000	90.372	157.2500
134.000000	90.304	157.2039
136.000000	90.237	157.3522
138.000000	90.174	157.6210
140.000000	90.108	157.7986
143.000000	89.973	158.0644
145.000000	89.872	158.2965
147.500000	89.754	158.4379
150.000000	89.661	158.6160
152.500000	89.629	159.1551
155.000000	89.637	159.9648
157.500000	89.671	160.5233
160.000000	89.704	160.6932
162.500000	89.709	160.5868
165.000000	89.656	160.5344
167.500000	89.593	160.6171
170.000000	89.541	160.6355
172.500000	89.482	160.6555
175.000000	89.418	160.7497
177.500000	89.356	160.8752
180.000000	89.297	161.0103
182.500000	89.238	161.1664
185.000000	89.180	161.3353
187.500000	89.127	161.5123
190.000000	89.072	161.7061
192.500000	89.012	161.9191
195.000000	88.957	162.1362
197.500000	88.918	162.3057
200.000000	88.883	162.4582
203.000000	88.834	162.6975
206.000000	88.781	162.9798
209.000000	88.734	163.2573
212.000000	88.688	163.5084
214.000000	88.656	163.6730
218.000000	88.597	163.9962
220.000000	88.568	164.1580
224.000000	88.509	164.4979
227.000000	88.467	164.7467
230.000000	88.430	165.0191
233.000000	88.394	165.3087
236.000000	88.354	165.6048
240.000000	88.304	165.9863
243.000000	88.266	166.2498
247.000000	88.214	166.6172
250.000000	88.177	166.8892
254.000000	88.127	167.2193
258.000000	88.083	167.5433
262.000000	88.042	167.9250
265.000000	88.011	168.2236
269.000000	87.971	168.5900
272.000000	87.943	168.8521
276.000000	87.906	169.1962
280.000000	87.872	169.5353
285.000000	87.831	169.9756
290.000000	87.797	170.4567
295.000000	87.765	170.9051
300.000000	87.731	171.3200
304.000000	87.708	171.6775
307.000000	87.691	171.9415
311.000000	87.670	172.2947
315.000000	87.650	172.6470
320.000000	87.626	173.0864
325.000000	87.602	173.5537
330.000000	87.579	174.0107
335.000000	87.555	174.4570
340.000000	87.533	174.9186
345.000000	87.512	175.3737
350.000000	87.491	175.8201
355.000000	87.473	176.2524
360.000000	87.460	176.6513
365.000000	87.448	177.0315
370.000000	87.435	177.4321
375.000000	87.423	177.8357
382.000000	87.401	178.3580
387.000000	87.384	178.7050
395.000000	87.360	179.2931
400.000000	87.346	179.6433
406.000000	87.326	-179.9301
412.000000	87.304	-179.4954
418.000000	87.283	-179.0427
425.000000	87.266	-178.5144
431.000000	87.253	-178.0940
437.000000	87.243	-177.7006
444.000000	87.233	-177.2061
450.000000	87.226	-176.7512
455.000000	87.220	-176.3850
462.000000	87.212	-175.8827
468.000000	87.204	-175.4628
475.000000	87.196	-174.9838
482.000000	87.192	-174.4999
487.000000	87.189	-174.1541
494.000000	87.184	-173.6615
500.000000	87.183	-173.2187
508.000000	87.182	-172.6447
515.000000	87.178	-172.1614
522.000000	87.177	-171.6767
530.000000	87.179	-171.1313
538.000000	87.181	-170.5791
545.000000	87.183	-170.0808
552.000000	87.185	-169.6030
560.000000	87.191	-169.0824
570.000000	87.197	-168.4176
580.000000	87.203	-167.7343
590.000000	87.216	-167.0627
600.000000	87.229	-166.4029
608.000000	87.237	-165.8860
615.000000	87.243	-165.4288
622.000000	87.251	-164.9675
630.000000	87.263	-164.4216
640.000000	87.278	-163.7368
650.000000	87.293	-163.0825
660.000000	87.312	-162.4421
670.000000	87.333	-161.7943
680.000000	87.352	-161.1421
690.000000	87.373	-160.4842
700.000000	87.396	-159.8141
710.000000	87.417	-159.1493
720.000000	87.438	-158.5011
730.000000	87.461	-157.8649
740.000000	87.486	-157.2384
750.000000	87.512	-156.6141
762.000000	87.544	-155.8527
775.000000	87.576	-155.0149
788.000000	87.593	-154.1694
800.000000	87.594	-153.2023
812.000000	87.629	-151.8904
825.000000	87.758	-150.6498
838.000000	87.868	-149.9763
850.000000	87.905	-149.2824
862.000000	87.947	-148.0775
875.000000	88.118	-146.5189
885.000000	88.316	-145.9062
900.000000	88.520	-145.8386
912.000000	88.606	-145.7074
925.000000	88.685	-145.3331
938.000000	88.772	-144.8430
950.000000	88.859	-144.3667
962.000000	88.951	-143.8947
975.000000	89.057	-143.4029
988.000000	89.166	-142.9418
1000.000000	89.267	-142.5391
1015.000000	89.399	-142.0661
1030.000000	89.532	-141.6376
1044.000000	89.656	-141.2889
1060.000000	89.799	-140.9381
1075.000000	89.934	-140.6469
1090.000000	90.070	-140.4052
1106.000000	90.220	-140.1880
1120.000000	90.354	-140.0309
1138.000000	90.524	-139.8707
1150.000000	90.637	-139.7852
1172.000000	90.838	-139.6840
1180.000000	90.910	-139.6653
1206.000000	91.138	-139.6563
1220.000000	91.259	-139.6662
1241.000000	91.437	-139.7094
1250.000000	91.512	-139.7412
1265.000000	91.635	-139.8097
1280.000000	91.755	-139.8947
1315.000000	92.028	-140.1589
1320.000000	92.065	-140.2037
1340.000000	92.212	-140.3952
1360.000000	92.352	-140.6165
1380.000000	92.493	-140.8472
1400.000000	92.634	-141.0873
1430.000000	92.844	-141.4902
1450.000000	92.982	-141.7825
1475.000000	93.149	-142.1714
1500.000000	93.313	-142.6013
1525.000000	93.474	-143.0640
1550.000000	93.630	-143.5567
1575.000000	93.783	-144.0744
1600.000000	93.931	-144.6236
1625.000000	94.074	-145.2147
1650.000000	94.214	-145.8309
1675.000000	94.348	-146.4811
1700.000000	94.478	-147.1726
1725.000000	94.600	-147.8994
1750.000000	94.716	-148.6563
1775.000000	94.824	-149.4417
1800.000000	94.924	-150.2504
1825.000000	95.017	-151.0825
1850.000000	95.104	-151.9378
1875.000000	95.184	-152.8096
1900.000000	95.254	-153.6948
1925.000000	95.316	-154.5918
1950.000000	95.371	-155.4852
1975.000000	95.418	-156.3673
2000.000000	95.460	-157.2527
2030.000000	95.503	-158.3272
2060.000000	95.537	-159.4068
2090.000000	95.560	-160.4942
2120.000000	95.569	-161.5788
2140.000000	95.569	-162.2896
2180.000000	95.553	-163.6629
2200.000000	95.536	-164.3224
2240.000000	95.490	-165.5795
2270.000000	95.448	-166.4616
2300.000000	95.399	-167.2915
2330.000000	95.344	-168.0695
2360.000000	95.285	-168.7924
2400.000000	95.200	-169.6751
2430.000000	95.134	-170.2726
2470.000000	95.047	-170.9941
2500.000000	94.981	-171.4865
2540.000000	94.890	-172.0754
2580.000000	94.800	-172.5894
2620.000000	94.710	-173.0319
2650.000000	94.644	-173.3161
2690.000000	94.558	-173.6418
2720.000000	94.495	-173.8497
2760.000000	94.415	-174.0755
2800.000000	94.338	-174.2522
2850.000000	94.250	-174.4145
2900.000000	94.172	-174.5249
2950.000000	94.103	-174.5951
3000.000000	94.043	-174.6214
3040.000000	94.001	-174.6250
3070.000000	93.974	-174.6182
3110.000000	93.943	-174.6015
3150.000000	93.918	-174.5831
3200.000000	93.896	-174.5636
3250.000000	93.882	-174.5543
3300.000000	93.876	-174.5630
3350.000000	93.876	-174.5875
3400.000000	93.885	-174.6236
3450.000000	93.907	-174.6767
3500.000000	93.940	-174.7480
3550.000000	93.982	-174.8413
3600.000000	94.035	-174.9687
3650.000000	94.101	-175.1556
3700.000000	94.180	-175.4296
3750.000000	94.268	-175.8252
3820.000000	94.391	-176.6529
3870.000000	94.468	-177.4481
3950.000000	94.554	-179.0151
4000.000000	94.580	179.8802
4060.000000	94.582	178.5078
4120.000000	94.560	177.1318
4180.000000	94.521	175.7590
4250.000000	94.453	174.1336
4310.000000	94.371	172.6833
4370.000000	94.259	171.1781
4440.000000	94.088	169.3949
4500.000000	93.907	167.8753
4550.000000	93.733	166.6318
4620.000000	93.452	164.9684
4680.000000	93.173	163.6481
4750.000000	92.801	162.2660
4820.000000	92.371	161.1070
4870.000000	92.015	160.4997
4940.000000	91.416	160.4211
5000.000000	90.861	161.9561
5080.000000	90.519	166.1015
5150.000000	90.692	167.8432
5220.000000	90.750	166.9141
5300.000000	90.493	165.5758
5380.000000	90.100	165.2559
5450.000000	89.754	165.6171
5520.000000	89.428	166.3532
5600.000000	89.086	167.4977
5700.000000	88.705	169.2125
5800.000000	88.379	171.1613
5900.000000	88.104	173.2586
6000.000000	87.874	175.4723
6080.000000	87.720	177.3052
6150.000000	87.608	178.9448
6220.000000	87.517	-179.3763
6300.000000	87.442	-177.4052
6400.000000	87.390	-174.8778
6500.000000	87.391	-172.3089
6600.000000	87.451	-169.7506
6700.000000	87.575	-167.2558
6800.000000	87.771	-164.8669
6900.000000	88.050	-162.6400
7000.000000	88.415	-160.6299
7100.000000	88.854	-158.8961
7200.000000	89.364	-157.5453
7300.000000	89.944	-156.6776
7400.000000	90.592	-156.4287
7500.000000	91.300	-156.9704
7620.000000	92.210	-158.9520
7750.000000	93.187	-163.1183
7880.000000	93.961	-169.6822
8000.000000	94.367	-177.6582
8120.000000	94.387	173.3886
8250.000000	93.952	164.1088
8380.000000	93.137	156.6511
8500.000000	92.193	151.8889
8620.000000	91.190	149.0577
8750.000000	90.135	147.7736
8850.000000	89.387	147.7526
9000.000000	88.410	148.8211
9120.000000	87.765	150.3098
9250.000000	87.209	152.2970
9380.000000	86.797	154.4786
9500.000000	86.544	156.5092
9620.000000	86.413	158.4436
9750.000000	86.412	160.2693
9880.000000	86.562	161.5762
10000.000000	86.827	162.0793
10150.000000	87.302	161.3540
10300.000000	87.880	158.5743
10440.000000	88.414	153.6235
10600.000000	88.823	144.8946
10750.000000	88.817	134.3222
10900.000000	88.326	122.9953
11060.000000	87.318	111.9097
11200.000000	86.169	103.7390
11380.000000	84.555	94.8161
11500.000000	83.475	89.0349
11720.000000	81.457	76.1771
11800.000000	80.629	70.2463
12060.000000	76.945	46.1766
12200.000000	74.058	28.9585
12410.000000	68.334	-18.9368
12500.000000	65.552	-53.7529
12650.000000	62.153	-120.5781
12800.000000	61.275	-170.4265
13150.000000	57.999	174.5858
13200.000000	57.439	179.2543
13400.000000	56.137	-157.6978
13600.000000	56.343	-132.7871
13800.000000	57.791	-109.2599
14000.000000	60.022	-89.9225
14300.000000	63.947	-70.5120
14500.000000	66.606	-64.2355
14750.000000	69.559	-63.5159
15000.000000	71.712	-68.9660
15250.000000	73.004	-76.4214
15500.000000	73.804	-81.9323
15750.000000	74.590	-84.7778
16000.000000	75.655	-86.2841
16250.000000	77.129	-88.5440
16500.000000	78.902	-94.2479
16750.000000	80.484	-106.0451
17000.000000	81.233	-123.6470
17250.000000	80.886	-141.8181
17500.000000	79.790	-155.6250
17750.000000	78.502	-165.0421
18000.000000	77.302	-172.2565
18250.000000	76.199	-178.8911
18500.000000	75.099	174.0649
18750.000000	73.829	166.3970
19000.000000	72.215	159.1730
19250.000000	70.188	154.1124
19500.000000	67.840	152.2603
19750.000000	65.434	153.3065
20000.000000	63.779	154.9349
