* Measurement data measured by REW V5.20.13
* Source: Input device not selected, no input selected, L, volume: no control
* Format: 256k Log Swept Sine, 1 sweep at -12.0 dBFS with no timing reference
* Dated: 2022. 10. 2 ¿ÀÈÄ 9:01:27
* REW Settings:
*  C-weighting compensation: Off
*  Target level: 75.0 dB
* Note: 
* Measurement: R_Steel_Spiral
* Smoothing: 1/24 octave
* Frequency Step: 1/48 octave
* Start Frequency: 20.300 Hz
*
* Freq(Hz)	SPL(dB)	Phase(degrees)
20.299999	84.553	-169.4118
20.600000	84.562	-169.6278
20.900000	84.577	-170.0122
21.200001	84.581	-170.3731
21.400000	84.579	-170.5998
21.799999	84.569	-171.0472
22.000000	84.562	-171.2792
22.400000	84.548	-171.7722
22.700001	84.535	-172.1735
23.000000	84.520	-172.6002
23.299999	84.503	-173.0370
23.600000	84.484	-173.4680
24.000000	84.459	-174.0133
24.299999	84.444	-174.3963
24.700001	84.433	-174.8862
25.000000	84.433	-175.2558
25.400000	84.439	-175.7726
25.799999	84.447	-176.3224
26.200001	84.452	-176.8873
26.500000	84.451	-177.2990
26.900000	84.443	-177.8028
27.200001	84.436	-178.1311
27.600000	84.426	-178.4970
28.000000	84.424	-178.8018
28.500000	84.433	-179.1690
29.000000	84.449	-179.6144
29.500000	84.457	179.8311
30.000000	84.444	179.2364
30.400000	84.419	178.8051
30.700001	84.398	178.5283
31.100000	84.372	178.2067
31.500000	84.353	177.8962
32.000000	84.334	177.4620
32.500000	84.308	176.9836
33.000000	84.274	176.5421
33.500000	84.241	176.1833
34.000000	84.221	175.8568
34.500000	84.211	175.4794
35.000000	84.198	175.0389
35.500000	84.176	174.5948
36.000000	84.150	174.1934
36.500000	84.126	173.8252
37.000000	84.103	173.4733
37.500000	84.082	173.1542
38.200001	84.070	172.7526
38.700001	84.080	172.3890
39.500000	84.083	171.5025
40.000000	84.050	170.9111
40.599998	83.985	170.4240
41.200001	83.934	170.2096
41.799999	83.916	170.0521
42.500000	83.908	169.7290
43.099998	83.888	169.3877
43.700001	83.855	169.0859
44.400002	83.812	168.7817
45.000000	83.772	168.5191
45.500000	83.735	168.2909
46.200001	83.680	167.9588
46.799999	83.630	167.6538
47.500000	83.569	167.2803
48.200001	83.510	166.9363
48.700001	83.477	166.7209
49.400002	83.455	166.3960
50.000000	83.450	166.0063
50.799999	83.435	165.3355
51.500000	83.398	164.7935
52.200001	83.355	164.4317
53.000000	83.317	164.1809
53.799999	83.291	163.9637
54.500000	83.267	163.7615
55.200001	83.240	163.5483
56.000000	83.203	163.2799
57.000000	83.152	162.8759
58.000000	83.092	162.4016
59.000000	83.027	161.9489
60.000000	82.974	161.5564
60.799999	82.941	161.2321
61.500000	82.910	160.9541
62.200001	82.876	160.7243
63.000000	82.840	160.5085
64.000000	82.794	160.2294
65.000000	82.734	159.9402
66.000000	82.665	159.6629
67.000000	82.594	159.3760
68.000000	82.525	159.0842
69.000000	82.464	158.7935
70.000000	82.414	158.4953
71.000000	82.367	158.2137
72.000000	82.320	157.9961
73.000000	82.273	157.8570
74.000000	82.225	157.7733
75.000000	82.179	157.7246
76.199997	82.129	157.5889
77.500000	82.061	157.2944
78.800003	81.988	156.9879
80.000000	81.925	156.6326
81.199997	81.855	156.3301
82.500000	81.798	156.1277
83.800003	81.756	155.8692
85.000000	81.707	155.5874
86.199997	81.646	155.3160
87.500000	81.568	155.0751
88.500000	81.509	154.9482
90.000000	81.436	154.7324
91.199997	81.377	154.4994
92.500000	81.310	154.2764
93.800003	81.245	154.0917
95.000000	81.188	153.9282
96.199997	81.131	153.7468
97.500000	81.063	153.5535
98.800003	80.994	153.3767
100.000000	80.927	153.2311
101.500000	80.848	153.0887
103.000000	80.772	152.9204
104.400002	80.690	152.7828
106.000000	80.597	152.6859
107.500000	80.511	152.5796
109.000000	80.427	152.4836
110.599998	80.342	152.3709
112.000000	80.263	152.2968
113.800003	80.151	152.2989
115.000000	80.066	152.3522
117.199997	79.877	152.5181
118.000000	79.799	152.6376
120.599998	79.596	153.2930
122.000000	79.524	153.5546
124.099998	79.415	154.1806
125.000000	79.380	154.6184
126.500000	79.355	155.5127
128.000000	79.381	156.4401
131.500000	79.603	157.5494
132.000000	79.641	157.5262
134.000000	79.761	157.0195
136.000000	79.804	156.2303
138.000000	79.794	155.4979
140.000000	79.753	154.8629
143.000000	79.651	154.1294
145.000000	79.567	153.8420
147.500000	79.471	153.5906
150.000000	79.375	153.3688
152.500000	79.277	153.2260
155.000000	79.179	153.0961
157.500000	79.085	152.9612
160.000000	78.993	152.9068
162.500000	78.906	152.9369
165.000000	78.821	152.9386
167.500000	78.738	152.8881
170.000000	78.658	152.8764
172.500000	78.572	152.9342
175.000000	78.474	153.0695
177.500000	78.386	153.2629
180.000000	78.318	153.4291
182.500000	78.256	153.5344
185.000000	78.187	153.6466
187.500000	78.124	153.7786
190.000000	78.070	153.8826
192.500000	78.018	153.9828
195.000000	77.964	154.0922
197.500000	77.907	154.2114
200.000000	77.846	154.3158
203.000000	77.768	154.4296
206.000000	77.695	154.5440
209.000000	77.626	154.6371
212.000000	77.557	154.7903
214.000000	77.515	154.9271
218.000000	77.432	155.2135
220.000000	77.385	155.3517
224.000000	77.294	155.5587
227.000000	77.230	155.7216
230.000000	77.171	155.9457
233.000000	77.111	156.1315
236.000000	77.052	156.2819
240.000000	76.980	156.5446
243.000000	76.924	156.7589
247.000000	76.849	157.0047
250.000000	76.792	157.1972
254.000000	76.719	157.4739
258.000000	76.655	157.7489
262.000000	76.592	158.0229
265.000000	76.543	158.2280
269.000000	76.479	158.5240
272.000000	76.429	158.7612
276.000000	76.362	159.0570
280.000000	76.300	159.3319
285.000000	76.224	159.6937
290.000000	76.157	160.0397
295.000000	76.097	160.4211
300.000000	76.030	160.7872
304.000000	75.971	161.0662
307.000000	75.933	161.2826
311.000000	75.884	161.5754
315.000000	75.834	161.8737
320.000000	75.771	162.2435
325.000000	75.713	162.6469
330.000000	75.652	163.0489
335.000000	75.594	163.4554
340.000000	75.546	163.8443
345.000000	75.500	164.2480
350.000000	75.452	164.6185
355.000000	75.404	164.9536
360.000000	75.355	165.3151
365.000000	75.309	165.6949
370.000000	75.267	166.0703
375.000000	75.226	166.4627
382.000000	75.160	167.0188
387.000000	75.117	167.3869
395.000000	75.058	167.9837
400.000000	75.023	168.3581
406.000000	74.983	168.7844
412.000000	74.937	169.2377
418.000000	74.892	169.7392
425.000000	74.850	170.2842
431.000000	74.815	170.7413
437.000000	74.781	171.1802
444.000000	74.741	171.6265
450.000000	74.708	172.0243
455.000000	74.682	172.4081
462.000000	74.642	172.9542
468.000000	74.609	173.3940
475.000000	74.575	173.8883
482.000000	74.544	174.4038
487.000000	74.521	174.7789
494.000000	74.488	175.2988
500.000000	74.465	175.7255
508.000000	74.436	176.2643
515.000000	74.410	176.7432
522.000000	74.384	177.2407
530.000000	74.356	177.8202
538.000000	74.328	178.4262
545.000000	74.302	178.9260
552.000000	74.278	179.4039
560.000000	74.256	179.9873
570.000000	74.231	-179.2817
580.000000	74.205	-178.5585
590.000000	74.177	-177.8378
600.000000	74.150	-177.1327
608.000000	74.135	-176.5967
615.000000	74.126	-176.1036
622.000000	74.115	-175.5907
630.000000	74.100	-175.0195
640.000000	74.091	-174.3071
650.000000	74.085	-173.5612
660.000000	74.078	-172.8448
670.000000	74.072	-172.1363
680.000000	74.069	-171.4376
690.000000	74.075	-170.7413
700.000000	74.081	-169.9951
710.000000	74.082	-169.2378
720.000000	74.087	-168.4991
730.000000	74.100	-167.8323
740.000000	74.116	-167.1813
750.000000	74.130	-166.4904
762.000000	74.146	-165.6188
775.000000	74.167	-164.7035
788.000000	74.201	-163.8404
800.000000	74.239	-162.9964
812.000000	74.275	-162.1414
825.000000	74.314	-161.2384
838.000000	74.363	-160.3714
850.000000	74.412	-159.5945
862.000000	74.463	-158.8411
875.000000	74.524	-158.0530
885.000000	74.575	-157.4341
900.000000	74.655	-156.5119
912.000000	74.723	-155.7996
925.000000	74.801	-155.0362
938.000000	74.883	-154.3038
950.000000	74.962	-153.6632
962.000000	75.046	-153.0393
975.000000	75.138	-152.3884
988.000000	75.226	-151.7706
1000.000000	75.308	-151.2418
1015.000000	75.428	-150.6695
1030.000000	75.546	-150.1128
1044.000000	75.652	-149.6103
1060.000000	75.772	-149.0903
1075.000000	75.884	-148.6606
1090.000000	75.997	-148.2566
1106.000000	76.116	-147.8610
1120.000000	76.215	-147.5558
1138.000000	76.340	-147.2072
1150.000000	76.424	-146.9958
1172.000000	76.578	-146.6223
1180.000000	76.631	-146.4954
1206.000000	76.797	-146.1395
1220.000000	76.886	-145.9663
1241.000000	77.016	-145.7280
1250.000000	77.071	-145.6333
1265.000000	77.161	-145.4786
1280.000000	77.248	-145.3279
1315.000000	77.447	-145.0294
1320.000000	77.475	-144.9896
1340.000000	77.586	-144.8349
1360.000000	77.695	-144.7071
1380.000000	77.803	-144.5872
1400.000000	77.909	-144.4806
1430.000000	78.066	-144.3372
1450.000000	78.170	-144.2473
1475.000000	78.296	-144.1758
1500.000000	78.417	-144.1413
1525.000000	78.538	-144.1128
1550.000000	78.657	-144.0905
1575.000000	78.773	-144.0818
1600.000000	78.889	-144.0880
1625.000000	78.999	-144.1001
1650.000000	79.107	-144.1090
1675.000000	79.216	-144.1226
1700.000000	79.323	-144.1553
1725.000000	79.429	-144.1975
1750.000000	79.535	-144.2495
1775.000000	79.644	-144.3207
1800.000000	79.752	-144.3949
1825.000000	79.858	-144.4780
1850.000000	79.964	-144.5748
1875.000000	80.072	-144.6887
1900.000000	80.180	-144.8237
1925.000000	80.287	-144.9705
1950.000000	80.394	-145.1350
1975.000000	80.500	-145.3228
2000.000000	80.605	-145.5375
2030.000000	80.729	-145.8248
2060.000000	80.853	-146.1432
2090.000000	80.975	-146.4958
2120.000000	81.095	-146.8655
2140.000000	81.173	-147.1233
2180.000000	81.327	-147.6936
2200.000000	81.401	-148.0065
2240.000000	81.546	-148.6611
2270.000000	81.651	-149.1734
2300.000000	81.752	-149.7191
2330.000000	81.848	-150.2954
2360.000000	81.941	-150.8944
2400.000000	82.058	-151.7285
2430.000000	82.140	-152.3779
2470.000000	82.240	-153.2680
2500.000000	82.309	-153.9500
2540.000000	82.392	-154.8745
2580.000000	82.469	-155.8112
2620.000000	82.535	-156.7664
2650.000000	82.578	-157.4891
2690.000000	82.625	-158.4556
2720.000000	82.654	-159.1732
2760.000000	82.685	-160.1126
2800.000000	82.707	-161.0224
2850.000000	82.726	-162.1053
2900.000000	82.740	-163.1304
2950.000000	82.755	-164.1291
3000.000000	82.769	-165.1396
3040.000000	82.775	-165.9821
3070.000000	82.773	-166.6273
3110.000000	82.764	-167.4898
3150.000000	82.745	-168.3302
3200.000000	82.709	-169.3259
3250.000000	82.664	-170.2623
3300.000000	82.614	-171.1345
3350.000000	82.559	-171.9351
3400.000000	82.502	-172.6808
3450.000000	82.446	-173.3782
3500.000000	82.392	-174.0428
3550.000000	82.339	-174.6733
3600.000000	82.286	-175.2838
3650.000000	82.235	-175.8947
3700.000000	82.183	-176.5029
3750.000000	82.130	-177.1115
3820.000000	82.050	-177.9460
3870.000000	81.989	-178.5341
3950.000000	81.886	-179.4509
4000.000000	81.817	-179.9971
4060.000000	81.731	179.3651
4120.000000	81.641	178.7535
4180.000000	81.547	178.1505
4250.000000	81.432	177.4537
4310.000000	81.322	176.8897
4370.000000	81.202	176.3832
4440.000000	81.052	175.9130
4500.000000	80.920	175.6495
4550.000000	80.818	175.5149
4620.000000	80.693	175.3954
4680.000000	80.599	175.2695
4750.000000	80.491	175.0594
4820.000000	80.378	174.8242
4870.000000	80.292	174.6714
4940.000000	80.165	174.4984
5000.000000	80.054	174.3888
5080.000000	79.905	174.3134
5150.000000	79.774	174.3255
5220.000000	79.643	174.4125
5300.000000	79.496	174.6003
5380.000000	79.354	174.8711
5450.000000	79.234	175.1680
5520.000000	79.121	175.5238
5600.000000	79.000	175.9981
5700.000000	78.864	176.7087
5800.000000	78.747	177.5080
5900.000000	78.648	178.3863
6000.000000	78.570	179.3339
6080.000000	78.525	-179.8531
6150.000000	78.498	-179.1105
6220.000000	78.485	-178.3374
6300.000000	78.489	-177.4292
6400.000000	78.525	-176.2801
6500.000000	78.599	-175.1367
6600.000000	78.710	-174.0423
6700.000000	78.863	-173.0499
6800.000000	79.060	-172.1935
6900.000000	79.298	-171.5235
7000.000000	79.575	-171.0774
7100.000000	79.892	-170.8957
7200.000000	80.252	-171.0468
7300.000000	80.656	-171.6383
7400.000000	81.094	-172.7835
7500.000000	81.553	-174.6136
7620.000000	82.101	-177.8831
7750.000000	82.628	177.1125
7880.000000	83.006	170.5867
8000.000000	83.154	163.4350
8120.000000	83.058	155.5701
8250.000000	82.643	146.7733
8380.000000	81.880	138.3777
8500.000000	80.865	131.8183
8620.000000	79.604	127.2273
8750.000000	78.102	124.9354
8850.000000	76.964	124.9053
9000.000000	75.427	126.8519
9120.000000	74.384	129.4243
9250.000000	73.430	132.7183
9380.000000	72.628	136.2672
9500.000000	71.992	139.6594
9620.000000	71.434	143.1101
9750.000000	70.903	146.8737
9880.000000	70.442	150.6671
10000.000000	70.071	154.1709
10150.000000	69.673	158.5614
10300.000000	69.345	162.9500
10440.000000	69.097	167.0350
10600.000000	68.874	171.6729
10750.000000	68.724	175.9901
10900.000000	68.634	-179.6960
11060.000000	68.601	-175.1468
11200.000000	68.616	-171.2141
11380.000000	68.709	-166.2014
11500.000000	68.822	-162.8956
11720.000000	69.147	-157.0021
11800.000000	69.301	-154.9314
12060.000000	69.943	-148.5099
12200.000000	70.385	-145.2955
12410.000000	71.188	-141.0297
12500.000000	71.584	-139.4458
12650.000000	72.320	-137.2156
12800.000000	73.152	-135.6108
13150.000000	75.435	-135.3539
13200.000000	75.790	-135.8688
13400.000000	77.207	-139.7743
13600.000000	78.467	-147.0719
13800.000000	79.326	-157.6315
14000.000000	79.601	-169.9159
14300.000000	78.965	173.4396
14500.000000	78.115	165.3658
14750.000000	76.920	158.4568
15000.000000	75.771	153.9086
15250.000000	74.734	150.5996
15500.000000	73.792	147.8275
15750.000000	72.905	145.2014
16000.000000	72.032	142.3050
16250.000000	71.101	138.8842
16500.000000	70.022	134.7552
16750.000000	68.626	129.9102
17000.000000	66.513	128.6711
17250.000000	63.953	141.6617
17500.000000	63.233	155.6631
17750.000000	63.133	159.6961
18000.000000	62.655	162.6123
18250.000000	62.117	166.8185
18500.000000	61.690	171.6701
18750.000000	61.404	176.5641
19000.000000	61.263	-178.8866
19250.000000	61.257	-174.9174
19500.000000	61.354	-171.7002
19750.000000	61.491	-169.3335
20000.000000	61.590	-168.0476
