* Measurement data measured by REW V5.20.13
* Source: EXCL: Mic in at rear panel (Pink)(Realtek(R) Audio), MICROPHONE (마스), L, volume: 0.500
* Format: 256k Log Swept Sine, 1 sweep at -12.0 dBFS with no timing reference
* Dated: 2022. 10. 1 오후 5:53:36
* REW Settings:
*  C-weighting compensation: Off
*  Target level: 75.0 dB
* Note: 
* Measurement: R_OldSteel
* Smoothing: 1/24 octave
* Frequency Step: 1/48 octave
* Start Frequency: 20.300 Hz
*
* Freq(Hz)	SPL(dB)	Phase(degrees)
20.299999	84.299	-170.5820
20.600000	84.288	-170.7975
20.900000	84.264	-171.1516
21.200001	84.239	-171.4095
21.400000	84.227	-171.5433
21.799999	84.213	-171.8023
22.000000	84.211	-171.9644
22.400000	84.214	-172.3952
22.700001	84.214	-172.8089
23.000000	84.207	-173.2710
23.299999	84.195	-173.7385
23.600000	84.182	-174.1858
24.000000	84.171	-174.7447
24.299999	84.173	-175.1650
24.700001	84.185	-175.7802
25.000000	84.194	-176.2977
25.400000	84.194	-177.0274
25.799999	84.177	-177.7050
26.200001	84.151	-178.2406
26.500000	84.133	-178.5428
26.900000	84.120	-178.8654
27.200001	84.117	-179.1028
27.600000	84.117	-179.4631
28.000000	84.110	-179.8634
28.500000	84.086	179.6714
29.000000	84.059	179.3058
29.500000	84.043	178.9641
30.000000	84.032	178.5275
30.400000	84.016	178.1075
30.700001	83.996	177.7873
31.100000	83.963	177.4025
31.500000	83.931	177.0757
32.000000	83.902	176.6940
32.500000	83.884	176.2654
33.000000	83.867	175.7819
33.500000	83.851	175.2848
34.000000	83.838	174.7808
34.500000	83.820	174.2479
35.000000	83.789	173.7185
35.500000	83.746	173.2913
36.000000	83.707	173.0143
36.500000	83.687	172.8090
37.000000	83.682	172.5412
37.500000	83.675	172.1695
38.200001	83.643	171.6116
38.700001	83.611	171.2694
39.500000	83.564	170.7649
40.000000	83.535	170.4501
40.599998	83.503	170.0970
41.200001	83.480	169.7435
41.799999	83.462	169.3302
42.500000	83.430	168.8183
43.099998	83.399	168.4598
43.700001	83.377	168.1592
44.400002	83.362	167.7574
45.000000	83.339	167.3515
45.500000	83.310	167.0327
46.200001	83.261	166.6657
46.799999	83.221	166.3771
47.500000	83.169	166.0146
48.200001	83.105	165.7060
48.700001	83.062	165.5623
49.400002	83.023	165.3861
50.000000	83.006	165.1359
50.799999	82.981	164.6365
51.500000	82.952	164.1271
52.200001	82.913	163.5936
53.000000	82.853	163.0699
53.799999	82.801	162.7285
54.500000	82.774	162.4392
55.200001	82.743	162.0965
56.000000	82.697	161.7961
57.000000	82.655	161.4843
58.000000	82.595	161.0094
59.000000	82.499	160.7095
60.000000	82.423	160.4807
60.799999	82.361	160.1757
61.500000	82.301	159.9230
62.200001	82.250	159.6941
63.000000	82.203	159.3415
64.000000	82.129	158.7982
65.000000	82.039	158.3988
66.000000	81.959	158.1464
67.000000	81.888	157.9552
68.000000	81.823	157.7817
69.000000	81.755	157.5293
70.000000	81.663	157.2961
71.000000	81.567	157.2311
72.000000	81.486	157.2530
73.000000	81.412	157.3039
74.000000	81.337	157.4687
75.000000	81.274	157.7859
76.199997	81.226	158.2084
77.500000	81.186	158.5468
78.800003	81.154	158.6852
80.000000	81.110	158.6592
81.199997	81.092	158.8275
82.500000	81.170	158.7385
83.800003	81.242	158.0255
85.000000	81.244	157.2453
86.199997	81.182	156.6929
87.500000	81.096	156.5028
88.500000	81.043	156.4186
90.000000	80.971	156.0775
91.199997	80.895	155.6425
92.500000	80.802	155.2676
93.800003	80.722	155.0273
95.000000	80.663	154.9383
96.199997	80.618	154.8892
97.500000	80.563	154.8472
98.800003	80.501	154.9359
100.000000	80.455	155.0664
101.500000	80.398	155.1825
103.000000	80.342	155.3929
104.400002	80.323	155.5539
106.000000	80.304	155.3769
107.500000	80.267	155.1543
109.000000	80.256	154.9359
110.599998	80.258	154.5452
112.000000	80.249	154.1758
113.800003	80.209	153.7523
115.000000	80.162	153.5363
117.199997	80.058	153.1405
118.000000	80.015	152.9825
120.599998	79.884	152.6044
122.000000	79.832	152.4617
124.099998	79.755	152.2858
125.000000	79.718	152.2169
126.500000	79.648	152.1082
128.000000	79.573	152.0172
131.500000	79.413	151.7966
132.000000	79.391	151.7674
134.000000	79.301	151.7040
136.000000	79.209	151.7402
138.000000	79.120	151.8485
140.000000	79.036	151.9998
143.000000	78.920	152.3134
145.000000	78.853	152.5623
147.500000	78.784	152.8217
150.000000	78.734	152.9662
152.500000	78.691	152.9396
155.000000	78.639	152.8718
157.500000	78.585	152.8300
160.000000	78.530	152.8279
162.500000	78.469	152.8659
165.000000	78.404	153.0107
167.500000	78.347	153.1597
170.000000	78.295	153.2277
172.500000	78.247	153.2155
175.000000	78.194	153.1806
177.500000	78.137	153.1874
180.000000	78.079	153.1898
182.500000	78.015	153.1791
185.000000	77.950	153.1751
187.500000	77.886	153.1790
190.000000	77.823	153.1775
192.500000	77.758	153.1785
195.000000	77.694	153.2055
197.500000	77.632	153.2607
200.000000	77.573	153.3447
203.000000	77.503	153.4471
206.000000	77.433	153.5641
209.000000	77.366	153.6993
212.000000	77.299	153.8430
214.000000	77.255	153.9411
218.000000	77.167	154.1029
220.000000	77.122	154.1796
224.000000	77.038	154.3698
227.000000	76.980	154.5765
230.000000	76.923	154.7968
233.000000	76.864	154.9925
236.000000	76.801	155.1851
240.000000	76.720	155.4458
243.000000	76.663	155.6162
247.000000	76.585	155.8873
250.000000	76.531	156.1093
254.000000	76.466	156.3356
258.000000	76.399	156.5894
262.000000	76.337	156.8654
265.000000	76.289	157.0682
269.000000	76.223	157.3500
272.000000	76.177	157.5549
276.000000	76.116	157.8289
280.000000	76.056	158.0915
285.000000	75.988	158.4456
290.000000	75.927	158.8343
295.000000	75.872	159.1809
300.000000	75.820	159.5491
304.000000	75.769	159.8284
307.000000	75.730	160.0247
311.000000	75.683	160.3109
315.000000	75.644	160.5953
320.000000	75.595	160.9185
325.000000	75.547	161.2822
330.000000	75.506	161.6785
335.000000	75.464	162.0451
340.000000	75.416	162.3997
345.000000	75.366	162.7705
350.000000	75.318	163.1547
355.000000	75.269	163.5067
360.000000	75.218	163.8365
365.000000	75.169	164.1992
370.000000	75.124	164.5683
375.000000	75.086	164.9410
382.000000	75.026	165.4549
387.000000	74.982	165.7897
395.000000	74.924	166.3574
400.000000	74.887	166.7315
406.000000	74.843	167.1956
412.000000	74.798	167.6732
418.000000	74.754	168.1231
425.000000	74.706	168.5898
431.000000	74.669	168.9904
437.000000	74.639	169.3933
444.000000	74.606	169.8902
450.000000	74.574	170.3155
455.000000	74.544	170.6529
462.000000	74.503	171.0967
468.000000	74.473	171.4845
475.000000	74.445	171.9965
482.000000	74.424	172.5067
487.000000	74.408	172.8590
494.000000	74.383	173.3473
500.000000	74.359	173.7479
508.000000	74.327	174.2581
515.000000	74.301	174.7231
522.000000	74.275	175.1873
530.000000	74.246	175.7106
538.000000	74.218	176.2467
545.000000	74.199	176.7151
552.000000	74.181	177.1953
560.000000	74.156	177.7796
570.000000	74.126	178.4872
580.000000	74.104	179.1263
590.000000	74.083	179.7631
600.000000	74.061	-179.5274
608.000000	74.046	-178.9670
615.000000	74.032	-178.4964
622.000000	74.019	-178.0256
630.000000	74.010	-177.4765
640.000000	74.002	-176.7985
650.000000	73.998	-176.1392
660.000000	73.991	-175.4690
670.000000	73.980	-174.7978
680.000000	73.971	-174.1322
690.000000	73.966	-173.4864
700.000000	73.961	-172.8273
710.000000	73.963	-172.1517
720.000000	73.971	-171.4776
730.000000	73.972	-170.8141
740.000000	73.979	-170.1516
750.000000	73.993	-169.4937
762.000000	74.013	-168.6888
775.000000	74.027	-167.7878
788.000000	74.044	-166.9301
800.000000	74.061	-166.1876
812.000000	74.081	-165.4499
825.000000	74.110	-164.6266
838.000000	74.146	-163.7943
850.000000	74.185	-163.0256
862.000000	74.226	-162.2996
875.000000	74.271	-161.5280
885.000000	74.309	-160.9572
900.000000	74.377	-160.1356
912.000000	74.432	-159.4705
925.000000	74.494	-158.7683
938.000000	74.562	-158.0986
950.000000	74.627	-157.5042
962.000000	74.696	-156.9219
975.000000	74.776	-156.3448
988.000000	74.853	-155.8660
1000.000000	74.923	-155.4356
1015.000000	75.013	-154.7713
1030.000000	75.110	-154.1745
1044.000000	75.203	-153.7367
1060.000000	75.304	-153.2809
1075.000000	75.394	-152.8915
1090.000000	75.490	-152.5301
1106.000000	75.603	-152.1753
1120.000000	75.700	-151.8980
1138.000000	75.820	-151.5770
1150.000000	75.901	-151.3864
1172.000000	76.048	-151.0543
1180.000000	76.100	-150.9403
1206.000000	76.257	-150.6627
1220.000000	76.339	-150.5488
1241.000000	76.457	-150.3532
1250.000000	76.507	-150.2735
1265.000000	76.590	-150.1601
1280.000000	76.671	-150.0644
1315.000000	76.854	-149.8556
1320.000000	76.879	-149.8232
1340.000000	76.978	-149.6897
1360.000000	77.071	-149.5640
1380.000000	77.162	-149.4424
1400.000000	77.254	-149.3306
1430.000000	77.392	-149.1754
1450.000000	77.484	-149.0396
1475.000000	77.599	-148.8383
1500.000000	77.723	-148.6381
1525.000000	77.864	-148.4735
1550.000000	78.011	-148.4396
1575.000000	78.151	-148.5275
1600.000000	78.277	-148.6806
1625.000000	78.389	-148.8469
1650.000000	78.490	-148.9909
1675.000000	78.583	-149.1055
1700.000000	78.675	-149.2071
1725.000000	78.765	-149.2910
1750.000000	78.851	-149.3720
1775.000000	78.938	-149.4571
1800.000000	79.025	-149.5208
1825.000000	79.110	-149.5912
1850.000000	79.194	-149.6702
1875.000000	79.276	-149.7405
1900.000000	79.356	-149.7995
1925.000000	79.435	-149.8581
1950.000000	79.514	-149.9170
1975.000000	79.591	-149.9726
2000.000000	79.666	-150.0095
2030.000000	79.759	-149.9787
2060.000000	79.861	-149.8631
2090.000000	79.978	-149.7072
2120.000000	80.121	-149.5590
2140.000000	80.232	-149.5028
2180.000000	80.481	-149.6241
2200.000000	80.607	-149.8406
2240.000000	80.840	-150.5597
2270.000000	80.993	-151.2529
2300.000000	81.124	-151.9890
2330.000000	81.239	-152.7343
2360.000000	81.341	-153.4715
2400.000000	81.465	-154.4337
2430.000000	81.552	-155.1513
2470.000000	81.660	-156.1093
2500.000000	81.735	-156.8349
2540.000000	81.828	-157.8060
2580.000000	81.914	-158.7774
2620.000000	81.993	-159.7611
2650.000000	82.048	-160.5070
2690.000000	82.114	-161.5138
2720.000000	82.155	-162.2709
2760.000000	82.201	-163.2724
2800.000000	82.238	-164.2619
2850.000000	82.279	-165.4665
2900.000000	82.311	-166.6355
2950.000000	82.341	-167.7890
3000.000000	82.368	-168.9629
3040.000000	82.383	-169.9220
3070.000000	82.390	-170.6489
3110.000000	82.393	-171.6099
3150.000000	82.387	-172.5584
3200.000000	82.371	-173.7313
3250.000000	82.350	-174.8787
3300.000000	82.322	-176.0167
3350.000000	82.283	-177.1584
3400.000000	82.234	-178.2888
3450.000000	82.179	-179.3713
3500.000000	82.122	179.6086
3550.000000	82.061	178.6359
3600.000000	81.996	177.7033
3650.000000	81.924	176.8128
3700.000000	81.845	175.9741
3750.000000	81.762	175.1855
3820.000000	81.641	174.1589
3870.000000	81.549	173.4719
3950.000000	81.390	172.4619
4000.000000	81.286	171.8741
4060.000000	81.160	171.2043
4120.000000	81.031	170.5834
4180.000000	80.896	170.0118
4250.000000	80.734	169.4168
4310.000000	80.589	168.9791
4370.000000	80.433	168.6135
4440.000000	80.241	168.2918
4500.000000	80.078	168.1143
4550.000000	79.949	168.0173
4620.000000	79.783	167.9008
4680.000000	79.646	167.7799
4750.000000	79.485	167.6375
4820.000000	79.317	167.5581
4870.000000	79.195	167.5483
4940.000000	79.024	167.5898
5000.000000	78.881	167.6542
5080.000000	78.692	167.7930
5150.000000	78.532	167.9877
5220.000000	78.378	168.2390
5300.000000	78.205	168.5736
5380.000000	78.040	168.9638
5450.000000	77.902	169.3559
5520.000000	77.770	169.8054
5600.000000	77.624	170.3775
5700.000000	77.457	171.1534
5800.000000	77.308	172.0016
5900.000000	77.178	172.9433
6000.000000	77.073	173.9837
6080.000000	77.010	174.8571
6150.000000	76.971	175.6260
6220.000000	76.946	176.3788
6300.000000	76.932	177.2246
6400.000000	76.936	178.2892
6500.000000	76.966	179.3521
6600.000000	77.025	-179.5889
6700.000000	77.117	-178.5161
6800.000000	77.260	-177.4751
6900.000000	77.475	-176.5312
7000.000000	77.765	-175.7626
7100.000000	78.116	-175.2573
7200.000000	78.519	-175.1400
7300.000000	78.965	-175.4992
7400.000000	79.444	-176.4483
7500.000000	79.942	-178.0981
7620.000000	80.543	178.8830
7750.000000	81.133	174.2025
7880.000000	81.510	168.0988
8000.000000	81.619	161.5261
8120.000000	81.479	154.6057
8250.000000	81.050	147.4542
8380.000000	80.387	141.2951
8500.000000	79.639	136.7684
8620.000000	78.822	133.3182
8750.000000	77.906	130.5874
8850.000000	77.202	129.0444
9000.000000	76.159	127.3572
9120.000000	75.324	126.4240
9250.000000	74.396	125.9080
9380.000000	73.439	126.1024
9500.000000	72.546	127.0973
9620.000000	71.690	128.8968
9750.000000	70.847	131.5603
9880.000000	70.114	134.7182
10000.000000	69.546	137.8616
10150.000000	68.960	141.8307
10300.000000	68.471	145.6947
10440.000000	68.077	149.2026
10600.000000	67.696	153.1406
10750.000000	67.404	156.7457
10900.000000	67.164	160.2578
11060.000000	66.960	163.8910
11200.000000	66.822	166.9831
11380.000000	66.692	170.7722
11500.000000	66.637	173.2126
11720.000000	66.590	177.4331
11800.000000	66.584	178.8894
12060.000000	66.611	-176.6286
12200.000000	66.644	-174.3428
12410.000000	66.709	-171.1136
12500.000000	66.747	-169.8126
12650.000000	66.827	-167.7425
12800.000000	66.937	-165.8274
13150.000000	67.326	-162.1651
13200.000000	67.394	-161.7486
13400.000000	67.694	-160.3974
13600.000000	68.036	-159.5860
13800.000000	68.416	-159.4470
14000.000000	68.813	-159.9936
14300.000000	69.391	-162.0063
14500.000000	69.754	-164.1446
14750.000000	70.168	-167.8630
15000.000000	70.499	-172.8575
15250.000000	70.697	-179.1791
15500.000000	70.728	173.2785
15750.000000	70.529	164.9293
16000.000000	70.030	156.4017
16250.000000	69.239	148.1854
16500.000000	68.201	140.0898
16750.000000	66.824	131.3404
17000.000000	64.611	126.8545
17250.000000	61.784	138.8850
17500.000000	60.899	150.7063
17750.000000	60.657	152.4819
18000.000000	59.988	153.4328
18250.000000	59.171	155.9411
18500.000000	58.391	159.5582
18750.000000	57.695	163.9041
19000.000000	57.074	168.7173
19250.000000	56.499	173.8919
19500.000000	55.953	179.2258
19750.000000	55.485	-175.6874
20000.000000	55.202	-172.0726
