* Measurement data measured by REW V5.20.13
* Source: EXCL: Mic in at rear panel (Pink)(Realtek(R) Audio), MICROPHONE (마스), L, volume: 0.500
* Format: 256k Log Swept Sine, 1 sweep at -12.0 dBFS with no timing reference
* Dated: 2022. 10. 1 오후 5:40:24
* REW Settings:
*  C-weighting compensation: Off
*  Target level: 75.0 dB
* Note: 
* Measurement: R_Crystal
* Smoothing: 1/24 octave
* Frequency Step: 1/48 octave
* Start Frequency: 20.300 Hz
*
* Freq(Hz)	SPL(dB)	Phase(degrees)
20.299999	84.466	-169.8724
20.600000	84.461	-170.1250
20.900000	84.448	-170.5520
21.200001	84.431	-170.8955
21.400000	84.419	-171.0874
21.799999	84.398	-171.4447
22.000000	84.390	-171.6358
22.400000	84.376	-172.0660
22.700001	84.365	-172.4338
23.000000	84.353	-172.8353
23.299999	84.339	-173.2566
23.600000	84.324	-173.6867
24.000000	84.305	-174.2601
24.299999	84.293	-174.6832
24.700001	84.280	-175.2329
25.000000	84.272	-175.6325
25.400000	84.266	-176.1481
25.799999	84.263	-176.6487
26.200001	84.263	-177.1398
26.500000	84.262	-177.5027
26.900000	84.258	-177.9752
27.200001	84.251	-178.3161
27.600000	84.239	-178.7473
28.000000	84.224	-179.1509
28.500000	84.204	-179.6234
29.000000	84.180	179.9307
29.500000	84.155	179.5064
30.000000	84.129	179.0991
30.400000	84.109	178.7792
30.700001	84.096	178.5385
31.100000	84.079	178.2102
31.500000	84.063	177.8675
32.000000	84.042	177.4150
32.500000	84.019	176.9481
33.000000	83.995	176.4951
33.500000	83.975	176.0742
34.000000	83.961	175.6740
34.500000	83.952	175.2642
35.000000	83.941	174.8339
35.500000	83.926	174.4038
36.000000	83.908	174.0009
36.500000	83.888	173.6293
37.000000	83.868	173.2739
37.500000	83.846	172.9225
38.200001	83.809	172.4403
38.700001	83.778	172.1134
39.500000	83.726	171.6338
40.000000	83.698	171.3475
40.599998	83.668	170.9769
41.200001	83.638	170.5544
41.799999	83.601	170.1245
42.500000	83.555	169.6922
43.099998	83.527	169.3663
43.700001	83.508	169.0206
44.400002	83.485	168.5867
45.000000	83.462	168.2320
45.500000	83.444	167.9534
46.200001	83.419	167.5491
46.799999	83.392	167.1782
47.500000	83.346	166.7884
48.200001	83.297	166.5077
48.700001	83.268	166.3443
49.400002	83.234	166.0882
50.000000	83.202	165.8452
50.799999	83.161	165.5470
51.500000	83.137	165.2455
52.200001	83.114	164.8214
53.000000	83.069	164.2814
53.799999	83.014	163.8151
54.500000	82.967	163.4646
55.200001	82.927	163.1541
56.000000	82.891	162.7941
57.000000	82.837	162.2690
58.000000	82.758	161.9519
59.000000	82.711	161.8216
60.000000	82.677	161.4902
60.799999	82.633	161.1705
61.500000	82.591	160.9222
62.200001	82.552	160.6537
63.000000	82.502	160.2974
64.000000	82.425	159.8899
65.000000	82.352	159.6107
66.000000	82.296	159.3489
67.000000	82.242	159.0588
68.000000	82.187	158.7710
69.000000	82.124	158.4589
70.000000	82.048	158.2012
71.000000	81.971	158.0141
72.000000	81.893	157.8981
73.000000	81.829	157.8518
74.000000	81.780	157.7658
75.000000	81.731	157.6235
76.199997	81.666	157.5108
77.500000	81.615	157.4643
78.800003	81.581	157.2554
80.000000	81.535	156.9064
81.199997	81.465	156.5973
82.500000	81.397	156.3887
83.800003	81.339	156.1497
85.000000	81.285	155.9316
86.199997	81.228	155.7050
87.500000	81.163	155.4724
88.500000	81.110	155.2717
90.000000	81.016	154.9560
91.199997	80.934	154.7430
92.500000	80.838	154.5405
93.800003	80.737	154.4218
95.000000	80.647	154.3768
96.199997	80.559	154.3134
97.500000	80.447	154.2459
98.800003	80.314	154.3235
100.000000	80.190	154.5754
101.500000	80.042	155.0912
103.000000	79.908	155.7953
104.400002	79.801	156.6974
106.000000	79.750	158.0294
107.500000	79.805	159.2847
109.000000	79.952	160.1806
110.599998	80.153	160.4518
112.000000	80.311	160.1235
113.800003	80.449	159.1929
115.000000	80.495	158.4102
117.199997	80.497	157.0892
118.000000	80.485	156.6822
120.599998	80.396	155.6365
122.000000	80.336	155.3195
124.099998	80.254	154.8929
125.000000	80.216	154.7014
126.500000	80.150	154.4004
128.000000	80.081	154.1423
131.500000	79.925	153.7239
132.000000	79.904	153.6702
134.000000	79.821	153.4613
136.000000	79.742	153.2740
138.000000	79.663	153.1342
140.000000	79.586	153.0568
143.000000	79.469	152.8971
145.000000	79.380	152.7820
147.500000	79.276	152.7564
150.000000	79.194	152.7106
152.500000	79.109	152.6516
155.000000	79.024	152.6517
157.500000	78.940	152.6788
160.000000	78.855	152.7159
162.500000	78.768	152.7778
165.000000	78.685	152.8433
167.500000	78.607	152.9174
170.000000	78.533	153.0536
172.500000	78.462	153.2444
175.000000	78.397	153.4184
177.500000	78.330	153.4881
180.000000	78.257	153.5538
182.500000	78.191	153.6646
185.000000	78.129	153.7616
187.500000	78.065	153.8730
190.000000	78.000	153.9983
192.500000	77.932	154.1275
195.000000	77.863	154.3026
197.500000	77.805	154.5306
200.000000	77.760	154.7614
203.000000	77.717	154.9730
206.000000	77.674	155.0628
209.000000	77.627	155.0747
212.000000	77.575	155.1217
214.000000	77.539	155.1997
218.000000	77.461	155.3741
220.000000	77.420	155.4405
224.000000	77.335	155.5797
227.000000	77.272	155.7401
230.000000	77.208	155.9205
233.000000	77.144	156.0901
236.000000	77.085	156.2518
240.000000	77.018	156.4690
243.000000	76.968	156.6641
247.000000	76.901	156.9408
250.000000	76.849	157.1426
254.000000	76.777	157.4070
258.000000	76.705	157.6732
262.000000	76.642	157.9555
265.000000	76.595	158.1470
269.000000	76.525	158.4284
272.000000	76.475	158.6627
276.000000	76.415	158.9715
280.000000	76.365	159.2612
285.000000	76.305	159.5912
290.000000	76.240	159.9140
295.000000	76.179	160.2739
300.000000	76.118	160.6524
304.000000	76.070	160.9632
307.000000	76.038	161.1920
311.000000	75.994	161.4580
315.000000	75.953	161.7246
320.000000	75.909	162.1104
325.000000	75.864	162.4767
330.000000	75.814	162.8290
335.000000	75.764	163.2102
340.000000	75.718	163.5912
345.000000	75.672	163.9455
350.000000	75.625	164.3069
355.000000	75.577	164.6885
360.000000	75.535	165.0649
365.000000	75.492	165.4114
370.000000	75.445	165.7596
375.000000	75.401	166.1420
382.000000	75.344	166.6810
387.000000	75.310	167.0409
395.000000	75.249	167.6184
400.000000	75.204	167.9925
406.000000	75.153	168.4517
412.000000	75.112	168.8784
418.000000	75.078	169.2988
425.000000	75.029	169.7846
431.000000	74.990	170.2256
437.000000	74.958	170.6969
444.000000	74.920	171.1915
450.000000	74.892	171.6056
455.000000	74.874	171.9729
462.000000	74.844	172.4844
468.000000	74.812	172.9098
475.000000	74.772	173.4187
482.000000	74.733	173.9330
487.000000	74.711	174.2874
494.000000	74.692	174.7766
500.000000	74.675	175.2098
508.000000	74.645	175.7833
515.000000	74.617	176.2494
522.000000	74.594	176.7296
530.000000	74.572	177.2820
538.000000	74.554	177.8069
545.000000	74.534	178.2520
552.000000	74.512	178.7197
560.000000	74.489	179.2785
570.000000	74.462	179.9884
580.000000	74.442	-179.3132
590.000000	74.428	-178.6283
600.000000	74.412	-177.8963
608.000000	74.396	-177.3011
615.000000	74.382	-176.7955
622.000000	74.370	-176.3021
630.000000	74.358	-175.7423
640.000000	74.351	-175.0317
650.000000	74.345	-174.3405
660.000000	74.337	-173.6547
670.000000	74.337	-172.9466
680.000000	74.337	-172.2424
690.000000	74.332	-171.5667
700.000000	74.323	-170.8860
710.000000	74.317	-170.1935
720.000000	74.319	-169.5081
730.000000	74.327	-168.8353
740.000000	74.335	-168.1427
750.000000	74.344	-167.4422
762.000000	74.361	-166.6374
775.000000	74.381	-165.7602
788.000000	74.406	-164.8222
800.000000	74.431	-164.0055
812.000000	74.461	-163.2148
825.000000	74.492	-162.3723
838.000000	74.529	-161.5351
850.000000	74.571	-160.7693
862.000000	74.615	-160.0175
875.000000	74.668	-159.2124
885.000000	74.714	-158.6082
900.000000	74.782	-157.7068
912.000000	74.837	-156.9997
925.000000	74.903	-156.2659
938.000000	74.977	-155.5527
950.000000	75.044	-154.9257
962.000000	75.111	-154.3319
975.000000	75.189	-153.7250
988.000000	75.272	-153.1819
1000.000000	75.351	-152.7154
1015.000000	75.451	-152.0672
1030.000000	75.551	-151.4569
1044.000000	75.650	-150.9498
1060.000000	75.760	-150.4336
1075.000000	75.862	-150.0061
1090.000000	75.966	-149.6232
1106.000000	76.083	-149.2267
1120.000000	76.187	-148.9007
1138.000000	76.319	-148.5527
1150.000000	76.405	-148.3505
1172.000000	76.557	-148.0122
1180.000000	76.612	-147.9010
1206.000000	76.789	-147.5603
1220.000000	76.881	-147.3870
1241.000000	77.013	-147.1435
1250.000000	77.069	-147.0517
1265.000000	77.164	-146.9147
1280.000000	77.255	-146.7919
1315.000000	77.459	-146.5309
1320.000000	77.487	-146.4937
1340.000000	77.597	-146.3494
1360.000000	77.703	-146.2166
1380.000000	77.810	-146.0971
1400.000000	77.922	-145.9950
1430.000000	78.089	-145.8937
1450.000000	78.197	-145.8370
1475.000000	78.332	-145.7919
1500.000000	78.464	-145.7831
1525.000000	78.592	-145.7684
1550.000000	78.716	-145.7520
1575.000000	78.838	-145.7411
1600.000000	78.954	-145.7370
1625.000000	79.070	-145.7609
1650.000000	79.186	-145.8012
1675.000000	79.300	-145.8457
1700.000000	79.413	-145.8780
1725.000000	79.526	-145.9097
1750.000000	79.637	-145.9598
1775.000000	79.744	-146.0223
1800.000000	79.852	-146.0965
1825.000000	79.961	-146.1812
1850.000000	80.072	-146.2827
1875.000000	80.181	-146.4028
1900.000000	80.290	-146.5347
1925.000000	80.398	-146.6711
1950.000000	80.506	-146.8223
1975.000000	80.614	-147.0101
2000.000000	80.723	-147.2272
2030.000000	80.853	-147.5019
2060.000000	80.982	-147.7939
2090.000000	81.109	-148.1259
2120.000000	81.235	-148.4917
2140.000000	81.320	-148.7587
2180.000000	81.484	-149.3381
2200.000000	81.562	-149.6393
2240.000000	81.716	-150.2779
2270.000000	81.829	-150.8022
2300.000000	81.936	-151.3571
2330.000000	82.039	-151.9369
2360.000000	82.139	-152.5406
2400.000000	82.267	-153.3876
2430.000000	82.359	-154.0575
2470.000000	82.473	-154.9841
2500.000000	82.554	-155.6957
2540.000000	82.654	-156.6701
2580.000000	82.745	-157.6794
2620.000000	82.826	-158.7097
2650.000000	82.881	-159.4967
2690.000000	82.945	-160.5587
2720.000000	82.987	-161.3580
2760.000000	83.033	-162.4224
2800.000000	83.069	-163.4906
2850.000000	83.102	-164.8230
2900.000000	83.123	-166.1316
2950.000000	83.131	-167.4151
3000.000000	83.126	-168.6768
3040.000000	83.113	-169.6642
3070.000000	83.100	-170.3829
3110.000000	83.077	-171.3167
3150.000000	83.049	-172.2296
3200.000000	83.006	-173.3347
3250.000000	82.954	-174.3878
3300.000000	82.896	-175.3762
3350.000000	82.830	-176.3210
3400.000000	82.762	-177.2157
3450.000000	82.698	-178.0612
3500.000000	82.635	-178.8575
3550.000000	82.570	-179.6133
3600.000000	82.504	179.6691
3650.000000	82.438	178.9999
3700.000000	82.369	178.3758
3750.000000	82.299	177.7797
3820.000000	82.199	176.9838
3870.000000	82.122	176.4518
3950.000000	81.991	175.6655
4000.000000	81.908	175.2031
4060.000000	81.807	174.6771
4120.000000	81.702	174.1836
4180.000000	81.598	173.7218
4250.000000	81.473	173.2160
4310.000000	81.357	172.8293
4370.000000	81.230	172.4841
4440.000000	81.073	172.1634
4500.000000	80.939	171.9731
4550.000000	80.834	171.8567
4620.000000	80.694	171.7075
4680.000000	80.578	171.5555
4750.000000	80.442	171.3652
4820.000000	80.298	171.2165
4870.000000	80.192	171.1502
4940.000000	80.042	171.1156
5000.000000	79.913	171.1306
5080.000000	79.741	171.2180
5150.000000	79.596	171.3548
5220.000000	79.457	171.5428
5300.000000	79.306	171.8160
5380.000000	79.162	172.1473
5450.000000	79.041	172.4856
5520.000000	78.926	172.8688
5600.000000	78.803	173.3544
5700.000000	78.666	174.0376
5800.000000	78.549	174.7903
5900.000000	78.453	175.6054
6000.000000	78.382	176.4511
6080.000000	78.343	177.1543
6150.000000	78.323	177.7695
6220.000000	78.318	178.3750
6300.000000	78.331	179.0623
6400.000000	78.374	179.9102
6500.000000	78.451	-179.3187
6600.000000	78.561	-178.6662
6700.000000	78.705	-178.1582
6800.000000	78.887	-177.8439
6900.000000	79.117	-177.7737
7000.000000	79.390	-177.9952
7100.000000	79.685	-178.5548
7200.000000	79.987	-179.4748
7300.000000	80.287	179.2245
7400.000000	80.578	177.5472
7500.000000	80.857	175.5219
7620.000000	81.191	172.5864
7750.000000	81.527	168.6306
7880.000000	81.723	163.7179
8000.000000	81.739	158.3912
8120.000000	81.576	152.6113
8250.000000	81.173	146.3326
8380.000000	80.543	140.5986
8500.000000	79.798	136.1723
8620.000000	78.941	132.7698
8750.000000	77.935	130.3037
8850.000000	77.139	129.2036
9000.000000	75.962	128.6813
9120.000000	75.065	129.0927
9250.000000	74.147	130.1944
9380.000000	73.289	131.8312
9500.000000	72.558	133.7132
9620.000000	71.886	135.8864
9750.000000	71.222	138.4952
9880.000000	70.625	141.3030
10000.000000	70.124	144.0357
10150.000000	69.559	147.5949
10300.000000	69.065	151.2628
10440.000000	68.659	154.7886
10600.000000	68.263	158.9329
10750.000000	67.951	162.8348
10900.000000	67.696	166.7136
11060.000000	67.489	170.8499
11200.000000	67.359	174.4492
11380.000000	67.250	179.0016
11500.000000	67.217	-178.0297
11720.000000	67.243	-172.7228
11800.000000	67.279	-170.8524
12060.000000	67.485	-165.0438
12200.000000	67.647	-162.1390
12410.000000	67.939	-158.0595
12500.000000	68.087	-156.4252
12650.000000	68.375	-153.9255
12800.000000	68.711	-151.7810
13150.000000	69.677	-148.2155
13200.000000	69.833	-147.9006
13400.000000	70.493	-147.2232
13600.000000	71.204	-147.5924
13800.000000	71.942	-149.2148
14000.000000	72.657	-152.2095
14300.000000	73.559	-159.1815
14500.000000	73.985	-165.2954
14750.000000	74.245	-174.2721
15000.000000	74.139	175.8993
15250.000000	73.666	166.1103
15500.000000	72.901	157.1705
15750.000000	71.930	149.5854
16000.000000	70.813	143.4435
16250.000000	69.613	138.3582
16500.000000	68.345	133.4048
16750.000000	66.850	127.5952
17000.000000	64.586	126.3385
17250.000000	61.963	141.4816
17500.000000	61.510	154.6888
17750.000000	61.495	156.9055
18000.000000	60.994	158.3295
18250.000000	60.361	161.4096
18500.000000	59.780	165.6023
18750.000000	59.286	170.3672
19000.000000	58.877	175.3646
19250.000000	58.561	-179.6074
19500.000000	58.313	-174.5839
19750.000000	58.110	-169.9375
20000.000000	57.962	-166.8918
