* Measurement data measured by REW V5.20.13
* Source: EXCL: Mic in at rear panel (Pink)(Realtek(R) Audio), MICROPHONE (마스), L, volume: 0.500
* Format: 256k Log Swept Sine, 1 sweep at -12.0 dBFS with no timing reference
* Dated: 2022. 10. 1 오후 5:25:57
* REW Settings:
*  C-weighting compensation: Off
*  Target level: 75.0 dB
* Note: 
* Measurement: L_AET08
* Smoothing: 1/24 octave
* Frequency Step: 1/48 octave
* Start Frequency: 20.300 Hz
*
* Freq(Hz)	SPL(dB)	Phase(degrees)
20.299999	83.796	-169.9322
20.600000	83.806	-170.0927
20.900000	83.824	-170.4002
21.200001	83.835	-170.7491
21.400000	83.838	-171.0049
21.799999	83.833	-171.5672
22.000000	83.825	-171.8664
22.400000	83.800	-172.4769
22.700001	83.776	-172.9316
23.000000	83.749	-173.3743
23.299999	83.722	-173.7973
23.600000	83.699	-174.1981
24.000000	83.679	-174.7073
24.299999	83.674	-175.0920
24.700001	83.678	-175.6461
25.000000	83.685	-176.1092
25.400000	83.688	-176.7782
25.799999	83.680	-177.4441
26.200001	83.661	-178.0287
26.500000	83.645	-178.3907
26.900000	83.627	-178.7894
27.200001	83.618	-179.0621
27.600000	83.610	-179.4363
28.000000	83.599	-179.8341
28.500000	83.574	179.6939
29.000000	83.545	179.3182
29.500000	83.528	178.9986
30.000000	83.524	178.6099
30.400000	83.521	178.2051
30.700001	83.512	177.8631
31.100000	83.490	177.4063
31.500000	83.462	176.9880
32.000000	83.427	176.5270
32.500000	83.399	176.0906
33.000000	83.377	175.6465
33.500000	83.359	175.2066
34.000000	83.344	174.7820
34.500000	83.333	174.3521
35.000000	83.321	173.8986
35.500000	83.302	173.4366
36.000000	83.278	172.9917
36.500000	83.248	172.5684
37.000000	83.211	172.1731
37.500000	83.168	171.8399
38.200001	83.115	171.4951
38.700001	83.094	171.2229
39.500000	83.053	170.5077
40.000000	82.993	170.0499
40.599998	82.906	169.7940
41.200001	82.864	169.7974
41.799999	82.883	169.6555
42.500000	82.907	168.9745
43.099998	82.876	168.2494
43.700001	82.815	167.7288
44.400002	82.752	167.3655
45.000000	82.714	167.0862
45.500000	82.684	166.8369
46.200001	82.640	166.5043
46.799999	82.606	166.2404
47.500000	82.574	165.9148
48.200001	82.547	165.5371
48.700001	82.529	165.2271
49.400002	82.498	164.7472
50.000000	82.461	164.3342
50.799999	82.399	163.8792
51.500000	82.347	163.6254
52.200001	82.311	163.4615
53.000000	82.286	163.2665
53.799999	82.268	163.0065
54.500000	82.249	162.7155
55.200001	82.222	162.3602
56.000000	82.171	161.9470
57.000000	82.096	161.5280
58.000000	82.022	161.1508
59.000000	81.949	160.8195
60.000000	81.889	160.4885
60.799999	81.841	160.1765
61.500000	81.796	159.9234
62.200001	81.752	159.7188
63.000000	81.709	159.5148
64.000000	81.661	159.2396
65.000000	81.610	158.9332
66.000000	81.554	158.6351
67.000000	81.493	158.3378
68.000000	81.426	158.0573
69.000000	81.357	157.8526
70.000000	81.303	157.6740
71.000000	81.256	157.4108
72.000000	81.198	157.1419
73.000000	81.145	156.9331
74.000000	81.092	156.6567
75.000000	81.017	156.4150
76.199997	80.926	156.3416
77.500000	80.850	156.2871
78.800003	80.782	156.1898
80.000000	80.729	156.0335
81.199997	80.677	155.8151
82.500000	80.620	155.5949
83.800003	80.576	155.3860
85.000000	80.531	155.0931
86.199997	80.461	154.8478
87.500000	80.378	154.6945
88.500000	80.315	154.6225
90.000000	80.237	154.4796
91.199997	80.179	154.2505
92.500000	80.114	153.9872
93.800003	80.056	153.7544
95.000000	80.004	153.5547
96.199997	79.947	153.4013
97.500000	79.879	153.2927
98.800003	79.806	153.2224
100.000000	79.739	153.1763
101.500000	79.667	153.0605
103.000000	79.591	152.8266
104.400002	79.508	152.6537
106.000000	79.414	152.6117
107.500000	79.338	152.6451
109.000000	79.265	152.6003
110.599998	79.178	152.4975
112.000000	79.100	152.4144
113.800003	79.004	152.4126
115.000000	78.940	152.4997
117.199997	78.791	152.9376
118.000000	78.730	153.2294
120.599998	78.587	153.9833
122.000000	78.484	153.8976
124.099998	78.293	154.1947
125.000000	78.246	154.5500
126.500000	78.230	155.2438
128.000000	78.273	155.9991
131.500000	78.506	157.0429
132.000000	78.538	157.0343
134.000000	78.623	156.6458
136.000000	78.636	155.9904
138.000000	78.602	155.3218
140.000000	78.542	154.7498
143.000000	78.428	154.1426
145.000000	78.356	153.9244
147.500000	78.266	153.7428
150.000000	78.168	153.6986
152.500000	78.075	153.7286
155.000000	77.991	153.7343
157.500000	77.910	153.7294
160.000000	77.828	153.7495
162.500000	77.743	153.8322
165.000000	77.664	153.9130
167.500000	77.587	153.9532
170.000000	77.512	154.0150
172.500000	77.441	154.0897
175.000000	77.373	154.1840
177.500000	77.306	154.3015
180.000000	77.236	154.4378
182.500000	77.168	154.5797
185.000000	77.104	154.6958
187.500000	77.038	154.8304
190.000000	76.973	154.9998
192.500000	76.911	155.1567
195.000000	76.855	155.3098
197.500000	76.802	155.4715
200.000000	76.749	155.6331
203.000000	76.681	155.8071
206.000000	76.616	155.9820
209.000000	76.554	156.1683
212.000000	76.492	156.3774
214.000000	76.452	156.5162
218.000000	76.372	156.8145
220.000000	76.336	156.9701
224.000000	76.266	157.2747
227.000000	76.213	157.5144
230.000000	76.163	157.7536
233.000000	76.122	157.9726
236.000000	76.075	158.1937
240.000000	75.995	158.5032
243.000000	75.937	158.7340
247.000000	75.878	159.0481
250.000000	75.834	159.2902
254.000000	75.773	159.6257
258.000000	75.710	159.9301
262.000000	75.645	160.2126
265.000000	75.597	160.4396
269.000000	75.537	160.7376
272.000000	75.497	160.9547
276.000000	75.445	161.2856
280.000000	75.394	161.6451
285.000000	75.339	162.0477
290.000000	75.283	162.4019
295.000000	75.236	162.7968
300.000000	75.192	163.1820
304.000000	75.153	163.5112
307.000000	75.123	163.7737
311.000000	75.086	164.1038
315.000000	75.049	164.4220
320.000000	75.002	164.8516
325.000000	74.961	165.2696
330.000000	74.923	165.6698
335.000000	74.885	166.0588
340.000000	74.848	166.4175
345.000000	74.809	166.7916
350.000000	74.765	167.1876
355.000000	74.721	167.6051
360.000000	74.681	168.0059
365.000000	74.643	168.4191
370.000000	74.607	168.8373
375.000000	74.571	169.2301
382.000000	74.519	169.7362
387.000000	74.481	170.0823
395.000000	74.424	170.7065
400.000000	74.400	171.1387
406.000000	74.371	171.6099
412.000000	74.332	172.0436
418.000000	74.294	172.4829
425.000000	74.256	173.0164
431.000000	74.230	173.4561
437.000000	74.206	173.8856
444.000000	74.177	174.3531
450.000000	74.151	174.7611
455.000000	74.131	175.1241
462.000000	74.106	175.6622
468.000000	74.087	176.1094
475.000000	74.066	176.6232
482.000000	74.046	177.1381
487.000000	74.030	177.5304
494.000000	74.010	178.0669
500.000000	73.995	178.4719
508.000000	73.973	179.0007
515.000000	73.951	179.4821
522.000000	73.928	179.9647
530.000000	73.903	-179.4728
538.000000	73.886	-178.9035
545.000000	73.873	-178.4183
552.000000	73.861	-177.9448
560.000000	73.842	-177.3842
570.000000	73.823	-176.6650
580.000000	73.809	-175.9815
590.000000	73.797	-175.3024
600.000000	73.784	-174.5920
608.000000	73.769	-173.9788
615.000000	73.757	-173.4637
622.000000	73.750	-172.9938
630.000000	73.749	-172.4836
640.000000	73.748	-171.8130
650.000000	73.746	-171.0914
660.000000	73.749	-170.3365
670.000000	73.752	-169.6016
680.000000	73.755	-168.8772
690.000000	73.757	-168.1701
700.000000	73.762	-167.5110
710.000000	73.770	-166.8146
720.000000	73.778	-166.0928
730.000000	73.784	-165.3842
740.000000	73.796	-164.6945
750.000000	73.817	-164.0211
762.000000	73.846	-163.1860
775.000000	73.868	-162.2982
788.000000	73.891	-161.4266
800.000000	73.923	-160.6190
812.000000	73.958	-159.8360
825.000000	74.001	-158.9690
838.000000	74.044	-158.1120
850.000000	74.091	-157.3529
862.000000	74.146	-156.6069
875.000000	74.203	-155.7933
885.000000	74.248	-155.1767
900.000000	74.319	-154.3051
912.000000	74.381	-153.6097
925.000000	74.456	-152.8623
938.000000	74.532	-152.1598
950.000000	74.603	-151.5539
962.000000	74.676	-150.9755
975.000000	74.760	-150.3709
988.000000	74.846	-149.8319
1000.000000	74.928	-149.3752
1015.000000	75.036	-148.7324
1030.000000	75.142	-148.1050
1044.000000	75.238	-147.6083
1060.000000	75.347	-147.1134
1075.000000	75.452	-146.6678
1090.000000	75.559	-146.2685
1106.000000	75.679	-145.8812
1120.000000	75.789	-145.5840
1138.000000	75.924	-145.2722
1150.000000	76.012	-145.0703
1172.000000	76.173	-144.7114
1180.000000	76.229	-144.6025
1206.000000	76.406	-144.2626
1220.000000	76.498	-144.0997
1241.000000	76.633	-143.8883
1250.000000	76.688	-143.8051
1265.000000	76.777	-143.6837
1280.000000	76.868	-143.5805
1315.000000	77.078	-143.3342
1320.000000	77.106	-143.2996
1340.000000	77.216	-143.1655
1360.000000	77.322	-143.0392
1380.000000	77.426	-142.9167
1400.000000	77.534	-142.8145
1430.000000	77.695	-142.6855
1450.000000	77.802	-142.6059
1475.000000	77.934	-142.5024
1500.000000	78.063	-142.3976
1525.000000	78.193	-142.3467
1550.000000	78.322	-142.3176
1575.000000	78.447	-142.2795
1600.000000	78.569	-142.2531
1625.000000	78.693	-142.2429
1650.000000	78.817	-142.2444
1675.000000	78.936	-142.2564
1700.000000	79.053	-142.2822
1725.000000	79.169	-142.3352
1750.000000	79.284	-142.3924
1775.000000	79.397	-142.4674
1800.000000	79.510	-142.5499
1825.000000	79.624	-142.6447
1850.000000	79.736	-142.7600
1875.000000	79.846	-142.8838
1900.000000	79.955	-143.0237
1925.000000	80.064	-143.1920
1950.000000	80.174	-143.3803
1975.000000	80.281	-143.5868
2000.000000	80.386	-143.8154
2030.000000	80.511	-144.1065
2060.000000	80.634	-144.4168
2090.000000	80.755	-144.7635
2120.000000	80.874	-145.1490
2140.000000	80.953	-145.4225
2180.000000	81.105	-145.9927
2200.000000	81.177	-146.2917
2240.000000	81.315	-146.9345
2270.000000	81.414	-147.4413
2300.000000	81.510	-147.9639
2330.000000	81.602	-148.5121
2360.000000	81.689	-149.0838
2400.000000	81.798	-149.8729
2430.000000	81.875	-150.4903
2470.000000	81.971	-151.3358
2500.000000	82.036	-151.9771
2540.000000	82.116	-152.8337
2580.000000	82.185	-153.6803
2620.000000	82.243	-154.5155
2650.000000	82.281	-155.1397
2690.000000	82.327	-155.9486
2720.000000	82.359	-156.5298
2760.000000	82.401	-157.2798
2800.000000	82.445	-158.0319
2850.000000	82.501	-159.0150
2900.000000	82.549	-160.0619
2950.000000	82.580	-161.1634
3000.000000	82.592	-162.2560
3040.000000	82.591	-163.0964
3070.000000	82.586	-163.7044
3110.000000	82.576	-164.4849
3150.000000	82.561	-165.2269
3200.000000	82.538	-166.1138
3250.000000	82.512	-166.9764
3300.000000	82.482	-167.7985
3350.000000	82.447	-168.5788
3400.000000	82.410	-169.3370
3450.000000	82.376	-170.0723
3500.000000	82.346	-170.7741
3550.000000	82.314	-171.4527
3600.000000	82.278	-172.1057
3650.000000	82.240	-172.7341
3700.000000	82.200	-173.3362
3750.000000	82.157	-173.9102
3820.000000	82.093	-174.6604
3870.000000	82.042	-175.1645
3950.000000	81.952	-175.9169
4000.000000	81.894	-176.3469
4060.000000	81.827	-176.8201
4120.000000	81.769	-177.2654
4180.000000	81.721	-177.7348
4250.000000	81.664	-178.4016
4310.000000	81.598	-179.0568
4370.000000	81.507	-179.7124
4440.000000	81.373	179.6055
4500.000000	81.252	179.1203
4550.000000	81.155	178.7742
4620.000000	81.026	178.3011
4680.000000	80.916	177.8524
4750.000000	80.774	177.2993
4820.000000	80.614	176.7939
4870.000000	80.490	176.4972
4940.000000	80.312	176.1728
5000.000000	80.160	175.9631
5080.000000	79.957	175.7470
5150.000000	79.777	175.6063
5220.000000	79.591	175.5344
5300.000000	79.373	175.5436
5380.000000	79.152	175.6783
5450.000000	78.957	175.9199
5520.000000	78.764	176.2744
5600.000000	78.549	176.8039
5700.000000	78.295	177.6682
5800.000000	78.059	178.7775
5900.000000	77.853	-179.9102
6000.000000	77.688	-178.4108
6080.000000	77.590	-177.1076
6150.000000	77.532	-175.9424
6220.000000	77.497	-174.7660
6300.000000	77.485	-173.4242
6400.000000	77.511	-171.7874
6500.000000	77.583	-170.2435
6600.000000	77.699	-168.8175
6700.000000	77.854	-167.5330
6800.000000	78.052	-166.4436
6900.000000	78.306	-165.5638
7000.000000	78.618	-164.8850
7100.000000	78.976	-164.4409
7200.000000	79.375	-164.3198
7300.000000	79.815	-164.5975
7400.000000	80.297	-165.3303
7500.000000	80.823	-166.6475
7620.000000	81.515	-169.2832
7750.000000	82.268	-173.9553
7880.000000	82.816	179.0361
8000.000000	82.993	170.7865
8120.000000	82.772	161.8989
8250.000000	82.090	153.0892
8380.000000	81.061	146.3521
8500.000000	79.954	142.3267
8620.000000	78.823	140.1409
8750.000000	77.652	139.2961
8850.000000	76.814	139.3870
9000.000000	75.664	140.2856
9120.000000	74.820	141.4937
9250.000000	73.970	143.2286
9380.000000	73.184	145.3551
9500.000000	72.515	147.6137
9620.000000	71.903	150.0956
9750.000000	71.305	152.9809
9880.000000	70.766	156.0018
10000.000000	70.319	158.8890
10150.000000	69.814	162.6257
10300.000000	69.365	166.5198
10440.000000	69.004	170.2700
10600.000000	68.662	174.6443
10750.000000	68.407	178.8467
10900.000000	68.216	-176.8473
11060.000000	68.085	-172.1845
11200.000000	68.034	-168.1369
11380.000000	68.054	-162.9872
11500.000000	68.133	-159.5335
11720.000000	68.429	-153.3724
11800.000000	68.584	-151.2380
12060.000000	69.279	-144.8353
12200.000000	69.764	-141.7950
12410.000000	70.639	-138.0995
12500.000000	71.074	-136.9511
12650.000000	71.886	-135.7926
12800.000000	72.792	-135.8319
13150.000000	74.958	-142.6938
13200.000000	75.222	-144.6155
13400.000000	75.979	-154.4857
13600.000000	76.105	-166.3239
13800.000000	75.585	-177.3290
14000.000000	74.614	174.5613
14300.000000	72.877	168.3289
14500.000000	71.814	167.0234
14750.000000	70.730	167.1011
15000.000000	69.936	168.0367
15250.000000	69.425	169.0927
15500.000000	69.209	169.5963
15750.000000	69.265	168.8749
16000.000000	69.474	166.1503
16250.000000	69.654	160.4518
16500.000000	69.535	151.4815
16750.000000	68.862	140.2352
17000.000000	67.457	128.5392
17250.000000	64.969	123.2295
17500.000000	61.853	131.9399
17750.000000	60.158	142.4195
18000.000000	59.410	149.5225
18250.000000	58.886	155.5236
18500.000000	58.556	160.8925
18750.000000	58.387	165.3058
19000.000000	58.276	168.5255
19250.000000	58.135	170.6325
19500.000000	57.907	171.7820
19750.000000	57.599	172.2410
20000.000000	57.317	172.4234
