* Measurement data measured by REW V5.20.13
* Source: EXCL: Mic in at rear panel (Pink)(Realtek(R) Audio), MICROPHONE (마스), L, volume: 0.500
* Format: 256k Log Swept Sine, 1 sweep at -12.0 dBFS with no timing reference
* Dated: 2022. 10. 1 오후 5:21:41
* REW Settings:
*  C-weighting compensation: Off
*  Target level: 75.0 dB
* Note: 
* Measurement: L_UC
* Smoothing: 1/24 octave
* Frequency Step: 1/48 octave
* Start Frequency: 20.300 Hz
*
* Freq(Hz)	SPL(dB)	Phase(degrees)
20.299999	83.849	-170.3540
20.600000	83.846	-170.5848
20.900000	83.839	-170.9905
21.200001	83.829	-171.3618
21.400000	83.820	-171.5959
21.799999	83.800	-172.0623
22.000000	83.789	-172.3023
22.400000	83.766	-172.7894
22.700001	83.750	-173.1619
23.000000	83.738	-173.5524
23.299999	83.730	-173.9744
23.600000	83.723	-174.4353
24.000000	83.714	-175.1039
24.299999	83.703	-175.6200
24.700001	83.681	-176.2779
25.000000	83.663	-176.7184
25.400000	83.643	-177.2254
25.799999	83.632	-177.6742
26.200001	83.631	-178.1155
26.500000	83.630	-178.4558
26.900000	83.624	-178.9086
27.200001	83.615	-179.2269
27.600000	83.602	-179.6079
28.000000	83.592	-179.9610
28.500000	83.585	179.5619
29.000000	83.570	179.0045
29.500000	83.538	178.4314
30.000000	83.496	177.9332
30.400000	83.466	177.5843
30.700001	83.448	177.3214
31.100000	83.427	176.9341
31.500000	83.403	176.5076
32.000000	83.364	175.9810
32.500000	83.323	175.5268
33.000000	83.293	175.1258
33.500000	83.277	174.7076
34.000000	83.263	174.2507
34.500000	83.242	173.8062
35.000000	83.220	173.4167
35.500000	83.203	173.0609
36.000000	83.190	172.6891
36.500000	83.174	172.2904
37.000000	83.150	171.8984
37.500000	83.122	171.5443
38.200001	83.082	171.1043
38.700001	83.058	170.7949
39.500000	83.027	170.2187
40.000000	83.003	169.7798
40.599998	82.959	169.2283
41.200001	82.899	168.7868
41.799999	82.846	168.5048
42.500000	82.812	168.2227
43.099998	82.791	167.9134
43.700001	82.761	167.6395
44.400002	82.737	167.4512
45.000000	82.739	167.2625
45.500000	82.743	166.9874
46.200001	82.729	166.4984
46.799999	82.704	166.0918
47.500000	82.669	165.5966
48.200001	82.618	165.0577
48.700001	82.570	164.7157
49.400002	82.501	164.3334
50.000000	82.445	164.0363
50.799999	82.366	163.7153
51.500000	82.309	163.5763
52.200001	82.280	163.4280
53.000000	82.256	163.0851
53.799999	82.213	162.6984
54.500000	82.169	162.4301
55.200001	82.127	162.2082
56.000000	82.085	161.9872
57.000000	82.043	161.6744
58.000000	81.994	161.2726
59.000000	81.936	160.8253
60.000000	81.858	160.2952
60.799999	81.780	159.9085
61.500000	81.712	159.6369
62.200001	81.653	159.3829
63.000000	81.596	159.0686
64.000000	81.528	158.6447
65.000000	81.465	158.3235
66.000000	81.431	158.1078
67.000000	81.413	157.8007
68.000000	81.378	157.4872
69.000000	81.324	157.2163
70.000000	81.243	157.0389
71.000000	81.158	157.0000
72.000000	81.084	156.9118
73.000000	81.009	156.7126
74.000000	80.932	156.4454
75.000000	80.858	156.2135
76.199997	80.795	156.0112
77.500000	80.747	155.7468
78.800003	80.681	155.5739
80.000000	80.619	155.6345
81.199997	80.577	155.6515
82.500000	80.525	155.4800
83.800003	80.470	155.1473
85.000000	80.404	154.6874
86.199997	80.321	154.3394
87.500000	80.245	154.1173
88.500000	80.189	153.9851
90.000000	80.103	153.8528
91.199997	80.031	153.7814
92.500000	79.957	153.6935
93.800003	79.889	153.5337
95.000000	79.826	153.3336
96.199997	79.763	153.1588
97.500000	79.700	153.0144
98.800003	79.636	152.9108
100.000000	79.571	152.8543
101.500000	79.483	152.8123
103.000000	79.389	152.7318
104.400002	79.295	152.6295
106.000000	79.196	152.5261
107.500000	79.116	152.4942
109.000000	79.044	152.5513
110.599998	78.952	152.6946
112.000000	78.848	152.8857
113.800003	78.703	153.1264
115.000000	78.621	153.1923
117.199997	78.548	153.0602
118.000000	78.542	152.9138
120.599998	78.408	153.1952
122.000000	78.366	154.5873
124.099998	78.436	156.3565
125.000000	78.468	156.7810
126.500000	78.513	157.0938
128.000000	78.559	157.0055
131.500000	78.641	156.1069
132.000000	78.642	155.9886
134.000000	78.623	155.6182
136.000000	78.580	155.2259
138.000000	78.518	154.7764
140.000000	78.455	154.4128
143.000000	78.355	154.0613
145.000000	78.276	153.9153
147.500000	78.172	153.7827
150.000000	78.077	153.6995
152.500000	77.990	153.6524
155.000000	77.903	153.6177
157.500000	77.817	153.6308
160.000000	77.735	153.6857
162.500000	77.653	153.7473
165.000000	77.570	153.8487
167.500000	77.489	153.9833
170.000000	77.412	154.1084
172.500000	77.338	154.2109
175.000000	77.262	154.3163
177.500000	77.187	154.4585
180.000000	77.117	154.5941
182.500000	77.049	154.7286
185.000000	76.979	154.8987
187.500000	76.910	155.0920
190.000000	76.845	155.2830
192.500000	76.786	155.4780
195.000000	76.731	155.6833
197.500000	76.674	155.9338
200.000000	76.620	156.1917
203.000000	76.559	156.4734
206.000000	76.510	156.7563
209.000000	76.473	157.0197
212.000000	76.437	157.2242
214.000000	76.410	157.3318
218.000000	76.351	157.5314
220.000000	76.321	157.6323
224.000000	76.248	157.8840
227.000000	76.189	158.0583
230.000000	76.135	158.1671
233.000000	76.086	158.2935
236.000000	76.036	158.4635
240.000000	75.961	158.7294
243.000000	75.909	158.9619
247.000000	75.843	159.2545
250.000000	75.791	159.4371
254.000000	75.727	159.7042
258.000000	75.671	160.0402
262.000000	75.610	160.3964
265.000000	75.564	160.6367
269.000000	75.509	160.9388
272.000000	75.470	161.1540
276.000000	75.415	161.4424
280.000000	75.366	161.7788
285.000000	75.305	162.2266
290.000000	75.249	162.6178
295.000000	75.203	162.9631
300.000000	75.154	163.3824
304.000000	75.110	163.6967
307.000000	75.075	163.9198
311.000000	75.029	164.2422
315.000000	74.991	164.5680
320.000000	74.948	164.9755
325.000000	74.910	165.3927
330.000000	74.880	165.7958
335.000000	74.842	166.1789
340.000000	74.799	166.5526
345.000000	74.759	166.9866
350.000000	74.719	167.4095
355.000000	74.682	167.7709
360.000000	74.647	168.1399
365.000000	74.605	168.5256
370.000000	74.570	168.8939
375.000000	74.539	169.2620
382.000000	74.482	169.7963
387.000000	74.445	170.1826
395.000000	74.391	170.8242
400.000000	74.359	171.2163
406.000000	74.322	171.6723
412.000000	74.285	172.1458
418.000000	74.251	172.6186
425.000000	74.213	173.1156
431.000000	74.180	173.5713
437.000000	74.150	174.0359
444.000000	74.124	174.5590
450.000000	74.105	174.9853
455.000000	74.090	175.3483
462.000000	74.066	175.8620
468.000000	74.042	176.3107
475.000000	74.017	176.8355
482.000000	73.995	177.3182
487.000000	73.980	177.6842
494.000000	73.953	178.2108
500.000000	73.933	178.6365
508.000000	73.915	179.1948
515.000000	73.902	179.6896
522.000000	73.886	-179.8372
530.000000	73.869	-179.2903
538.000000	73.855	-178.7292
545.000000	73.839	-178.2225
552.000000	73.820	-177.7062
560.000000	73.804	-177.1474
570.000000	73.783	-176.4963
580.000000	73.759	-175.8088
590.000000	73.746	-175.1312
600.000000	73.733	-174.4102
608.000000	73.721	-173.8028
615.000000	73.714	-173.2822
622.000000	73.711	-172.7890
630.000000	73.710	-172.2379
640.000000	73.704	-171.5149
650.000000	73.702	-170.7708
660.000000	73.703	-170.0461
670.000000	73.705	-169.3229
680.000000	73.705	-168.6012
690.000000	73.703	-167.9181
700.000000	73.706	-167.2104
710.000000	73.713	-166.4859
720.000000	73.724	-165.7871
730.000000	73.739	-165.1090
740.000000	73.755	-164.4121
750.000000	73.769	-163.7337
762.000000	73.785	-162.9391
775.000000	73.811	-162.0324
788.000000	73.844	-161.1346
800.000000	73.874	-160.3027
812.000000	73.905	-159.4963
825.000000	73.944	-158.6580
838.000000	73.989	-157.8257
850.000000	74.038	-157.0625
862.000000	74.090	-156.3003
875.000000	74.147	-155.4873
885.000000	74.194	-154.8716
900.000000	74.269	-153.9968
912.000000	74.330	-153.3028
925.000000	74.400	-152.5745
938.000000	74.476	-151.8822
950.000000	74.550	-151.2534
962.000000	74.624	-150.6467
975.000000	74.709	-150.0514
988.000000	74.802	-149.5140
1000.000000	74.888	-149.0253
1015.000000	74.985	-148.3547
1030.000000	75.085	-147.7429
1044.000000	75.181	-147.2635
1060.000000	75.291	-146.7729
1075.000000	75.394	-146.3456
1090.000000	75.498	-145.9506
1106.000000	75.620	-145.5820
1120.000000	75.729	-145.2958
1138.000000	75.862	-144.9449
1150.000000	75.948	-144.7164
1172.000000	76.103	-144.3569
1180.000000	76.159	-144.2495
1206.000000	76.337	-143.9142
1220.000000	76.429	-143.7460
1241.000000	76.563	-143.5121
1250.000000	76.619	-143.4147
1265.000000	76.709	-143.2780
1280.000000	76.800	-143.1607
1315.000000	77.007	-142.8749
1320.000000	77.036	-142.8397
1340.000000	77.148	-142.7037
1360.000000	77.250	-142.5597
1380.000000	77.351	-142.4277
1400.000000	77.456	-142.3061
1430.000000	77.615	-142.1619
1450.000000	77.720	-142.0692
1475.000000	77.851	-141.9547
1500.000000	77.983	-141.8256
1525.000000	78.109	-141.7150
1550.000000	78.231	-141.6180
1575.000000	78.351	-141.5387
1600.000000	78.474	-141.4738
1625.000000	78.601	-141.3937
1650.000000	78.727	-141.3292
1675.000000	78.854	-141.3164
1700.000000	78.983	-141.3251
1725.000000	79.111	-141.3353
1750.000000	79.233	-141.3767
1775.000000	79.352	-141.4644
1800.000000	79.469	-141.5975
1825.000000	79.583	-141.7400
1850.000000	79.695	-141.8646
1875.000000	79.806	-141.9843
1900.000000	79.915	-142.1237
1925.000000	80.022	-142.3004
1950.000000	80.129	-142.4961
1975.000000	80.237	-142.6964
2000.000000	80.343	-142.9124
2030.000000	80.465	-143.2117
2060.000000	80.585	-143.5402
2090.000000	80.705	-143.8823
2120.000000	80.824	-144.2350
2140.000000	80.902	-144.4960
2180.000000	81.052	-145.0715
2200.000000	81.124	-145.3706
2240.000000	81.261	-145.9983
2270.000000	81.359	-146.4940
2300.000000	81.452	-147.0098
2330.000000	81.541	-147.5534
2360.000000	81.626	-148.1122
2400.000000	81.731	-148.8766
2430.000000	81.803	-149.4587
2470.000000	81.892	-150.2597
2500.000000	81.954	-150.8712
2540.000000	82.027	-151.6862
2580.000000	82.091	-152.4854
2620.000000	82.148	-153.2588
2650.000000	82.184	-153.8164
2690.000000	82.228	-154.5379
2720.000000	82.260	-155.0713
2760.000000	82.303	-155.7755
2800.000000	82.345	-156.4695
2850.000000	82.393	-157.3366
2900.000000	82.435	-158.2309
2950.000000	82.471	-159.1494
3000.000000	82.497	-160.0665
3040.000000	82.512	-160.8029
3070.000000	82.520	-161.3532
3110.000000	82.523	-162.0739
3150.000000	82.521	-162.7690
3200.000000	82.508	-163.5945
3250.000000	82.491	-164.3758
3300.000000	82.472	-165.0980
3350.000000	82.453	-165.7543
3400.000000	82.437	-166.3715
3450.000000	82.430	-166.9595
3500.000000	82.433	-167.5342
3550.000000	82.444	-168.1319
3600.000000	82.458	-168.7762
3650.000000	82.468	-169.4806
3700.000000	82.471	-170.2252
3750.000000	82.463	-170.9877
3820.000000	82.436	-172.0547
3870.000000	82.402	-172.7876
3950.000000	82.328	-173.9060
4000.000000	82.277	-174.5691
4060.000000	82.210	-175.3333
4120.000000	82.138	-176.0695
4180.000000	82.061	-176.7776
4250.000000	81.963	-177.5677
4310.000000	81.869	-178.2153
4370.000000	81.759	-178.8179
4440.000000	81.616	-179.4356
4500.000000	81.493	-179.8880
4550.000000	81.396	179.7652
4620.000000	81.266	179.2465
4680.000000	81.151	178.7587
4750.000000	81.000	178.1993
4820.000000	80.834	177.7197
4870.000000	80.709	177.4412
4940.000000	80.530	177.1467
5000.000000	80.378	176.9542
5080.000000	80.178	176.7404
5150.000000	79.998	176.5906
5220.000000	79.813	176.5096
5300.000000	79.597	176.5349
5380.000000	79.380	176.6876
5450.000000	79.194	176.9318
5520.000000	79.013	177.2647
5600.000000	78.811	177.7564
5700.000000	78.576	178.5402
5800.000000	78.365	179.4818
5900.000000	78.177	-179.4413
6000.000000	78.014	-178.2405
6080.000000	77.905	-177.1947
6150.000000	77.829	-176.2390
6220.000000	77.773	-175.2568
6300.000000	77.731	-174.1046
6400.000000	77.713	-172.6587
6500.000000	77.736	-171.2140
6600.000000	77.802	-169.7977
6700.000000	77.909	-168.4675
6800.000000	78.068	-167.2776
6900.000000	78.290	-166.2906
7000.000000	78.573	-165.5396
7100.000000	78.902	-165.0615
7200.000000	79.269	-164.9211
7300.000000	79.669	-165.1804
7400.000000	80.098	-165.8975
7500.000000	80.555	-167.1668
7620.000000	81.136	-169.6343
7750.000000	81.740	-173.7636
7880.000000	82.152	-179.5572
8000.000000	82.283	173.8818
8120.000000	82.132	166.8284
8250.000000	81.644	159.5534
8380.000000	80.880	153.4695
8500.000000	80.015	149.2832
8620.000000	79.070	146.4879
8750.000000	78.021	144.8532
8850.000000	77.230	144.4097
9000.000000	76.109	144.7843
9120.000000	75.285	145.7642
9250.000000	74.465	147.3339
9380.000000	73.718	149.2841
9500.000000	73.087	151.3411
9620.000000	72.508	153.6071
9750.000000	71.942	156.2650
9880.000000	71.439	159.0844
10000.000000	71.020	161.7736
10150.000000	70.558	165.2025
10300.000000	70.161	168.7452
10440.000000	69.844	172.1480
10600.000000	69.538	176.1371
10750.000000	69.309	179.9160
10900.000000	69.146	-176.2756
11060.000000	69.047	-172.1682
11200.000000	69.021	-168.5668
11380.000000	69.079	-163.9776
11500.000000	69.183	-161.0055
11720.000000	69.528	-155.8856
11800.000000	69.705	-154.1658
12060.000000	70.456	-149.3385
12200.000000	70.966	-147.4000
12410.000000	71.844	-145.8029
12500.000000	72.258	-145.7441
12650.000000	72.976	-146.7033
12800.000000	73.682	-149.2000
13150.000000	74.808	-161.2493
13200.000000	74.864	-163.5250
13400.000000	74.753	-172.9577
13600.000000	74.149	178.5920
13800.000000	73.216	172.4225
14000.000000	72.153	168.7406
14300.000000	70.617	166.8977
14500.000000	69.739	167.2745
14750.000000	68.851	168.6596
15000.000000	68.191	170.5069
15250.000000	67.758	172.3300
15500.000000	67.568	173.7152
15750.000000	67.625	174.2710
16000.000000	67.863	173.3180
16250.000000	68.187	169.9356
16500.000000	68.408	163.3044
16750.000000	68.251	153.0832
17000.000000	67.369	140.3289
17250.000000	65.235	132.9051
17500.000000	62.445	139.2896
17750.000000	61.026	146.8008
18000.000000	60.351	150.8915
18250.000000	59.786	154.1201
18500.000000	59.317	156.7545
18750.000000	58.905	158.4241
19000.000000	58.470	159.1620
19250.000000	57.932	159.3288
19500.000000	57.229	159.3052
19750.000000	56.416	159.2604
20000.000000	55.763	159.1120
