* Measurement data measured by REW V5.20.13
* Source: EXCL: Mic in at rear panel (Pink)(Realtek(R) Audio), MICROPHONE (마스), L, volume: 0.500
* Format: 256k Log Swept Sine, 1 sweep at -12.0 dBFS with no timing reference
* Dated: 2022. 10. 1 오후 5:51:53
* REW Settings:
*  C-weighting compensation: Off
*  Target level: 75.0 dB
* Note: 
* Measurement: L_OldBronze
* Smoothing: 1/24 octave
* Frequency Step: 1/48 octave
* Start Frequency: 20.300 Hz
*
* Freq(Hz)	SPL(dB)	Phase(degrees)
20.299999	83.629	-170.0768
20.600000	83.629	-170.2157
20.900000	83.635	-170.4920
21.200001	83.653	-170.8450
21.400000	83.665	-171.1478
21.799999	83.675	-171.8974
22.000000	83.668	-172.3105
22.400000	83.631	-173.0894
22.700001	83.593	-173.5561
23.000000	83.564	-173.9112
23.299999	83.554	-174.2202
23.600000	83.564	-174.5647
24.000000	83.597	-175.1879
24.299999	83.619	-175.7965
24.700001	83.626	-176.7066
25.000000	83.608	-177.3463
25.400000	83.567	-178.0037
25.799999	83.533	-178.3985
26.200001	83.528	-178.6490
26.500000	83.543	-178.8626
26.900000	83.574	-179.2914
27.200001	83.587	-179.7265
27.600000	83.577	179.6310
28.000000	83.535	179.0783
28.500000	83.469	178.6645
29.000000	83.428	178.4601
29.500000	83.422	178.2023
30.000000	83.425	177.7318
30.400000	83.416	177.2458
30.700001	83.401	176.8680
31.100000	83.375	176.3839
31.500000	83.348	175.9161
32.000000	83.313	175.3177
32.500000	83.272	174.7104
33.000000	83.226	174.1628
33.500000	83.184	173.7072
34.000000	83.155	173.2928
34.500000	83.131	172.8616
35.000000	83.101	172.4319
35.500000	83.068	172.0642
36.000000	83.041	171.7610
36.500000	83.023	171.4568
37.000000	83.004	171.1089
37.500000	82.978	170.7602
38.200001	82.939	170.3660
38.700001	82.923	170.0881
39.500000	82.900	169.4247
40.000000	82.863	168.9572
40.599998	82.803	168.5383
41.200001	82.758	168.2560
41.799999	82.732	167.9079
42.500000	82.689	167.3705
43.099998	82.631	167.0071
43.700001	82.581	166.7977
44.400002	82.549	166.5585
45.000000	82.528	166.2556
45.500000	82.508	165.9623
46.200001	82.479	165.5041
46.799999	82.451	165.0519
47.500000	82.409	164.5216
48.200001	82.372	164.0155
48.700001	82.349	163.6128
49.400002	82.299	163.0133
50.000000	82.239	162.6416
50.799999	82.175	162.4446
51.500000	82.155	162.2975
52.200001	82.138	162.0305
53.000000	82.096	161.7666
53.799999	82.060	161.6670
54.500000	82.053	161.5391
55.200001	82.050	161.1661
56.000000	82.002	160.5324
57.000000	81.888	160.0737
58.000000	81.831	159.8892
59.000000	81.800	159.3816
60.000000	81.739	158.8692
60.799999	81.693	158.5635
61.500000	81.656	158.3037
62.200001	81.613	158.0437
63.000000	81.549	157.8329
64.000000	81.478	157.7957
65.000000	81.443	157.6046
66.000000	81.375	157.1497
67.000000	81.279	156.8282
68.000000	81.198	156.5831
69.000000	81.136	156.2216
70.000000	81.051	155.6988
71.000000	80.936	155.4692
72.000000	80.875	155.4979
73.000000	80.850	155.2414
74.000000	80.798	154.8115
75.000000	80.720	154.4809
76.199997	80.624	154.3068
77.500000	80.542	154.2573
78.800003	80.464	154.1418
80.000000	80.364	154.1338
81.199997	80.283	154.3551
82.500000	80.233	154.3126
83.800003	80.148	154.0291
85.000000	80.066	153.8643
86.199997	80.000	153.8073
87.500000	79.981	153.8346
88.500000	79.980	153.6718
90.000000	79.946	153.4459
91.199997	79.909	153.2326
92.500000	79.823	152.9451
93.800003	79.721	152.8295
95.000000	79.652	152.7050
96.199997	79.599	152.4517
97.500000	79.551	152.0909
98.800003	79.493	151.6736
100.000000	79.418	151.4459
101.500000	79.324	151.4071
103.000000	79.235	151.4501
104.400002	79.161	151.4212
106.000000	79.068	151.2069
107.500000	78.964	151.0840
109.000000	78.882	151.1064
110.599998	78.806	151.0989
112.000000	78.732	151.1325
113.800003	78.632	151.2217
115.000000	78.555	151.2988
117.199997	78.402	151.6280
118.000000	78.348	151.7954
120.599998	78.187	152.5259
122.000000	78.129	152.9850
124.099998	78.079	153.8158
125.000000	78.090	154.2300
126.500000	78.151	154.7622
128.000000	78.230	155.0333
131.500000	78.381	154.7567
132.000000	78.390	154.6322
134.000000	78.400	154.0870
136.000000	78.374	153.5185
138.000000	78.321	153.0175
140.000000	78.254	152.5957
143.000000	78.142	152.1214
145.000000	78.067	151.9551
147.500000	77.976	151.8972
150.000000	77.877	151.8273
152.500000	77.767	151.7396
155.000000	77.669	151.6779
157.500000	77.586	151.6620
160.000000	77.507	151.6782
162.500000	77.424	151.6915
165.000000	77.342	151.7395
167.500000	77.268	151.8350
170.000000	77.194	151.9058
172.500000	77.112	151.9585
175.000000	77.034	152.0593
177.500000	76.966	152.1897
180.000000	76.894	152.2979
182.500000	76.817	152.3795
185.000000	76.750	152.4497
187.500000	76.690	152.5627
190.000000	76.629	152.7336
192.500000	76.562	152.8954
195.000000	76.494	153.0336
197.500000	76.435	153.2010
200.000000	76.382	153.3668
203.000000	76.310	153.5441
206.000000	76.237	153.6971
209.000000	76.171	153.8530
212.000000	76.118	154.0601
214.000000	76.085	154.2065
218.000000	76.007	154.5024
220.000000	75.968	154.6612
224.000000	75.899	154.9479
227.000000	75.843	155.1264
230.000000	75.785	155.2949
233.000000	75.734	155.4938
236.000000	75.688	155.7329
240.000000	75.624	156.0402
243.000000	75.573	156.2460
247.000000	75.501	156.4958
250.000000	75.448	156.6563
254.000000	75.380	156.9150
258.000000	75.318	157.1736
262.000000	75.260	157.4592
265.000000	75.215	157.7438
269.000000	75.149	158.1107
272.000000	75.102	158.3310
276.000000	75.047	158.5899
280.000000	74.999	158.8542
285.000000	74.944	159.2419
290.000000	74.885	159.6167
295.000000	74.826	159.9796
300.000000	74.772	160.3727
304.000000	74.738	160.6939
307.000000	74.715	160.9055
311.000000	74.684	161.1435
315.000000	74.652	161.3805
320.000000	74.603	161.7502
325.000000	74.556	162.1803
330.000000	74.510	162.5812
335.000000	74.463	162.9749
340.000000	74.420	163.3556
345.000000	74.378	163.7057
350.000000	74.334	164.0450
355.000000	74.292	164.3534
360.000000	74.252	164.6792
365.000000	74.215	165.0345
370.000000	74.179	165.3909
375.000000	74.141	165.7764
382.000000	74.090	166.2789
387.000000	74.055	166.6092
395.000000	73.997	167.1912
400.000000	73.965	167.5797
406.000000	73.928	168.0126
412.000000	73.891	168.4449
418.000000	73.851	168.8754
425.000000	73.802	169.3454
431.000000	73.771	169.7553
437.000000	73.741	170.1384
444.000000	73.711	170.5916
450.000000	73.687	171.0071
455.000000	73.666	171.3371
462.000000	73.633	171.7789
468.000000	73.606	172.1816
475.000000	73.574	172.6444
482.000000	73.546	173.0794
487.000000	73.529	173.3894
494.000000	73.509	173.8245
500.000000	73.487	174.1862
508.000000	73.458	174.6944
515.000000	73.440	175.1345
522.000000	73.422	175.5785
530.000000	73.400	176.0977
538.000000	73.378	176.6124
545.000000	73.365	177.0474
552.000000	73.351	177.4573
560.000000	73.333	177.9746
570.000000	73.303	178.6301
580.000000	73.271	179.2544
590.000000	73.244	179.8873
600.000000	73.220	-179.4841
608.000000	73.207	-178.9815
615.000000	73.197	-178.5330
622.000000	73.186	-178.0642
630.000000	73.175	-177.5297
640.000000	73.168	-176.8888
650.000000	73.165	-176.2484
660.000000	73.154	-175.5761
670.000000	73.146	-174.9241
680.000000	73.144	-174.2680
690.000000	73.142	-173.6199
700.000000	73.137	-172.9976
710.000000	73.137	-172.3935
720.000000	73.144	-171.7469
730.000000	73.153	-171.1007
740.000000	73.161	-170.4884
750.000000	73.172	-169.8603
762.000000	73.184	-169.0784
775.000000	73.195	-168.2530
788.000000	73.209	-167.4444
800.000000	73.231	-166.7342
812.000000	73.258	-166.0219
825.000000	73.288	-165.2184
838.000000	73.320	-164.4509
850.000000	73.353	-163.7597
862.000000	73.394	-163.0719
875.000000	73.444	-162.3628
885.000000	73.484	-161.8112
900.000000	73.544	-160.9719
912.000000	73.592	-160.3293
925.000000	73.651	-159.6783
938.000000	73.719	-159.0597
950.000000	73.782	-158.5154
962.000000	73.847	-157.9899
975.000000	73.917	-157.4474
988.000000	73.983	-156.9432
1000.000000	74.049	-156.5057
1015.000000	74.152	-155.9693
1030.000000	74.251	-155.4527
1044.000000	74.337	-155.0334
1060.000000	74.433	-154.6291
1075.000000	74.520	-154.2849
1090.000000	74.613	-153.9800
1106.000000	74.717	-153.6956
1120.000000	74.808	-153.4819
1138.000000	74.925	-153.2393
1150.000000	75.002	-153.0838
1172.000000	75.136	-152.8301
1180.000000	75.181	-152.7513
1206.000000	75.330	-152.5412
1220.000000	75.407	-152.4561
1241.000000	75.518	-152.3432
1250.000000	75.564	-152.2964
1265.000000	75.638	-152.2320
1280.000000	75.709	-152.1876
1315.000000	75.870	-152.0704
1320.000000	75.892	-152.0507
1340.000000	75.974	-151.9650
1360.000000	76.048	-151.9104
1380.000000	76.122	-151.8808
1400.000000	76.199	-151.8229
1430.000000	76.313	-151.7402
1450.000000	76.387	-151.6869
1475.000000	76.478	-151.5948
1500.000000	76.566	-151.4818
1525.000000	76.650	-151.3642
1550.000000	76.736	-151.2120
1575.000000	76.829	-151.0276
1600.000000	76.930	-150.8539
1625.000000	77.041	-150.7781
1650.000000	77.155	-150.8032
1675.000000	77.257	-150.8809
1700.000000	77.344	-150.9832
1725.000000	77.420	-151.0760
1750.000000	77.489	-151.1319
1775.000000	77.556	-151.1764
1800.000000	77.622	-151.2086
1825.000000	77.688	-151.2208
1850.000000	77.751	-151.2228
1875.000000	77.810	-151.2088
1900.000000	77.869	-151.1732
1925.000000	77.928	-151.1062
1950.000000	77.990	-150.9949
1975.000000	78.056	-150.8466
2000.000000	78.128	-150.6715
2030.000000	78.225	-150.4381
2060.000000	78.334	-150.1810
2090.000000	78.466	-149.9484
2120.000000	78.619	-149.8240
2140.000000	78.726	-149.8364
2180.000000	78.936	-150.1117
2200.000000	79.033	-150.3383
2240.000000	79.205	-150.8696
2270.000000	79.319	-151.3071
2300.000000	79.422	-151.7674
2330.000000	79.517	-152.2236
2360.000000	79.605	-152.6596
2400.000000	79.717	-153.2108
2430.000000	79.798	-153.6063
2470.000000	79.909	-154.1190
2500.000000	79.994	-154.5178
2540.000000	80.107	-155.0950
2580.000000	80.218	-155.7026
2620.000000	80.325	-156.3381
2650.000000	80.405	-156.8397
2690.000000	80.510	-157.5532
2720.000000	80.582	-158.1288
2760.000000	80.666	-158.9242
2800.000000	80.740	-159.7034
2850.000000	80.830	-160.6343
2900.000000	80.924	-161.5522
2950.000000	81.022	-162.5052
3000.000000	81.121	-163.5631
3040.000000	81.195	-164.5033
3070.000000	81.244	-165.2600
3110.000000	81.298	-166.3293
3150.000000	81.339	-167.4219
3200.000000	81.371	-168.7614
3250.000000	81.390	-170.0803
3300.000000	81.399	-171.3766
3350.000000	81.397	-172.6791
3400.000000	81.384	-173.9920
3450.000000	81.363	-175.2881
3500.000000	81.335	-176.5580
3550.000000	81.294	-177.8063
3600.000000	81.240	-179.0201
3650.000000	81.178	179.8132
3700.000000	81.106	178.7035
3750.000000	81.024	177.6396
3820.000000	80.894	176.2268
3870.000000	80.787	175.2794
3950.000000	80.593	173.8993
4000.000000	80.461	173.1361
4060.000000	80.297	172.3370
4120.000000	80.131	171.6612
4180.000000	79.965	171.0865
4250.000000	79.772	170.4934
4310.000000	79.602	170.0521
4370.000000	79.422	169.6807
4440.000000	79.204	169.3649
4500.000000	79.020	169.2316
4550.000000	78.875	169.1815
4620.000000	78.687	169.1242
4680.000000	78.532	169.0611
4750.000000	78.348	168.9937
4820.000000	78.156	169.0009
4870.000000	78.017	169.0761
4940.000000	77.829	169.2701
5000.000000	77.676	169.4854
5080.000000	77.479	169.8088
5150.000000	77.313	170.1058
5220.000000	77.151	170.4277
5300.000000	76.972	170.8647
5380.000000	76.798	171.3966
5450.000000	76.650	171.9284
5520.000000	76.509	172.5155
5600.000000	76.358	173.2490
5700.000000	76.190	174.2381
5800.000000	76.041	175.3178
5900.000000	75.911	176.5079
6000.000000	75.801	177.7736
6080.000000	75.734	178.8417
6150.000000	75.695	179.8345
6220.000000	75.674	-179.1362
6300.000000	75.672	-177.9520
6400.000000	75.709	-176.4720
6500.000000	75.788	-175.0179
6600.000000	75.912	-173.6495
6700.000000	76.079	-172.4028
6800.000000	76.294	-171.3036
6900.000000	76.576	-170.3698
7000.000000	76.928	-169.6516
7100.000000	77.335	-169.2319
7200.000000	77.790	-169.2022
7300.000000	78.293	-169.6635
7400.000000	78.837	-170.7370
7500.000000	79.406	-172.5526
7620.000000	80.101	-175.9256
7750.000000	80.787	178.7398
7880.000000	81.234	171.6594
8000.000000	81.357	163.9767
8120.000000	81.172	155.9269
8250.000000	80.635	147.7467
8380.000000	79.820	140.9166
8500.000000	78.911	136.0963
8620.000000	77.927	132.6714
8750.000000	76.836	130.3271
8850.000000	76.007	129.3292
9000.000000	74.821	128.8989
9120.000000	73.934	129.2466
9250.000000	73.036	130.1637
9380.000000	72.205	131.5114
9500.000000	71.494	133.0492
9620.000000	70.833	134.8286
9750.000000	70.176	136.9778
9880.000000	69.576	139.2990
10000.000000	69.063	141.5695
10150.000000	68.476	144.5461
10300.000000	67.949	147.6404
10440.000000	67.504	150.6331
10600.000000	67.047	154.1347
10750.000000	66.665	157.4999
10900.000000	66.333	160.9072
11060.000000	66.029	164.5846
11200.000000	65.804	167.8615
11380.000000	65.581	172.1129
11500.000000	65.476	174.9530
11720.000000	65.380	-179.7815
11800.000000	65.374	-177.8910
12060.000000	65.484	-171.9685
12200.000000	65.613	-168.9246
12410.000000	65.883	-164.6119
12500.000000	66.035	-162.8889
12650.000000	66.354	-160.2887
12800.000000	66.752	-158.1496
13150.000000	67.965	-155.4825
13200.000000	68.167	-155.4359
13400.000000	69.022	-156.3548
13600.000000	69.901	-159.3864
13800.000000	70.703	-165.0016
14000.000000	71.257	-173.2862
14300.000000	71.254	171.1531
14500.000000	70.616	161.0405
14750.000000	69.236	151.1338
15000.000000	67.484	145.2404
15250.000000	65.660	143.0452
15500.000000	63.982	143.6920
15750.000000	62.584	146.3992
16000.000000	61.516	150.3975
16250.000000	60.788	154.8391
16500.000000	60.379	158.3797
16750.000000	60.177	159.3705
17000.000000	59.744	156.9379
17250.000000	58.408	158.1774
17500.000000	57.419	167.4915
17750.000000	57.541	171.7820
18000.000000	57.393	171.6743
18250.000000	56.847	171.9359
18500.000000	56.154	173.8172
18750.000000	55.458	177.0811
19000.000000	54.800	-178.8085
19250.000000	54.206	-174.2646
19500.000000	53.670	-169.4332
19750.000000	53.199	-164.8217
20000.000000	52.852	-161.7578
