* Measurement data measured by REW V5.20.5
* Source: Input device not selected, no input selected, L, volume: no control
* Format: 128k Log Swept Sine, 2 sweeps at -12.0 dBFS with no timing reference
* Dated: Jul 25, 2022 12:08:03 PM
* REW Settings:
*  C-weighting compensation: Off
*  Target level: 75.0 dB
* Note: ; 
* Measurement: Kato Steel Grey L DI
* Smoothing: 1/24 octave
* Frequency Step: 1/48 octave
* Start Frequency: 20.300 Hz
*
* Freq(Hz)	SPL(dB)	Phase(degrees)
20.299999	102.750	15.3324
20.600000	102.704	15.3048
20.900000	102.608	15.2320
21.200001	102.531	15.0936
21.400000	102.491	14.9352
21.799999	102.418	14.4309
22.000000	102.379	14.0977
22.400000	102.292	13.3406
22.700001	102.223	12.7670
23.000000	102.157	12.2299
23.299999	102.103	11.7377
23.600000	102.065	11.2733
24.000000	102.042	10.6481
24.299999	102.039	10.1564
24.700001	102.040	9.4933
25.000000	102.039	9.0389
25.400000	102.037	8.5590
25.799999	102.042	8.2458
26.200001	102.062	8.0310
26.500000	102.084	7.8621
26.900000	102.109	7.5556
27.200001	102.111	7.2620
27.600000	102.085	6.8593
28.000000	102.028	6.5471
28.500000	101.943	6.3559
29.000000	101.880	6.2190
29.500000	101.844	5.8483
30.000000	101.804	5.1124
30.400000	101.753	4.3505
30.700001	101.704	3.7627
31.100000	101.635	3.0304
31.500000	101.579	2.3723
32.000000	101.537	1.6029
32.500000	101.525	0.8516
33.000000	101.533	0.1691
33.500000	101.561	-0.3631
34.000000	101.615	-0.7341
34.500000	101.691	-1.0135
35.000000	101.770	-1.2717
35.500000	101.831	-1.5033
36.000000	101.861	-1.6297
36.500000	101.867	-1.5792
37.000000	101.863	-1.3758
37.500000	101.861	-1.1464
38.200001	101.847	-1.0313
38.700001	101.809	-1.1203
39.500000	101.706	-1.3362
40.000000	101.645	-1.4971
40.599998	101.591	-1.8736
41.200001	101.536	-2.4962
41.799999	101.464	-3.1571
42.500000	101.390	-3.6872
43.099998	101.372	-4.0018
43.700001	101.387	-4.3708
44.400002	101.411	-4.8618
45.000000	101.426	-5.2434
45.500000	101.436	-5.5500
46.200001	101.427	-5.9891
46.799999	101.392	-6.2887
47.500000	101.336	-6.4630
48.200001	101.289	-6.5307
48.700001	101.266	-6.5967
49.400002	101.249	-6.8744
50.000000	101.217	-7.3592
50.799999	101.098	-7.9161
51.500000	100.987	-7.7304
52.200001	100.992	-7.2326
53.000000	101.104	-7.3632
53.799999	101.156	-8.2246
54.500000	101.132	-8.8707
55.200001	101.108	-9.3054
56.000000	101.084	-9.9698
57.000000	100.941	-10.7465
58.000000	100.792	-10.2594
59.000000	100.852	-9.8948
60.000000	100.880	-10.6436
60.799999	100.844	-11.1941
61.500000	100.816	-11.7195
62.200001	100.761	-12.3229
63.000000	100.680	-12.7591
64.000000	100.627	-13.1467
65.000000	100.570	-13.5306
66.000000	100.539	-13.4074
67.000000	100.581	-13.3445
68.000000	100.588	-13.5881
69.000000	100.528	-13.7340
70.000000	100.444	-13.7500
71.000000	100.359	-13.8699
72.000000	100.275	-14.1926
73.000000	100.209	-14.5827
74.000000	100.196	-14.9761
75.000000	100.223	-15.4329
76.199997	100.248	-15.8245
77.500000	100.227	-15.8519
78.800003	100.128	-15.5776
80.000000	99.984	-15.7933
81.199997	99.731	-17.0206
82.500000	99.219	-18.8779
83.800003	98.699	-17.2163
85.000000	98.987	-15.4679
86.199997	99.370	-16.8605
87.500000	99.565	-18.2693
88.500000	99.631	-18.6356
90.000000	99.640	-18.4511
91.199997	99.579	-18.2353
92.500000	99.489	-18.1555
93.800003	99.427	-18.2918
95.000000	99.418	-18.6125
96.199997	99.418	-18.9754
97.500000	99.396	-19.1794
98.800003	99.330	-19.1438
100.000000	99.248	-19.1044
101.500000	99.110	-19.4407
103.000000	98.962	-19.9038
104.400002	98.888	-20.1761
106.000000	98.901	-20.2419
107.500000	98.942	-20.1279
109.000000	98.944	-19.9441
110.599998	98.873	-19.6802
112.000000	98.807	-19.5023
113.800003	98.736	-19.7134
115.000000	98.685	-19.9196
117.199997	98.581	-20.1751
118.000000	98.527	-20.1146
120.599998	98.470	-19.5220
122.000000	98.486	-19.9505
124.099998	98.427	-20.8228
125.000000	98.394	-21.0789
126.500000	98.333	-21.3390
128.000000	98.269	-21.3581
131.500000	98.159	-21.2751
132.000000	98.143	-21.2748
134.000000	98.073	-21.2392
136.000000	97.997	-21.2014
138.000000	97.918	-21.1557
140.000000	97.865	-21.1437
143.000000	97.767	-21.1609
145.000000	97.667	-20.9558
147.500000	97.542	-20.5775
150.000000	97.485	-20.3607
152.500000	97.436	-20.2006
155.000000	97.367	-19.8236
157.500000	97.320	-19.6679
160.000000	97.336	-19.8306
162.500000	97.380	-20.0630
165.000000	97.387	-20.1489
167.500000	97.337	-20.1440
170.000000	97.315	-20.0598
172.500000	97.305	-20.1985
175.000000	97.239	-20.3387
177.500000	97.149	-20.4237
180.000000	97.083	-20.5155
182.500000	97.050	-20.5808
185.000000	97.015	-20.5806
187.500000	96.967	-20.5289
190.000000	96.907	-20.4732
192.500000	96.845	-20.4155
195.000000	96.787	-20.3755
197.500000	96.732	-20.3370
200.000000	96.686	-20.2381
203.000000	96.634	-20.1031
206.000000	96.571	-19.9616
209.000000	96.519	-19.8063
212.000000	96.469	-19.6513
214.000000	96.421	-19.5107
218.000000	96.315	-19.2535
220.000000	96.277	-19.2394
224.000000	96.221	-19.1908
227.000000	96.174	-19.0162
230.000000	96.120	-18.8401
233.000000	96.064	-18.7193
236.000000	96.001	-18.5710
240.000000	95.920	-18.3318
243.000000	95.873	-18.2027
247.000000	95.809	-17.9923
250.000000	95.759	-17.8155
254.000000	95.707	-17.6107
258.000000	95.658	-17.3775
262.000000	95.606	-17.1155
265.000000	95.574	-16.9355
269.000000	95.531	-16.6841
272.000000	95.492	-16.4838
276.000000	95.434	-16.2243
280.000000	95.381	-15.9890
285.000000	95.326	-15.6838
290.000000	95.287	-15.3333
295.000000	95.241	-15.0414
300.000000	95.182	-14.7677
304.000000	95.137	-14.5103
307.000000	95.107	-14.3121
311.000000	95.066	-14.0460
315.000000	95.026	-13.7821
320.000000	94.978	-13.4607
325.000000	94.935	-13.1653
330.000000	94.895	-12.8951
335.000000	94.846	-12.5719
340.000000	94.801	-12.2067
345.000000	94.762	-11.8844
350.000000	94.730	-11.6176
355.000000	94.694	-11.3037
360.000000	94.667	-10.9311
365.000000	94.638	-10.5489
370.000000	94.593	-10.2242
375.000000	94.552	-9.9106
382.000000	94.502	-9.5106
387.000000	94.466	-9.2324
395.000000	94.415	-8.6720
400.000000	94.385	-8.3320
406.000000	94.354	-7.9689
412.000000	94.324	-7.5760
418.000000	94.293	-7.1730
425.000000	94.256	-6.7240
431.000000	94.222	-6.3575
437.000000	94.195	-5.9900
444.000000	94.170	-5.5471
450.000000	94.146	-5.1418
455.000000	94.127	-4.8051
462.000000	94.106	-4.3647
468.000000	94.088	-4.0330
475.000000	94.061	-3.6120
482.000000	94.033	-3.1395
487.000000	94.020	-2.8221
494.000000	94.003	-2.3892
500.000000	93.984	-2.0013
508.000000	93.960	-1.4830
515.000000	93.942	-1.0575
522.000000	93.922	-0.6455
530.000000	93.897	-0.1484
538.000000	93.881	0.3483
545.000000	93.868	0.7780
552.000000	93.850	1.2206
560.000000	93.830	1.7243
570.000000	93.808	2.3832
580.000000	93.784	3.0518
590.000000	93.765	3.6897
600.000000	93.752	4.3230
608.000000	93.746	4.8557
615.000000	93.741	5.3322
622.000000	93.737	5.7936
630.000000	93.730	6.3010
640.000000	93.720	6.9412
650.000000	93.713	7.5949
660.000000	93.716	8.2489
670.000000	93.724	8.8948
680.000000	93.731	9.5455
690.000000	93.740	10.1877
700.000000	93.747	10.8297
710.000000	93.755	11.4881
720.000000	93.767	12.1481
730.000000	93.780	12.7909
740.000000	93.792	13.4150
750.000000	93.809	14.0625
762.000000	93.835	14.8524
775.000000	93.859	15.6932
788.000000	93.889	16.5242
800.000000	93.922	17.3018
812.000000	93.957	18.0565
825.000000	94.000	18.8664
838.000000	94.049	19.6894
850.000000	94.098	20.4584
862.000000	94.146	21.1948
875.000000	94.203	21.9574
885.000000	94.251	22.5415
900.000000	94.328	23.4301
912.000000	94.391	24.1371
925.000000	94.464	24.8598
938.000000	94.542	25.5477
950.000000	94.618	26.1843
962.000000	94.697	26.8073
975.000000	94.784	27.4263
988.000000	94.871	28.0081
1000.000000	94.954	28.5291
1015.000000	95.062	29.1413
1030.000000	95.175	29.6934
1044.000000	95.281	30.1690
1060.000000	95.402	30.6948
1075.000000	95.507	31.1592
1090.000000	95.610	31.5682
1106.000000	95.723	31.9334
1120.000000	95.822	32.2023
1138.000000	95.944	32.5037
1150.000000	96.026	32.6937
1172.000000	96.176	33.0108
1180.000000	96.230	33.1091
1206.000000	96.402	33.3455
1220.000000	96.500	33.4338
1241.000000	96.657	33.5574
1250.000000	96.723	33.6024
1265.000000	96.833	33.6604
1280.000000	96.939	33.6952
1315.000000	97.179	33.7384
1320.000000	97.213	33.7425
1340.000000	97.344	33.7438
1360.000000	97.471	33.7209
1380.000000	97.603	33.6564
1400.000000	97.738	33.5806
1430.000000	97.934	33.4572
1450.000000	98.055	33.3678
1475.000000	98.205	33.2469
1500.000000	98.352	33.1026
1525.000000	98.489	32.9491
1550.000000	98.615	32.8056
1575.000000	98.733	32.6693
1600.000000	98.848	32.5263
1625.000000	98.958	32.3693
1650.000000	99.068	32.2010
1675.000000	99.179	32.0325
1700.000000	99.289	31.8629
1725.000000	99.398	31.6846
1750.000000	99.508	31.4974
1775.000000	99.621	31.3071
1800.000000	99.733	31.1146
1825.000000	99.845	30.9032
1850.000000	99.958	30.6620
1875.000000	100.071	30.4061
1900.000000	100.183	30.1391
1925.000000	100.292	29.8477
1950.000000	100.397	29.5302
1975.000000	100.501	29.2028
2000.000000	100.604	28.8717
2030.000000	100.727	28.4450
2060.000000	100.847	27.9710
2090.000000	100.963	27.4778
2120.000000	101.076	26.9790
2140.000000	101.150	26.6323
2180.000000	101.291	25.9042
2200.000000	101.359	25.5173
2240.000000	101.490	24.7061
2270.000000	101.583	24.0779
2300.000000	101.672	23.4291
2330.000000	101.755	22.7606
2360.000000	101.833	22.0806
2400.000000	101.931	21.1778
2430.000000	102.000	20.4825
2470.000000	102.083	19.5190
2500.000000	102.140	18.7946
2540.000000	102.207	17.8509
2580.000000	102.263	16.9128
2620.000000	102.310	15.9657
2650.000000	102.341	15.2666
2690.000000	102.376	14.3870
2720.000000	102.399	13.7675
2760.000000	102.430	12.9811
2800.000000	102.462	12.2320
2850.000000	102.515	11.3037
2900.000000	102.576	10.2735
2950.000000	102.631	9.0921
3000.000000	102.666	7.8314
3040.000000	102.676	6.8155
3070.000000	102.676	6.0611
3110.000000	102.668	5.0657
3150.000000	102.650	4.0826
3200.000000	102.616	2.9041
3250.000000	102.569	1.8139
3300.000000	102.511	0.8091
3350.000000	102.448	-0.1070
3400.000000	102.388	-0.9318
3450.000000	102.333	-1.6923
3500.000000	102.285	-2.4324
3550.000000	102.240	-3.1904
3600.000000	102.194	-3.9572
3650.000000	102.146	-4.7282
3700.000000	102.097	-5.5233
3750.000000	102.046	-6.3366
3820.000000	101.966	-7.4665
3870.000000	101.906	-8.2693
3950.000000	101.805	-9.5702
4000.000000	101.736	-10.3931
4060.000000	101.648	-11.3742
4120.000000	101.549	-12.3336
4180.000000	101.438	-13.2699
4250.000000	101.296	-14.3453
4310.000000	101.163	-15.2388
4370.000000	101.020	-16.0762
4440.000000	100.843	-16.9903
4500.000000	100.686	-17.7204
4550.000000	100.552	-18.2827
4620.000000	100.359	-19.0238
4680.000000	100.184	-19.6525
4750.000000	99.966	-20.3684
4820.000000	99.730	-21.0075
4870.000000	99.549	-21.3794
4940.000000	99.281	-21.7758
5000.000000	99.044	-22.0142
5080.000000	98.724	-22.1936
5150.000000	98.441	-22.2281
5220.000000	98.158	-22.1594
5300.000000	97.836	-21.9562
5380.000000	97.516	-21.6207
5450.000000	97.231	-21.2101
5520.000000	96.941	-20.6815
5600.000000	96.611	-19.9376
5700.000000	96.212	-18.8407
5800.000000	95.828	-17.5413
5900.000000	95.460	-16.0510
6000.000000	95.113	-14.4045
6080.000000	94.852	-12.9892
6150.000000	94.636	-11.6823
6220.000000	94.431	-10.3000
6300.000000	94.211	-8.6478
6400.000000	93.958	-6.4969
6500.000000	93.732	-4.2340
6600.000000	93.535	-1.8668
6700.000000	93.365	0.5667
6800.000000	93.222	3.0184
6900.000000	93.112	5.5273
7000.000000	93.037	8.1245
7100.000000	92.996	10.7769
7200.000000	92.994	13.4515
7300.000000	93.031	16.0940
7400.000000	93.103	18.6948
7500.000000	93.205	21.2604
7620.000000	93.370	24.2326
7750.000000	93.590	27.2701
7880.000000	93.840	30.1030
8000.000000	94.109	32.5290
8120.000000	94.422	34.7984
8250.000000	94.810	37.1046
8380.000000	95.264	39.2569
8500.000000	95.762	41.0560
8620.000000	96.361	42.4820
8750.000000	97.129	43.3198
8850.000000	97.796	43.2207
9000.000000	98.883	41.3696
9120.000000	99.761	38.0095
9250.000000	100.600	32.1710
9380.000000	101.179	24.1422
9500.000000	101.372	15.4373
9620.000000	101.192	6.5552
9750.000000	100.618	-2.0309
9880.000000	99.762	-8.7035
10000.000000	98.835	-12.9782
10150.000000	97.631	-16.0891
10300.000000	96.484	-17.2848
10440.000000	95.513	-17.1339
10600.000000	94.540	-15.8947
10750.000000	93.761	-14.0368
10900.000000	93.105	-11.7230
11060.000000	92.539	-8.9066
11200.000000	92.155	-6.2606
11380.000000	91.814	-2.7558
11500.000000	91.686	-0.4416
11720.000000	91.675	3.4990
11800.000000	91.742	4.7563
12060.000000	92.250	7.6675
12200.000000	92.720	8.0615
12410.000000	93.646	6.1252
12500.000000	94.076	4.0463
12650.000000	94.725	-1.4871
12800.000000	95.134	-9.7049
13150.000000	94.359	-33.7981
13200.000000	94.033	-36.8779
13400.000000	92.349	-46.4616
13600.000000	90.359	-51.5322
13800.000000	88.415	-53.0814
14000.000000	86.673	-52.3282
14300.000000	84.423	-48.7421
14500.000000	83.128	-45.3863
14750.000000	81.702	-40.4996
15000.000000	80.454	-35.1842
15250.000000	79.330	-29.5553
15500.000000	78.300	-23.7435
15750.000000	77.357	-17.8680
16000.000000	76.497	-11.7020
16250.000000	75.773	-5.0660
16500.000000	75.231	1.1821
16750.000000	74.882	5.6730
17000.000000	74.363	6.3942
17250.000000	72.759	10.8907
17500.000000	70.947	29.4292
17750.000000	71.096	45.2633
18000.000000	71.710	52.1109
18250.000000	72.045	55.1674
18500.000000	72.084	57.1812
18750.000000	71.890	58.7979
19000.000000	71.543	60.3843
19250.000000	71.113	62.3861
19500.000000	70.617	64.7142
19750.000000	69.994	67.1322
