* Measurement data measured by REW V5.20.13
* Source: EXCL: Mic in at rear panel (Pink)(Realtek(R) Audio), MICROPHONE (마스), L, volume: 0.500
* Format: 256k Log Swept Sine, 1 sweep at -12.0 dBFS with no timing reference
* Dated: 2022. 10. 1 오후 5:45:29
* REW Settings:
*  C-weighting compensation: Off
*  Target level: 75.0 dB
* Note: 
* Measurement: R_AET07
* Smoothing: 1/24 octave
* Frequency Step: 1/48 octave
* Start Frequency: 20.300 Hz
*
* Freq(Hz)	SPL(dB)	Phase(degrees)
20.299999	84.407	-169.5820
20.600000	84.409	-169.8185
20.900000	84.408	-170.2360
21.200001	84.401	-170.6202
21.400000	84.392	-170.8601
21.799999	84.370	-171.3247
22.000000	84.357	-171.5552
22.400000	84.330	-172.0050
22.700001	84.312	-172.3327
23.000000	84.298	-172.6622
23.299999	84.290	-173.0067
23.600000	84.288	-173.3786
24.000000	84.292	-173.9307
24.299999	84.296	-174.3857
24.700001	84.299	-175.0258
25.000000	84.296	-175.5048
25.400000	84.288	-176.1059
25.799999	84.277	-176.6386
26.200001	84.269	-177.1070
26.500000	84.264	-177.4323
26.900000	84.258	-177.8515
27.200001	84.250	-178.1587
27.600000	84.235	-178.5468
28.000000	84.216	-178.8882
28.500000	84.195	-179.2444
29.000000	84.183	-179.5850
29.500000	84.177	-179.9944
30.000000	84.166	179.5048
30.400000	84.147	179.0777
30.700001	84.127	178.7679
31.100000	84.099	178.3854
31.500000	84.071	178.0330
32.000000	84.040	177.6098
32.500000	84.013	177.1906
33.000000	83.992	176.7780
33.500000	83.978	176.3654
34.000000	83.969	175.9313
34.500000	83.957	175.4748
35.000000	83.938	175.0322
35.500000	83.915	174.6430
36.000000	83.895	174.3009
36.500000	83.880	173.9651
37.000000	83.863	173.6124
37.500000	83.842	173.2623
38.200001	83.805	172.8257
38.700001	83.782	172.5385
39.500000	83.749	172.0436
40.000000	83.726	171.7147
40.599998	83.697	171.3313
41.200001	83.667	170.9695
41.799999	83.640	170.6183
42.500000	83.610	170.2063
43.099998	83.583	169.8433
43.700001	83.549	169.4971
44.400002	83.501	169.1948
45.000000	83.471	169.0335
45.500000	83.461	168.8777
46.200001	83.457	168.4714
46.799999	83.434	167.9646
47.500000	83.376	167.4300
48.200001	83.318	167.0878
48.700001	83.293	166.8770
49.400002	83.270	166.4790
50.000000	83.243	166.0731
50.799999	83.196	165.6243
51.500000	83.166	165.3276
52.200001	83.147	165.0014
53.000000	83.119	164.5761
53.799999	83.076	164.2046
54.500000	83.036	163.9445
55.200001	82.998	163.7016
56.000000	82.953	163.4319
57.000000	82.903	163.1200
58.000000	82.864	162.7043
59.000000	82.804	162.1966
60.000000	82.729	161.8542
60.799999	82.685	161.6694
61.500000	82.658	161.4882
62.200001	82.635	161.2745
63.000000	82.606	160.9981
64.000000	82.563	160.6165
65.000000	82.506	160.2474
66.000000	82.445	159.9465
67.000000	82.388	159.6738
68.000000	82.333	159.3965
69.000000	82.279	159.1363
70.000000	82.228	158.8745
71.000000	82.179	158.6102
72.000000	82.128	158.3484
73.000000	82.077	158.1060
74.000000	82.028	157.8444
75.000000	81.972	157.5706
76.199997	81.904	157.3245
77.500000	81.843	157.0428
78.800003	81.779	156.6761
80.000000	81.702	156.3191
81.199997	81.606	156.1165
82.500000	81.524	156.1207
83.800003	81.477	156.0364
85.000000	81.436	155.8372
86.199997	81.390	155.5819
87.500000	81.332	155.3313
88.500000	81.288	155.1768
90.000000	81.222	154.9811
91.199997	81.170	154.8235
92.500000	81.108	154.6467
93.800003	81.045	154.4860
95.000000	80.990	154.3170
96.199997	80.934	154.1314
97.500000	80.874	153.9362
98.800003	80.810	153.7388
100.000000	80.747	153.6361
101.500000	80.684	153.5231
103.000000	80.623	153.3219
104.400002	80.563	153.1072
106.000000	80.496	152.8926
107.500000	80.434	152.7220
109.000000	80.363	152.6426
110.599998	80.286	152.6641
112.000000	80.220	152.6761
113.800003	80.130	152.5739
115.000000	80.064	152.4689
117.199997	79.958	152.2778
118.000000	79.922	152.2061
120.599998	79.803	152.1308
122.000000	79.742	152.1476
124.099998	79.649	152.1302
125.000000	79.607	152.0996
126.500000	79.535	152.0461
128.000000	79.462	152.0456
131.500000	79.282	152.3452
132.000000	79.253	152.4331
134.000000	79.143	152.8282
136.000000	79.038	153.2102
138.000000	78.953	153.6580
140.000000	78.908	154.2321
143.000000	78.931	155.1075
145.000000	78.970	155.3343
147.500000	78.998	155.1857
150.000000	78.998	154.8009
152.500000	78.978	154.4492
155.000000	78.933	154.1423
157.500000	78.855	153.8881
160.000000	78.767	153.7372
162.500000	78.690	153.6872
165.000000	78.625	153.6910
167.500000	78.558	153.7119
170.000000	78.485	153.7576
172.500000	78.415	153.8284
175.000000	78.352	153.8682
177.500000	78.288	153.8705
180.000000	78.221	153.8774
182.500000	78.157	153.8824
185.000000	78.098	153.8957
187.500000	78.040	153.9404
190.000000	77.977	154.0168
192.500000	77.909	154.1131
195.000000	77.842	154.2206
197.500000	77.781	154.3399
200.000000	77.722	154.4398
203.000000	77.648	154.5288
206.000000	77.576	154.6277
209.000000	77.512	154.7794
212.000000	77.451	154.9458
214.000000	77.407	155.0416
218.000000	77.314	155.2546
220.000000	77.273	155.3757
224.000000	77.197	155.6062
227.000000	77.135	155.7792
230.000000	77.070	155.9783
233.000000	77.006	156.1905
236.000000	76.944	156.4126
240.000000	76.870	156.7214
243.000000	76.814	156.9447
247.000000	76.737	157.2972
250.000000	76.685	157.5958
254.000000	76.620	157.9385
258.000000	76.558	158.2583
262.000000	76.502	158.6262
265.000000	76.465	158.9065
269.000000	76.423	159.2122
272.000000	76.394	159.3925
276.000000	76.352	159.5929
280.000000	76.305	159.7964
285.000000	76.246	160.0898
290.000000	76.174	160.3972
295.000000	76.108	160.7188
300.000000	76.050	161.0169
304.000000	76.000	161.2778
307.000000	75.964	161.5079
311.000000	75.921	161.8353
315.000000	75.883	162.1514
320.000000	75.837	162.5398
325.000000	75.785	162.8975
330.000000	75.737	163.2692
335.000000	75.691	163.6604
340.000000	75.642	164.0189
345.000000	75.596	164.3785
350.000000	75.552	164.7365
355.000000	75.504	165.1086
360.000000	75.456	165.4942
365.000000	75.411	165.8645
370.000000	75.367	166.2547
375.000000	75.327	166.6647
382.000000	75.273	167.2158
387.000000	75.231	167.5495
395.000000	75.168	168.0848
400.000000	75.133	168.4622
406.000000	75.088	168.9225
412.000000	75.042	169.3757
418.000000	75.005	169.8052
425.000000	74.961	170.3172
431.000000	74.922	170.7711
437.000000	74.888	171.2192
444.000000	74.846	171.7439
450.000000	74.812	172.1667
455.000000	74.789	172.4967
462.000000	74.758	173.0029
468.000000	74.732	173.4658
475.000000	74.704	173.9949
482.000000	74.678	174.4970
487.000000	74.659	174.8364
494.000000	74.631	175.3154
500.000000	74.608	175.7459
508.000000	74.577	176.3085
515.000000	74.553	176.8063
522.000000	74.530	177.3106
530.000000	74.505	177.8687
538.000000	74.481	178.4360
545.000000	74.461	178.9209
552.000000	74.446	179.3979
560.000000	74.427	179.9835
570.000000	74.399	-179.3082
580.000000	74.372	-178.6552
590.000000	74.351	-177.9666
600.000000	74.336	-177.2024
608.000000	74.325	-176.5912
615.000000	74.315	-176.0868
622.000000	74.307	-175.5839
630.000000	74.300	-174.9805
640.000000	74.291	-174.2240
650.000000	74.282	-173.5420
660.000000	74.273	-172.8724
670.000000	74.269	-172.1904
680.000000	74.268	-171.4831
690.000000	74.264	-170.7493
700.000000	74.260	-170.0510
710.000000	74.262	-169.3809
720.000000	74.265	-168.6824
730.000000	74.270	-167.9491
740.000000	74.280	-167.2347
750.000000	74.292	-166.5666
762.000000	74.310	-165.7739
775.000000	74.332	-164.8407
788.000000	74.350	-163.9330
800.000000	74.373	-163.1231
812.000000	74.407	-162.3258
825.000000	74.447	-161.4803
838.000000	74.489	-160.6093
850.000000	74.529	-159.8259
862.000000	74.574	-159.0603
875.000000	74.629	-158.2345
885.000000	74.672	-157.5954
900.000000	74.738	-156.6890
912.000000	74.795	-155.9878
925.000000	74.861	-155.2279
938.000000	74.931	-154.5063
950.000000	75.002	-153.8887
962.000000	75.077	-153.2826
975.000000	75.160	-152.6323
988.000000	75.247	-151.9659
1000.000000	75.330	-151.3840
1015.000000	75.422	-150.8342
1030.000000	75.518	-150.3302
1044.000000	75.614	-149.8496
1060.000000	75.724	-149.3029
1075.000000	75.824	-148.8206
1090.000000	75.927	-148.4097
1106.000000	76.047	-148.0142
1120.000000	76.151	-147.7030
1138.000000	76.278	-147.3453
1150.000000	76.363	-147.1205
1172.000000	76.520	-146.7426
1180.000000	76.576	-146.6181
1206.000000	76.755	-146.2669
1220.000000	76.848	-146.0980
1241.000000	76.986	-145.8410
1250.000000	77.042	-145.7388
1265.000000	77.134	-145.5755
1280.000000	77.223	-145.4176
1315.000000	77.434	-145.1379
1320.000000	77.464	-145.1059
1340.000000	77.577	-144.9651
1360.000000	77.684	-144.8265
1380.000000	77.792	-144.7120
1400.000000	77.904	-144.5918
1430.000000	78.072	-144.4274
1450.000000	78.182	-144.3514
1475.000000	78.322	-144.2670
1500.000000	78.456	-144.2243
1525.000000	78.583	-144.2282
1550.000000	78.709	-144.2265
1575.000000	78.834	-144.2108
1600.000000	78.955	-144.2102
1625.000000	79.074	-144.2194
1650.000000	79.192	-144.2329
1675.000000	79.309	-144.2488
1700.000000	79.422	-144.2773
1725.000000	79.534	-144.3211
1750.000000	79.645	-144.3708
1775.000000	79.756	-144.4267
1800.000000	79.867	-144.4909
1825.000000	79.979	-144.5712
1850.000000	80.088	-144.6631
1875.000000	80.198	-144.7724
1900.000000	80.310	-144.8889
1925.000000	80.421	-145.0252
1950.000000	80.530	-145.1906
1975.000000	80.639	-145.3789
2000.000000	80.748	-145.5860
2030.000000	80.879	-145.8602
2060.000000	81.006	-146.1692
2090.000000	81.131	-146.4984
2120.000000	81.254	-146.8593
2140.000000	81.335	-147.1223
2180.000000	81.495	-147.6870
2200.000000	81.573	-147.9857
2240.000000	81.725	-148.6171
2270.000000	81.833	-149.1339
2300.000000	81.936	-149.6790
2330.000000	82.035	-150.2498
2360.000000	82.132	-150.8420
2400.000000	82.255	-151.6514
2430.000000	82.342	-152.2841
2470.000000	82.453	-153.1632
2500.000000	82.531	-153.8399
2540.000000	82.625	-154.7656
2580.000000	82.710	-155.7136
2620.000000	82.789	-156.6889
2650.000000	82.842	-157.4304
2690.000000	82.904	-158.4089
2720.000000	82.945	-159.1456
2760.000000	82.990	-160.1423
2800.000000	83.026	-161.1360
2850.000000	83.059	-162.3735
2900.000000	83.080	-163.5830
2950.000000	83.091	-164.7686
3000.000000	83.090	-165.9295
3040.000000	83.082	-166.8326
3070.000000	83.073	-167.4903
3110.000000	83.057	-168.3447
3150.000000	83.035	-169.1822
3200.000000	83.002	-170.2122
3250.000000	82.962	-171.1898
3300.000000	82.916	-172.1241
3350.000000	82.864	-173.0227
3400.000000	82.808	-173.8764
3450.000000	82.754	-174.6841
3500.000000	82.702	-175.4518
3550.000000	82.648	-176.1769
3600.000000	82.593	-176.8617
3650.000000	82.537	-177.5107
3700.000000	82.480	-178.1219
3750.000000	82.419	-178.6953
3820.000000	82.331	-179.4461
3870.000000	82.262	-179.9504
3950.000000	82.146	179.3208
4000.000000	82.077	178.9040
4060.000000	81.996	178.4180
4120.000000	81.918	177.9325
4180.000000	81.839	177.4315
4250.000000	81.740	176.8394
4310.000000	81.643	176.3517
4370.000000	81.531	175.8993
4440.000000	81.387	175.4417
4500.000000	81.262	175.1240
4550.000000	81.161	174.8989
4620.000000	81.029	174.5807
4680.000000	80.916	174.2852
4750.000000	80.774	173.9415
4820.000000	80.622	173.6370
4870.000000	80.507	173.4670
4940.000000	80.344	173.3092
5000.000000	80.205	173.2413
5080.000000	80.023	173.2128
5150.000000	79.867	173.2310
5220.000000	79.715	173.3035
5300.000000	79.541	173.4536
5380.000000	79.372	173.6761
5450.000000	79.229	173.9255
5520.000000	79.089	174.2267
5600.000000	78.935	174.6251
5700.000000	78.752	175.2190
5800.000000	78.581	175.9295
5900.000000	78.427	176.7315
6000.000000	78.290	177.6381
6080.000000	78.194	178.4385
6150.000000	78.125	179.1942
6220.000000	78.072	179.9886
6300.000000	78.030	-179.0767
6400.000000	78.008	-177.8712
6500.000000	78.020	-176.6375
6600.000000	78.075	-175.3984
6700.000000	78.178	-174.1936
6800.000000	78.340	-173.0912
6900.000000	78.573	-172.1824
7000.000000	78.872	-171.5473
7100.000000	79.220	-171.2480
7200.000000	79.605	-171.3538
7300.000000	80.017	-171.9143
7400.000000	80.449	-172.9521
7500.000000	80.904	-174.5242
7620.000000	81.489	-177.3214
7750.000000	82.112	178.1035
7880.000000	82.543	171.5925
8000.000000	82.658	164.0687
8120.000000	82.422	155.9266
8250.000000	81.761	147.7672
8380.000000	80.778	141.4272
8500.000000	79.717	137.5213
8620.000000	78.616	135.3116
8750.000000	77.451	134.4334
8850.000000	76.601	134.5704
9000.000000	75.424	135.7461
9120.000000	74.573	137.3018
9250.000000	73.737	139.4161
9380.000000	72.984	141.8650
9500.000000	72.357	144.3457
9620.000000	71.789	146.9689
9750.000000	71.238	149.9236
9880.000000	70.750	152.9906
10000.000000	70.346	155.9062
10150.000000	69.899	159.6022
10300.000000	69.514	163.3376
10440.000000	69.199	166.8699
10600.000000	68.893	170.9244
10750.000000	68.666	174.7906
10900.000000	68.495	178.6722
11060.000000	68.371	-177.2600
11200.000000	68.316	-173.7026
11380.000000	68.321	-169.1517
11500.000000	68.367	-166.1803
11720.000000	68.548	-160.8869
11800.000000	68.649	-159.0324
12060.000000	69.093	-153.4556
12200.000000	69.388	-150.7724
12410.000000	69.901	-147.2372
12500.000000	70.154	-145.9319
12650.000000	70.625	-144.1088
12800.000000	71.156	-142.8109
13150.000000	72.589	-142.5526
13200.000000	72.806	-142.9000
13400.000000	73.661	-145.4117
13600.000000	74.430	-149.8583
13800.000000	75.010	-156.1215
14000.000000	75.308	-163.6341
14300.000000	75.171	-175.2412
14500.000000	74.762	177.8981
14750.000000	74.037	170.7481
15000.000000	73.186	165.0624
15250.000000	72.295	160.5247
15500.000000	71.441	156.8279
15750.000000	70.654	153.6854
16000.000000	69.901	150.7097
16250.000000	69.149	147.3555
16500.000000	68.324	142.8734
16750.000000	67.170	136.8600
17000.000000	65.161	135.0854
17250.000000	62.876	148.0640
17500.000000	62.524	158.9980
17750.000000	62.417	160.8743
18000.000000	61.922	162.7623
18250.000000	61.418	166.2832
18500.000000	61.047	170.4662
18750.000000	60.829	174.6656
19000.000000	60.743	178.5479
19250.000000	60.732	-178.1589
19500.000000	60.758	-175.6851
19750.000000	60.802	-174.1119
20000.000000	60.803	-173.3439
