* Measurement data measured by REW V5.20.13
* Source: EXCL: Mic in at rear panel (Pink)(Realtek(R) Audio), MICROPHONE (마스), L, volume: 0.500
* Format: 256k Log Swept Sine, 1 sweep at -12.0 dBFS with no timing reference
* Dated: 2022. 10. 1 오후 5:42:58
* REW Settings:
*  C-weighting compensation: Off
*  Target level: 75.0 dB
* Note: 
* Measurement: R_UC
* Smoothing: 1/24 octave
* Frequency Step: 1/48 octave
* Start Frequency: 20.300 Hz
*
* Freq(Hz)	SPL(dB)	Phase(degrees)
20.299999	84.371	-169.6554
20.600000	84.373	-169.8395
20.900000	84.375	-170.1678
21.200001	84.373	-170.4798
21.400000	84.370	-170.6831
21.799999	84.359	-171.1046
22.000000	84.353	-171.3313
22.400000	84.339	-171.8176
22.700001	84.327	-172.2095
23.000000	84.315	-172.6213
23.299999	84.301	-173.0441
23.600000	84.289	-173.4700
24.000000	84.275	-174.0330
24.299999	84.269	-174.4494
24.700001	84.266	-175.0002
25.000000	84.267	-175.4136
25.400000	84.269	-175.9650
25.799999	84.269	-176.5053
26.200001	84.267	-177.0126
26.500000	84.262	-177.3579
26.900000	84.253	-177.7641
27.200001	84.247	-178.0337
27.600000	84.241	-178.3685
28.000000	84.238	-178.7107
28.500000	84.232	-179.1891
29.000000	84.213	-179.7118
29.500000	84.178	179.7864
30.000000	84.134	179.3647
30.400000	84.104	179.0779
30.700001	84.086	178.8692
31.100000	84.068	178.5645
31.500000	84.053	178.2119
32.000000	84.031	177.7189
32.500000	84.005	177.2193
33.000000	83.980	176.7503
33.500000	83.964	176.2999
34.000000	83.954	175.8364
34.500000	83.942	175.3580
35.000000	83.924	174.9012
35.500000	83.903	174.5053
36.000000	83.886	174.1662
36.500000	83.875	173.8391
37.000000	83.864	173.4807
37.500000	83.845	173.0953
38.200001	83.800	172.5966
38.700001	83.762	172.3089
39.500000	83.713	171.8956
40.000000	83.688	171.6009
40.599998	83.658	171.1920
41.200001	83.622	170.7543
41.799999	83.581	170.3328
42.500000	83.531	169.9213
43.099998	83.499	169.6575
43.700001	83.482	169.4227
44.400002	83.478	169.0825
45.000000	83.471	168.7122
45.500000	83.455	168.3947
46.200001	83.422	168.0076
46.799999	83.392	167.7306
47.500000	83.360	167.4059
48.200001	83.322	167.0537
48.700001	83.288	166.8185
49.400002	83.239	166.5613
50.000000	83.207	166.3793
50.799999	83.180	166.0654
51.500000	83.157	165.6790
52.200001	83.124	165.2592
53.000000	83.080	164.8376
53.799999	83.041	164.4823
54.500000	83.013	164.1625
55.200001	82.983	163.8116
56.000000	82.939	163.4404
57.000000	82.887	163.0662
58.000000	82.837	162.6827
59.000000	82.781	162.3228
60.000000	82.727	161.9887
60.799999	82.685	161.6954
61.500000	82.648	161.4375
62.200001	82.611	161.1866
63.000000	82.567	160.9139
64.000000	82.513	160.6161
65.000000	82.463	160.3351
66.000000	82.415	160.0432
67.000000	82.364	159.7465
68.000000	82.309	159.4596
69.000000	82.253	159.1929
70.000000	82.199	158.9364
71.000000	82.147	158.6912
72.000000	82.098	158.4474
73.000000	82.049	158.2172
74.000000	82.002	157.9825
75.000000	81.951	157.7205
76.199997	81.881	157.4376
77.500000	81.806	157.1585
78.800003	81.737	156.8895
80.000000	81.680	156.6092
81.199997	81.621	156.3155
82.500000	81.549	156.0855
83.800003	81.485	156.0296
85.000000	81.448	155.9529
86.199997	81.403	155.7605
87.500000	81.339	155.5172
88.500000	81.280	155.3382
90.000000	81.198	155.1346
91.199997	81.142	154.9070
92.500000	81.077	154.6624
93.800003	81.012	154.5033
95.000000	80.960	154.4251
96.199997	80.915	154.3372
97.500000	80.862	154.1838
98.800003	80.799	154.0186
100.000000	80.741	153.8686
101.500000	80.671	153.6174
103.000000	80.592	153.3623
104.400002	80.521	153.2255
106.000000	80.448	153.1065
107.500000	80.377	153.0259
109.000000	80.306	152.9834
110.599998	80.235	152.9248
112.000000	80.173	152.8396
113.800003	80.093	152.7131
115.000000	80.037	152.6484
117.199997	79.935	152.5884
118.000000	79.898	152.5729
120.599998	79.777	152.5009
122.000000	79.708	152.4543
124.099998	79.601	152.4477
125.000000	79.555	152.4641
126.500000	79.479	152.5054
128.000000	79.401	152.5549
131.500000	79.214	152.9102
132.000000	79.190	153.0084
134.000000	79.112	153.4882
136.000000	79.056	154.0174
138.000000	79.019	154.5563
140.000000	79.013	155.0513
143.000000	79.051	155.4175
145.000000	79.077	155.3915
147.500000	79.081	155.0756
150.000000	79.046	154.6655
152.500000	78.988	154.3127
155.000000	78.914	154.0661
157.500000	78.831	153.9382
160.000000	78.750	153.8778
162.500000	78.676	153.8432
165.000000	78.598	153.8079
167.500000	78.518	153.8072
170.000000	78.441	153.8521
172.500000	78.370	153.9607
175.000000	78.305	154.0894
177.500000	78.239	154.1862
180.000000	78.175	154.2756
182.500000	78.116	154.3495
185.000000	78.059	154.4147
187.500000	78.001	154.4741
190.000000	77.941	154.5439
192.500000	77.880	154.6486
195.000000	77.819	154.7799
197.500000	77.761	154.8802
200.000000	77.701	154.9517
203.000000	77.631	155.0609
206.000000	77.570	155.2292
209.000000	77.517	155.4242
212.000000	77.461	155.5892
214.000000	77.415	155.6874
218.000000	77.319	155.9526
220.000000	77.275	156.0911
224.000000	77.196	156.3067
227.000000	77.138	156.4825
230.000000	77.086	156.7228
233.000000	77.035	156.9720
236.000000	76.975	157.2172
240.000000	76.897	157.5388
243.000000	76.851	157.7572
247.000000	76.802	158.0107
250.000000	76.763	158.1893
254.000000	76.703	158.4036
258.000000	76.643	158.6086
262.000000	76.583	158.8269
265.000000	76.531	159.0190
269.000000	76.461	159.2795
272.000000	76.414	159.4640
276.000000	76.357	159.7365
280.000000	76.303	159.9988
285.000000	76.232	160.3173
290.000000	76.165	160.7056
295.000000	76.109	161.1095
300.000000	76.050	161.5038
304.000000	76.001	161.7771
307.000000	75.970	161.9697
311.000000	75.930	162.2578
315.000000	75.888	162.5773
320.000000	75.837	162.9650
325.000000	75.787	163.3425
330.000000	75.735	163.6801
335.000000	75.691	164.0251
340.000000	75.651	164.3929
345.000000	75.604	164.7987
350.000000	75.554	165.2180
355.000000	75.507	165.5974
360.000000	75.458	165.9555
365.000000	75.413	166.3423
370.000000	75.373	166.7562
375.000000	75.339	167.1613
382.000000	75.287	167.6749
387.000000	75.245	168.0607
395.000000	75.175	168.6813
400.000000	75.139	169.0568
406.000000	75.102	169.5053
412.000000	75.058	169.9439
418.000000	75.013	170.3849
425.000000	74.965	170.9104
431.000000	74.931	171.3752
437.000000	74.901	171.8182
444.000000	74.866	172.3325
450.000000	74.835	172.7766
455.000000	74.812	173.1377
462.000000	74.778	173.6517
468.000000	74.748	174.1205
475.000000	74.720	174.6450
482.000000	74.694	175.1285
487.000000	74.673	175.4695
494.000000	74.641	175.9648
500.000000	74.615	176.4156
508.000000	74.588	177.0187
515.000000	74.568	177.5191
522.000000	74.549	178.0122
530.000000	74.528	178.5782
538.000000	74.506	179.1501
545.000000	74.487	179.6520
552.000000	74.467	-179.8348
560.000000	74.444	-179.2495
570.000000	74.419	-178.5639
580.000000	74.398	-177.8279
590.000000	74.377	-177.1159
600.000000	74.365	-176.4015
608.000000	74.356	-175.7898
615.000000	74.345	-175.2574
622.000000	74.331	-174.7365
630.000000	74.318	-174.1429
640.000000	74.309	-173.4180
650.000000	74.308	-172.7322
660.000000	74.307	-172.0124
670.000000	74.305	-171.2747
680.000000	74.302	-170.5452
690.000000	74.301	-169.8247
700.000000	74.301	-169.1360
710.000000	74.305	-168.4629
720.000000	74.312	-167.7524
730.000000	74.320	-167.0198
740.000000	74.331	-166.3022
750.000000	74.339	-165.5864
762.000000	74.350	-164.7347
775.000000	74.369	-163.8327
788.000000	74.392	-162.9391
800.000000	74.419	-162.0977
812.000000	74.449	-161.2615
825.000000	74.488	-160.4107
838.000000	74.532	-159.5679
850.000000	74.575	-158.7444
862.000000	74.619	-157.9385
875.000000	74.673	-157.0965
885.000000	74.715	-156.4667
900.000000	74.781	-155.5511
912.000000	74.842	-154.8268
925.000000	74.917	-154.0512
938.000000	74.987	-153.3194
950.000000	75.054	-152.6804
962.000000	75.128	-152.0555
975.000000	75.213	-151.3915
988.000000	75.306	-150.7477
1000.000000	75.394	-150.1886
1015.000000	75.491	-149.6096
1030.000000	75.589	-149.0679
1044.000000	75.685	-148.5667
1060.000000	75.795	-148.0431
1075.000000	75.897	-147.5733
1090.000000	76.002	-147.1284
1106.000000	76.119	-146.6961
1120.000000	76.224	-146.3534
1138.000000	76.362	-145.9721
1150.000000	76.452	-145.7455
1172.000000	76.609	-145.3687
1180.000000	76.664	-145.2390
1206.000000	76.840	-144.8572
1220.000000	76.934	-144.6635
1241.000000	77.072	-144.3966
1250.000000	77.131	-144.2948
1265.000000	77.230	-144.1449
1280.000000	77.324	-144.0196
1315.000000	77.532	-143.7048
1320.000000	77.561	-143.6602
1340.000000	77.676	-143.4937
1360.000000	77.787	-143.3320
1380.000000	77.898	-143.1850
1400.000000	78.013	-143.0680
1430.000000	78.186	-142.9342
1450.000000	78.299	-142.8467
1475.000000	78.438	-142.7698
1500.000000	78.573	-142.7232
1525.000000	78.705	-142.6796
1550.000000	78.835	-142.6601
1575.000000	78.963	-142.6659
1600.000000	79.087	-142.6674
1625.000000	79.205	-142.6680
1650.000000	79.322	-142.6915
1675.000000	79.441	-142.7335
1700.000000	79.557	-142.7543
1725.000000	79.671	-142.7789
1750.000000	79.785	-142.8342
1775.000000	79.897	-142.8902
1800.000000	80.008	-142.9570
1825.000000	80.118	-143.0372
1850.000000	80.230	-143.1313
1875.000000	80.342	-143.2508
1900.000000	80.454	-143.3922
1925.000000	80.564	-143.5461
1950.000000	80.673	-143.7183
1975.000000	80.780	-143.9118
2000.000000	80.885	-144.1165
2030.000000	81.010	-144.3913
2060.000000	81.134	-144.7048
2090.000000	81.257	-145.0458
2120.000000	81.378	-145.4150
2140.000000	81.458	-145.6791
2180.000000	81.610	-146.2467
2200.000000	81.684	-146.5480
2240.000000	81.825	-147.1763
2270.000000	81.927	-147.6824
2300.000000	82.026	-148.2113
2330.000000	82.121	-148.7533
2360.000000	82.209	-149.3146
2400.000000	82.319	-150.0961
2430.000000	82.397	-150.7033
2470.000000	82.495	-151.5392
2500.000000	82.565	-152.1775
2540.000000	82.650	-153.0356
2580.000000	82.726	-153.9041
2620.000000	82.793	-154.7702
2650.000000	82.837	-155.4178
2690.000000	82.889	-156.2775
2720.000000	82.923	-156.9224
2760.000000	82.961	-157.7836
2800.000000	82.993	-158.6335
2850.000000	83.027	-159.6437
2900.000000	83.053	-160.6215
2950.000000	83.075	-161.5782
3000.000000	83.093	-162.5294
3040.000000	83.103	-163.3005
3070.000000	83.107	-163.8827
3110.000000	83.108	-164.6517
3150.000000	83.103	-165.4006
3200.000000	83.089	-166.3080
3250.000000	83.069	-167.1837
3300.000000	83.043	-168.0270
3350.000000	83.014	-168.8315
3400.000000	82.986	-169.6004
3450.000000	82.960	-170.3472
3500.000000	82.937	-171.0825
3550.000000	82.913	-171.7970
3600.000000	82.886	-172.4883
3650.000000	82.858	-173.1557
3700.000000	82.830	-173.8045
3750.000000	82.800	-174.4463
3820.000000	82.753	-175.3428
3870.000000	82.712	-175.9842
3950.000000	82.633	-177.0054
4000.000000	82.579	-177.6504
4060.000000	82.506	-178.4208
4120.000000	82.426	-179.1759
4180.000000	82.337	-179.9179
4250.000000	82.220	179.2571
4310.000000	82.108	178.6052
4370.000000	81.979	178.0250
4440.000000	81.814	177.4442
4500.000000	81.671	177.0424
4550.000000	81.558	176.7498
4620.000000	81.409	176.3284
4680.000000	81.279	175.9363
4750.000000	81.118	175.4719
4820.000000	80.941	175.0624
4870.000000	80.807	174.8208
4940.000000	80.613	174.5565
5000.000000	80.444	174.4033
5080.000000	80.215	174.3098
5150.000000	80.014	174.3323
5220.000000	79.815	174.4556
5300.000000	79.592	174.7063
5380.000000	79.375	175.0627
5450.000000	79.191	175.4633
5520.000000	79.014	175.9322
5600.000000	78.820	176.5658
5700.000000	78.595	177.4923
5800.000000	78.391	178.5464
5900.000000	78.211	179.7114
6000.000000	78.056	-179.0188
6080.000000	77.952	-177.9362
6150.000000	77.878	-176.9511
6220.000000	77.821	-175.9314
6300.000000	77.773	-174.7410
6400.000000	77.746	-173.2334
6500.000000	77.755	-171.7295
6600.000000	77.803	-170.2762
6700.000000	77.891	-168.8821
6800.000000	78.025	-167.5737
6900.000000	78.220	-166.3885
7000.000000	78.480	-165.3623
7100.000000	78.789	-164.5560
7200.000000	79.141	-164.0336
7300.000000	79.532	-163.8617
7400.000000	79.961	-164.1053
7500.000000	80.430	-164.8406
7620.000000	81.050	-166.5812
7750.000000	81.742	-169.9197
7880.000000	82.294	-175.0915
8000.000000	82.578	178.5645
8120.000000	82.572	171.2801
8250.000000	82.199	163.3674
8380.000000	81.486	156.5505
8500.000000	80.619	151.8296
8620.000000	79.649	148.7280
8750.000000	78.564	146.9796
8850.000000	77.748	146.5669
9000.000000	76.598	147.1302
9120.000000	75.761	148.3553
9250.000000	74.941	150.2328
9380.000000	74.205	152.5182
9500.000000	73.600	154.9193
9620.000000	73.062	157.5322
9750.000000	72.547	160.5168
9880.000000	72.105	163.6095
10000.000000	71.754	166.5294
10150.000000	71.385	170.2671
10300.000000	71.090	174.0683
10440.000000	70.877	177.6031
10600.000000	70.710	-178.3830
10750.000000	70.623	-174.6493
10900.000000	70.602	-170.9270
11060.000000	70.658	-167.0893
11200.000000	70.774	-163.9151
11380.000000	71.016	-160.0598
11500.000000	71.241	-157.6773
11720.000000	71.797	-153.8669
11800.000000	72.041	-152.7047
12060.000000	72.989	-150.1405
12200.000000	73.579	-149.7703
12410.000000	74.502	-150.9848
12500.000000	74.892	-152.2862
12650.000000	75.492	-155.6322
12800.000000	75.961	-160.4517
13150.000000	76.172	-175.3825
13200.000000	76.085	-177.5855
13400.000000	75.479	174.4488
13600.000000	74.577	168.5224
13800.000000	73.560	164.7859
14000.000000	72.560	162.8297
14300.000000	71.226	162.0966
14500.000000	70.476	162.4838
14750.000000	69.693	163.4233
15000.000000	69.050	164.4809
15250.000000	68.541	165.4315
15500.000000	68.186	166.1454
15750.000000	68.001	166.4677
16000.000000	67.971	166.0383
16250.000000	68.058	163.9810
16500.000000	68.133	158.9136
16750.000000	67.815	149.8032
17000.000000	66.433	141.9435
17250.000000	64.319	147.1419
17500.000000	63.588	152.9530
17750.000000	63.165	152.3240
18000.000000	62.453	152.1255
18250.000000	61.751	153.0507
18500.000000	61.147	153.9283
18750.000000	60.579	154.2836
19000.000000	59.968	154.1790
19250.000000	59.224	153.7855
19500.000000	58.314	153.4319
19750.000000	57.318	153.4817
20000.000000	56.519	153.7958
