* Measurement data measured by REW V5.20.13
* Source: Input device not selected, no input selected, L, volume: no control
* Format: 256k Log Swept Sine, 1 sweep at -12.0 dBFS with no timing reference
* Dated: 2022. 10. 2 ¿ÀÈÄ 8:07:46
* REW Settings:
*  C-weighting compensation: Off
*  Target level: 75.0 dB
* Note: 
* Measurement: L_Steel_UC
* Smoothing: 1/24 octave
* Frequency Step: 1/48 octave
* Start Frequency: 20.300 Hz
*
* Freq(Hz)	SPL(dB)	Phase(degrees)
20.299999	83.981	-170.3190
20.600000	84.002	-170.4547
20.900000	84.042	-170.7361
21.200001	84.070	-171.1034
21.400000	84.079	-171.3794
21.799999	84.076	-171.9540
22.000000	84.067	-172.2285
22.400000	84.043	-172.7234
22.700001	84.026	-173.0637
23.000000	84.014	-173.4095
23.299999	84.006	-173.7834
23.600000	83.999	-174.1913
24.000000	83.988	-174.7787
24.299999	83.979	-175.2348
24.700001	83.964	-175.8446
25.000000	83.952	-176.2952
25.400000	83.935	-176.8808
25.799999	83.918	-177.4389
26.200001	83.900	-177.9590
26.500000	83.888	-178.3236
26.900000	83.874	-178.7834
27.200001	83.864	-179.1160
27.600000	83.851	-179.5477
28.000000	83.835	-179.9579
28.500000	83.815	179.5760
29.000000	83.798	179.1493
29.500000	83.787	178.7122
30.000000	83.776	178.2284
30.400000	83.761	177.8240
30.700001	83.748	177.5296
31.100000	83.730	177.1621
31.500000	83.717	176.8090
32.000000	83.708	176.3334
32.500000	83.699	175.7790
33.000000	83.679	175.1901
33.500000	83.646	174.6633
34.000000	83.613	174.2508
34.500000	83.594	173.9022
35.000000	83.586	173.5261
35.500000	83.578	173.0781
36.000000	83.557	172.5997
36.500000	83.521	172.1679
37.000000	83.479	171.8354
37.500000	83.440	171.5966
38.200001	83.403	171.3198
38.700001	83.388	171.0801
39.500000	83.370	170.5398
40.000000	83.352	170.1179
40.599998	83.322	169.5596
41.200001	83.277	168.9893
41.799999	83.219	168.4892
42.500000	83.153	168.0940
43.099998	83.120	167.8621
43.700001	83.112	167.5556
44.400002	83.098	167.0151
45.000000	83.060	166.5406
45.500000	83.018	166.2712
46.200001	82.972	166.0681
46.799999	82.955	165.8720
47.500000	82.928	165.4926
48.200001	82.874	165.1281
48.700001	82.831	164.9800
49.400002	82.792	164.8482
50.000000	82.777	164.6310
50.799999	82.749	164.1362
51.500000	82.705	163.6838
52.200001	82.659	163.3011
53.000000	82.615	162.8475
53.799999	82.561	162.3468
54.500000	82.499	162.0065
55.200001	82.442	161.8217
56.000000	82.398	161.6738
57.000000	82.354	161.3978
58.000000	82.299	161.0657
59.000000	82.232	160.7153
60.000000	82.158	160.4202
60.799999	82.111	160.1916
61.500000	82.075	159.9125
62.200001	82.035	159.5857
63.000000	81.985	159.2468
64.000000	81.932	158.8773
65.000000	81.883	158.5206
66.000000	81.830	158.2219
67.000000	81.774	157.9853
68.000000	81.710	157.8166
69.000000	81.648	157.6899
70.000000	81.590	157.5087
71.000000	81.528	157.2197
72.000000	81.455	156.8853
73.000000	81.381	156.6529
74.000000	81.334	156.4937
75.000000	81.306	156.2470
76.199997	81.255	155.8971
77.500000	81.171	155.7071
78.800003	81.079	155.7453
80.000000	81.002	155.7783
81.199997	80.910	155.7755
82.500000	80.850	155.8362
83.800003	80.817	155.4034
85.000000	80.749	154.9621
86.199997	80.696	154.6959
87.500000	80.657	154.3993
88.500000	80.622	154.1629
90.000000	80.552	153.9549
91.199997	80.495	153.8384
92.500000	80.408	153.7079
93.800003	80.297	153.7046
95.000000	80.196	153.8047
96.199997	80.122	153.8145
97.500000	80.047	153.5212
98.800003	79.966	153.1903
100.000000	79.910	152.9274
101.500000	79.852	152.7118
103.000000	79.790	152.7397
104.400002	79.723	152.8967
106.000000	79.625	152.9992
107.500000	79.520	152.8801
109.000000	79.414	152.6127
110.599998	79.324	152.4901
112.000000	79.273	152.5639
113.800003	79.196	152.7715
115.000000	79.110	152.7979
117.199997	78.879	152.2950
118.000000	78.773	151.9138
120.599998	78.434	152.2204
122.000000	78.477	153.1964
124.099998	78.607	154.2005
125.000000	78.635	154.6317
126.500000	78.654	155.2710
128.000000	78.658	155.6235
131.500000	78.691	155.4842
132.000000	78.698	155.4511
134.000000	78.715	155.3882
136.000000	78.687	155.3306
138.000000	78.625	155.1097
140.000000	78.572	154.7673
143.000000	78.513	154.3115
145.000000	78.455	154.2507
147.500000	78.349	154.3703
150.000000	78.258	154.5614
152.500000	78.191	154.4232
155.000000	78.082	154.1721
157.500000	77.983	154.1128
160.000000	77.894	154.0338
162.500000	77.789	154.1380
165.000000	77.716	154.3970
167.500000	77.665	154.4875
170.000000	77.598	154.5416
172.500000	77.526	154.7044
175.000000	77.460	154.9040
177.500000	77.394	155.1242
180.000000	77.334	155.3297
182.500000	77.273	155.4224
185.000000	77.201	155.5660
187.500000	77.135	155.8439
190.000000	77.086	156.0906
192.500000	77.039	156.1999
195.000000	76.981	156.3331
197.500000	76.934	156.5984
200.000000	76.908	156.7851
203.000000	76.876	156.8434
206.000000	76.821	156.9147
209.000000	76.751	157.0240
212.000000	76.685	157.1309
214.000000	76.646	157.1971
218.000000	76.557	157.3710
220.000000	76.512	157.4850
224.000000	76.437	157.7625
227.000000	76.387	157.9476
230.000000	76.327	158.0865
233.000000	76.260	158.2180
236.000000	76.196	158.3940
240.000000	76.130	158.6305
243.000000	76.082	158.8225
247.000000	76.014	159.1367
250.000000	75.959	159.3696
254.000000	75.880	159.7427
258.000000	75.811	160.1058
262.000000	75.750	160.4020
265.000000	75.705	160.6348
269.000000	75.646	160.9597
272.000000	75.604	161.1778
276.000000	75.553	161.4347
280.000000	75.501	161.7713
285.000000	75.433	162.1786
290.000000	75.370	162.5583
295.000000	75.309	162.9897
300.000000	75.247	163.4101
304.000000	75.191	163.8419
307.000000	75.154	164.1512
311.000000	75.117	164.4737
315.000000	75.081	164.7327
320.000000	75.027	165.0875
325.000000	74.969	165.4867
330.000000	74.914	165.8885
335.000000	74.862	166.2962
340.000000	74.817	166.6940
345.000000	74.777	167.0630
350.000000	74.726	167.4467
355.000000	74.676	167.8282
360.000000	74.634	168.2425
365.000000	74.591	168.6442
370.000000	74.546	169.0436
375.000000	74.512	169.4335
382.000000	74.478	169.9456
387.000000	74.442	170.3060
395.000000	74.379	171.0295
400.000000	74.349	171.4833
406.000000	74.312	172.0044
412.000000	74.276	172.4574
418.000000	74.245	172.8521
425.000000	74.209	173.3143
431.000000	74.185	173.7306
437.000000	74.159	174.2294
444.000000	74.116	174.8062
450.000000	74.085	175.2725
455.000000	74.067	175.6496
462.000000	74.044	176.1208
468.000000	74.017	176.5272
475.000000	73.979	177.0212
482.000000	73.952	177.4976
487.000000	73.938	177.8624
494.000000	73.917	178.3934
500.000000	73.900	178.8521
508.000000	73.868	179.4624
515.000000	73.842	-179.9923
522.000000	73.830	-179.5098
530.000000	73.811	-178.9821
538.000000	73.783	-178.4116
545.000000	73.764	-177.9195
552.000000	73.751	-177.4270
560.000000	73.735	-176.8664
570.000000	73.718	-176.1293
580.000000	73.701	-175.4057
590.000000	73.679	-174.6915
600.000000	73.662	-173.9543
608.000000	73.646	-173.3925
615.000000	73.634	-172.9039
622.000000	73.626	-172.4317
630.000000	73.621	-171.8817
640.000000	73.614	-171.1478
650.000000	73.600	-170.4121
660.000000	73.591	-169.6669
670.000000	73.590	-168.9226
680.000000	73.592	-168.2261
690.000000	73.606	-167.5238
700.000000	73.626	-166.7654
710.000000	73.638	-166.0155
720.000000	73.654	-165.2959
730.000000	73.675	-164.5965
740.000000	73.693	-163.8951
750.000000	73.710	-163.1558
762.000000	73.731	-162.3017
775.000000	73.757	-161.3749
788.000000	73.781	-160.4357
800.000000	73.821	-159.5997
812.000000	73.871	-158.8471
825.000000	73.920	-158.0192
838.000000	73.977	-157.1429
850.000000	74.040	-156.3457
862.000000	74.099	-155.5299
875.000000	74.165	-154.6881
885.000000	74.222	-154.0934
900.000000	74.302	-153.2042
912.000000	74.366	-152.5135
925.000000	74.450	-151.8036
938.000000	74.542	-151.0749
950.000000	74.621	-150.4370
962.000000	74.704	-149.8227
975.000000	74.801	-149.1613
988.000000	74.889	-148.5520
1000.000000	74.969	-148.0573
1015.000000	75.090	-147.4835
1030.000000	75.216	-146.9170
1044.000000	75.326	-146.4159
1060.000000	75.447	-145.9306
1075.000000	75.565	-145.5106
1090.000000	75.681	-145.0921
1106.000000	75.800	-144.6928
1120.000000	75.904	-144.4013
1138.000000	76.034	-144.0108
1150.000000	76.121	-143.7462
1172.000000	76.277	-143.3860
1180.000000	76.331	-143.2886
1206.000000	76.501	-142.9928
1220.000000	76.589	-142.8496
1241.000000	76.717	-142.6397
1250.000000	76.771	-142.5376
1265.000000	76.860	-142.3550
1280.000000	76.948	-142.1974
1315.000000	77.148	-141.9270
1320.000000	77.175	-141.8932
1340.000000	77.276	-141.7503
1360.000000	77.378	-141.5665
1380.000000	77.486	-141.3961
1400.000000	77.590	-141.2811
1430.000000	77.741	-141.1484
1450.000000	77.842	-141.0750
1475.000000	77.965	-140.9551
1500.000000	78.091	-140.8454
1525.000000	78.218	-140.7651
1550.000000	78.338	-140.6889
1575.000000	78.458	-140.6054
1600.000000	78.577	-140.5460
1625.000000	78.696	-140.5170
1650.000000	78.810	-140.5105
1675.000000	78.924	-140.5298
1700.000000	79.038	-140.5620
1725.000000	79.151	-140.5774
1750.000000	79.263	-140.6152
1775.000000	79.376	-140.6680
1800.000000	79.491	-140.7331
1825.000000	79.601	-140.8164
1850.000000	79.708	-140.9257
1875.000000	79.814	-141.0597
1900.000000	79.921	-141.2176
1925.000000	80.028	-141.3908
1950.000000	80.134	-141.5720
1975.000000	80.241	-141.7590
2000.000000	80.346	-141.9698
2030.000000	80.467	-142.2760
2060.000000	80.588	-142.5988
2090.000000	80.706	-142.9344
2120.000000	80.823	-143.3043
2140.000000	80.900	-143.5696
2180.000000	81.046	-144.1387
2200.000000	81.115	-144.4414
2240.000000	81.249	-145.0813
2270.000000	81.345	-145.5811
2300.000000	81.440	-146.1072
2330.000000	81.529	-146.6496
2360.000000	81.612	-147.2087
2400.000000	81.714	-147.9852
2430.000000	81.786	-148.5900
2470.000000	81.872	-149.4038
2500.000000	81.931	-150.0153
2540.000000	82.002	-150.8464
2580.000000	82.065	-151.6833
2620.000000	82.119	-152.5190
2650.000000	82.152	-153.1381
2690.000000	82.189	-153.9518
2720.000000	82.211	-154.5501
2760.000000	82.237	-155.3199
2800.000000	82.254	-156.0612
2850.000000	82.268	-156.9688
2900.000000	82.275	-157.8259
2950.000000	82.278	-158.6122
3000.000000	82.273	-159.3751
3040.000000	82.267	-159.9670
3070.000000	82.261	-160.3813
3110.000000	82.251	-160.8971
3150.000000	82.242	-161.3858
3200.000000	82.231	-161.9521
3250.000000	82.222	-162.4954
3300.000000	82.217	-163.0379
3350.000000	82.218	-163.5796
3400.000000	82.219	-164.1162
3450.000000	82.220	-164.6730
3500.000000	82.218	-165.2659
3550.000000	82.214	-165.8798
3600.000000	82.209	-166.5044
3650.000000	82.201	-167.1302
3700.000000	82.187	-167.7694
3750.000000	82.169	-168.4283
3820.000000	82.136	-169.3404
3870.000000	82.106	-169.9653
3950.000000	82.050	-170.9685
4000.000000	82.012	-171.5965
4060.000000	81.957	-172.3404
4120.000000	81.895	-173.0734
4180.000000	81.830	-173.7955
4250.000000	81.747	-174.6433
4310.000000	81.669	-175.3328
4370.000000	81.582	-175.9802
4440.000000	81.466	-176.6828
4500.000000	81.360	-177.2300
4550.000000	81.272	-177.6408
4620.000000	81.154	-178.1496
4680.000000	81.056	-178.5676
4750.000000	80.935	-179.0847
4820.000000	80.802	-179.6146
4870.000000	80.698	-179.9614
4940.000000	80.542	179.6504
5000.000000	80.405	179.4201
5080.000000	80.221	179.2245
5150.000000	80.062	179.0962
5220.000000	79.902	179.0421
5300.000000	79.716	179.0750
5380.000000	79.526	179.2531
5450.000000	79.361	179.5303
5520.000000	79.205	179.8933
5600.000000	79.036	-179.5876
5700.000000	78.840	-178.7530
5800.000000	78.664	-177.7432
5900.000000	78.519	-176.6015
6000.000000	78.402	-175.3552
6080.000000	78.329	-174.2882
6150.000000	78.282	-173.3152
6220.000000	78.253	-172.3320
6300.000000	78.243	-171.1891
6400.000000	78.269	-169.7556
6500.000000	78.338	-168.3580
6600.000000	78.442	-167.0008
6700.000000	78.589	-165.7554
6800.000000	78.780	-164.6853
6900.000000	79.013	-163.7777
7000.000000	79.289	-163.0796
7100.000000	79.608	-162.6810
7200.000000	79.967	-162.6633
7300.000000	80.364	-163.1121
7400.000000	80.784	-164.1384
7500.000000	81.210	-165.8050
7620.000000	81.705	-168.7214
7750.000000	82.175	-173.1046
7880.000000	82.524	-178.7254
8000.000000	82.685	175.0997
8120.000000	82.649	168.1703
8250.000000	82.334	160.1573
8380.000000	81.676	152.2883
8500.000000	80.751	146.0748
8620.000000	79.578	141.7713
8750.000000	78.183	139.7249
8850.000000	77.135	139.8073
9000.000000	75.728	141.7869
9120.000000	74.778	144.2993
9250.000000	73.918	147.5049
9380.000000	73.192	151.0009
9500.000000	72.620	154.3393
9620.000000	72.132	157.6956
9750.000000	71.679	161.3804
9880.000000	71.290	165.0974
10000.000000	70.989	168.5312
10150.000000	70.681	172.8215
10300.000000	70.447	177.1294
10440.000000	70.298	-178.8440
10600.000000	70.197	-174.2602
10750.000000	70.171	-170.0140
10900.000000	70.216	-165.8738
11060.000000	70.348	-161.5243
11200.000000	70.535	-157.7840
11380.000000	70.887	-153.0861
11500.000000	71.203	-150.0558
11720.000000	71.979	-144.9290
11800.000000	72.336	-143.2826
12060.000000	73.797	-139.2238
12200.000000	74.797	-138.3313
12410.000000	76.541	-139.9097
12500.000000	77.324	-142.1269
12650.000000	78.528	-148.5398
12800.000000	79.392	-158.5246
13150.000000	79.105	172.8929
13200.000000	78.805	169.5246
13400.000000	77.237	159.8475
13600.000000	75.482	155.6266
13800.000000	73.895	155.0072
14000.000000	72.591	156.4353
14300.000000	71.141	160.4650
14500.000000	70.472	163.7142
14750.000000	69.926	167.8966
15000.000000	69.677	171.6660
15250.000000	69.696	174.5807
15500.000000	69.953	176.1771
15750.000000	70.418	175.8664
16000.000000	70.980	172.5281
16250.000000	71.390	165.2221
16500.000000	71.325	154.3487
16750.000000	70.598	141.8543
17000.000000	69.197	129.0379
17250.000000	66.693	122.7939
17500.000000	63.422	132.3958
17750.000000	61.778	142.2854
18000.000000	61.119	146.7789
18250.000000	60.508	149.3538
18500.000000	59.885	151.0627
18750.000000	59.205	152.2007
19000.000000	58.422	153.0516
19250.000000	57.534	153.8708
19500.000000	56.571	155.0395
19750.000000	55.597	156.6638
20000.000000	54.880	158.2914
