* Measurement data measured by REW V5.20.13
* Source: Input device not selected, no input selected, L, volume: no control
* Format: 256k Log Swept Sine, 1 sweep at -12.0 dBFS with no timing reference
* Dated: 2022. 10. 2 ¿ÀÈÄ 8:59:40
* REW Settings:
*  C-weighting compensation: Off
*  Target level: 75.0 dB
* Note: 
* Measurement: R_Steek_AET08
* Smoothing: 1/24 octave
* Frequency Step: 1/48 octave
* Start Frequency: 20.300 Hz
*
* Freq(Hz)	SPL(dB)	Phase(degrees)
20.299999	84.544	-169.4968
20.600000	84.549	-169.7291
20.900000	84.556	-170.1406
21.200001	84.552	-170.5185
21.400000	84.544	-170.7423
21.799999	84.523	-171.1384
22.000000	84.513	-171.3220
22.400000	84.503	-171.6901
22.700001	84.503	-172.0078
23.000000	84.508	-172.3958
23.299999	84.512	-172.8562
23.600000	84.510	-173.3678
24.000000	84.495	-174.0732
24.299999	84.478	-174.5707
24.700001	84.452	-175.1520
25.000000	84.438	-175.5268
25.400000	84.430	-175.9779
25.799999	84.436	-176.4298
26.200001	84.448	-176.9235
26.500000	84.455	-177.3202
26.900000	84.455	-177.8541
27.200001	84.448	-178.2257
27.600000	84.434	-178.6475
28.000000	84.420	-178.9806
28.500000	84.414	-179.3370
29.000000	84.417	-179.7386
29.500000	84.413	179.7716
30.000000	84.393	179.2615
30.400000	84.367	178.9027
30.700001	84.348	178.6714
31.100000	84.327	178.3856
31.500000	84.314	178.0826
32.000000	84.298	177.6440
32.500000	84.276	177.1768
33.000000	84.251	176.7494
33.500000	84.233	176.3623
34.000000	84.224	175.9496
34.500000	84.214	175.4803
35.000000	84.195	175.0088
35.500000	84.172	174.6063
36.000000	84.155	174.2576
36.500000	84.145	173.8828
37.000000	84.129	173.4513
37.500000	84.098	173.0378
38.200001	84.046	172.6466
38.700001	84.024	172.4545
39.500000	84.014	171.9925
40.000000	83.999	171.5950
40.599998	83.966	171.1447
41.200001	83.934	170.7773
41.799999	83.914	170.4001
42.500000	83.889	169.8745
43.099998	83.856	169.4301
43.700001	83.821	169.0508
44.400002	83.782	168.6594
45.000000	83.749	168.3626
45.500000	83.724	168.1601
46.200001	83.702	167.8775
46.799999	83.683	167.5504
47.500000	83.640	167.1791
48.200001	83.599	166.9729
48.700001	83.588	166.8081
49.400002	83.571	166.3330
50.000000	83.514	165.8943
50.799999	83.428	165.7386
51.500000	83.421	165.6520
52.200001	83.421	165.0958
53.000000	83.335	164.3849
53.799999	83.240	164.2374
54.500000	83.221	164.1647
55.200001	83.217	163.7892
56.000000	83.179	163.2308
57.000000	83.106	162.7242
58.000000	83.048	162.4248
59.000000	83.020	162.0667
60.000000	82.974	161.5613
60.799999	82.922	161.2437
61.500000	82.879	161.0168
62.200001	82.837	160.7918
63.000000	82.788	160.5521
64.000000	82.730	160.2643
65.000000	82.671	159.9850
66.000000	82.619	159.7513
67.000000	82.579	159.4628
68.000000	82.527	159.0892
69.000000	82.456	158.7956
70.000000	82.387	158.6349
71.000000	82.331	158.4859
72.000000	82.278	158.2804
73.000000	82.222	158.0364
74.000000	82.163	157.7778
75.000000	82.103	157.5350
76.199997	82.036	157.2707
77.500000	81.966	157.0378
78.800003	81.907	156.8986
80.000000	81.863	156.7617
81.199997	81.818	156.5725
82.500000	81.758	156.2975
83.800003	81.683	156.0266
85.000000	81.612	155.8132
86.199997	81.546	155.6320
87.500000	81.488	155.4499
88.500000	81.445	155.2719
90.000000	81.368	155.0003
91.199997	81.299	154.8348
92.500000	81.221	154.6436
93.800003	81.130	154.4235
95.000000	81.035	154.2512
96.199997	80.935	154.1533
97.500000	80.833	154.0992
98.800003	80.733	154.0348
100.000000	80.632	153.9973
101.500000	80.495	154.1230
103.000000	80.369	154.5313
104.400002	80.280	155.1328
106.000000	80.210	156.0200
107.500000	80.192	157.0872
109.000000	80.263	158.1111
110.599998	80.418	158.5852
112.000000	80.548	158.3332
113.800003	80.640	157.5709
115.000000	80.653	157.0301
117.199997	80.591	156.1530
118.000000	80.545	155.8940
120.599998	80.418	155.3521
122.000000	80.391	154.8037
124.099998	80.321	153.9471
125.000000	80.287	153.7255
126.500000	80.233	153.5309
128.000000	80.178	153.4344
131.500000	80.012	153.1812
132.000000	79.988	153.1401
134.000000	79.901	152.9694
136.000000	79.823	152.8367
138.000000	79.749	152.7414
140.000000	79.669	152.6324
143.000000	79.546	152.4856
145.000000	79.469	152.4240
147.500000	79.367	152.4044
150.000000	79.273	152.4529
152.500000	79.189	152.4414
155.000000	79.110	152.4822
157.500000	79.032	152.5229
160.000000	78.943	152.5446
162.500000	78.860	152.5888
165.000000	78.785	152.6322
167.500000	78.703	152.7062
170.000000	78.619	152.8271
172.500000	78.546	152.9398
175.000000	78.477	153.0222
177.500000	78.399	153.1407
180.000000	78.319	153.2723
182.500000	78.245	153.3404
185.000000	78.180	153.3950
187.500000	78.120	153.5231
190.000000	78.060	153.7218
192.500000	78.001	153.8941
195.000000	77.940	153.9992
197.500000	77.877	154.0903
200.000000	77.817	154.1834
203.000000	77.744	154.2860
206.000000	77.669	154.4102
209.000000	77.595	154.5646
212.000000	77.522	154.7423
214.000000	77.474	154.8966
218.000000	77.386	155.2506
220.000000	77.345	155.4064
224.000000	77.270	155.6912
227.000000	77.216	155.9268
230.000000	77.157	156.1163
233.000000	77.100	156.2444
236.000000	77.048	156.3570
240.000000	76.977	156.6131
243.000000	76.922	156.8388
247.000000	76.845	157.1349
250.000000	76.787	157.3708
254.000000	76.712	157.6765
258.000000	76.640	157.9435
262.000000	76.567	158.1998
265.000000	76.519	158.4095
269.000000	76.465	158.7042
272.000000	76.424	158.9230
276.000000	76.366	159.2178
280.000000	76.303	159.5164
285.000000	76.220	159.8746
290.000000	76.144	160.2247
295.000000	76.074	160.6381
300.000000	76.016	161.0395
304.000000	75.971	161.3431
307.000000	75.934	161.5666
311.000000	75.879	161.8514
315.000000	75.826	162.1312
320.000000	75.768	162.4950
325.000000	75.713	162.9053
330.000000	75.654	163.2880
335.000000	75.598	163.6375
340.000000	75.547	164.0498
345.000000	75.500	164.4620
350.000000	75.451	164.8701
355.000000	75.397	165.2609
360.000000	75.349	165.6205
365.000000	75.305	166.0141
370.000000	75.263	166.4139
375.000000	75.221	166.7912
382.000000	75.162	167.3136
387.000000	75.115	167.7091
395.000000	75.047	168.3156
400.000000	75.013	168.6976
406.000000	74.976	169.1609
412.000000	74.939	169.5952
418.000000	74.898	170.0294
425.000000	74.847	170.5472
431.000000	74.809	171.0088
437.000000	74.773	171.4766
444.000000	74.731	172.0129
450.000000	74.699	172.4380
455.000000	74.674	172.7849
462.000000	74.633	173.3138
468.000000	74.600	173.7565
475.000000	74.566	174.2779
482.000000	74.534	174.8340
487.000000	74.514	175.2146
494.000000	74.486	175.7280
500.000000	74.463	176.1747
508.000000	74.436	176.7607
515.000000	74.405	177.2318
522.000000	74.372	177.7076
530.000000	74.343	178.3107
538.000000	74.327	178.9146
545.000000	74.310	179.4225
552.000000	74.289	179.9165
560.000000	74.259	-179.5260
570.000000	74.223	-178.7995
580.000000	74.198	-178.0843
590.000000	74.177	-177.3472
600.000000	74.155	-176.5985
608.000000	74.139	-175.9974
615.000000	74.126	-175.4886
622.000000	74.113	-175.0003
630.000000	74.100	-174.4142
640.000000	74.095	-173.6685
650.000000	74.096	-172.9509
660.000000	74.086	-172.2177
670.000000	74.079	-171.4643
680.000000	74.077	-170.7299
690.000000	74.077	-170.0001
700.000000	74.081	-169.2832
710.000000	74.090	-168.5615
720.000000	74.099	-167.8561
730.000000	74.115	-167.1617
740.000000	74.128	-166.4486
750.000000	74.135	-165.7228
762.000000	74.153	-164.8571
775.000000	74.180	-163.9204
788.000000	74.208	-163.0205
800.000000	74.239	-162.1743
812.000000	74.276	-161.3311
825.000000	74.323	-160.4899
838.000000	74.375	-159.6241
850.000000	74.425	-158.7906
862.000000	74.480	-157.9783
875.000000	74.545	-157.1394
885.000000	74.596	-156.5144
900.000000	74.675	-155.5829
912.000000	74.747	-154.8844
925.000000	74.829	-154.1313
938.000000	74.910	-153.3845
950.000000	74.986	-152.7256
962.000000	75.067	-152.1184
975.000000	75.162	-151.5161
988.000000	75.251	-150.9599
1000.000000	75.335	-150.4498
1015.000000	75.454	-149.7738
1030.000000	75.573	-149.1764
1044.000000	75.679	-148.6653
1060.000000	75.798	-148.1154
1075.000000	75.910	-147.6514
1090.000000	76.024	-147.2486
1106.000000	76.145	-146.8366
1120.000000	76.245	-146.4952
1138.000000	76.377	-146.1223
1150.000000	76.463	-145.9027
1172.000000	76.616	-145.5458
1180.000000	76.670	-145.4279
1206.000000	76.841	-145.0573
1220.000000	76.927	-144.8720
1241.000000	77.056	-144.6162
1250.000000	77.111	-144.5201
1265.000000	77.202	-144.3674
1280.000000	77.292	-144.2224
1315.000000	77.493	-143.8797
1320.000000	77.522	-143.8324
1340.000000	77.637	-143.6655
1360.000000	77.748	-143.5222
1380.000000	77.856	-143.3769
1400.000000	77.965	-143.2445
1430.000000	78.126	-143.1304
1450.000000	78.231	-143.0581
1475.000000	78.360	-142.9729
1500.000000	78.486	-142.9136
1525.000000	78.608	-142.8839
1550.000000	78.726	-142.8758
1575.000000	78.842	-142.8885
1600.000000	78.957	-142.9072
1625.000000	79.071	-142.9097
1650.000000	79.183	-142.9220
1675.000000	79.295	-142.9487
1700.000000	79.401	-142.9890
1725.000000	79.508	-143.0225
1750.000000	79.615	-143.0687
1775.000000	79.722	-143.1373
1800.000000	79.830	-143.2184
1825.000000	79.937	-143.3134
1850.000000	80.043	-143.4281
1875.000000	80.149	-143.5542
1900.000000	80.255	-143.6932
1925.000000	80.360	-143.8572
1950.000000	80.465	-144.0493
1975.000000	80.568	-144.2613
2000.000000	80.670	-144.4793
2030.000000	80.793	-144.7609
2060.000000	80.913	-145.0716
2090.000000	81.030	-145.4221
2120.000000	81.144	-145.8177
2140.000000	81.219	-146.0950
2180.000000	81.364	-146.6733
2200.000000	81.434	-146.9814
2240.000000	81.570	-147.6245
2270.000000	81.668	-148.1344
2300.000000	81.762	-148.6717
2330.000000	81.850	-149.2251
2360.000000	81.934	-149.7944
2400.000000	82.039	-150.5795
2430.000000	82.111	-151.1898
2470.000000	82.200	-152.0238
2500.000000	82.261	-152.6537
2540.000000	82.337	-153.4935
2580.000000	82.403	-154.3361
2620.000000	82.461	-155.1814
2650.000000	82.501	-155.8084
2690.000000	82.548	-156.6356
2720.000000	82.579	-157.2580
2760.000000	82.617	-158.0948
2800.000000	82.650	-158.9282
2850.000000	82.680	-159.9810
2900.000000	82.697	-161.0291
2950.000000	82.702	-162.0362
3000.000000	82.700	-163.0083
3040.000000	82.693	-163.7502
3070.000000	82.686	-164.2867
3110.000000	82.673	-164.9845
3150.000000	82.655	-165.6657
3200.000000	82.629	-166.4937
3250.000000	82.601	-167.2961
3300.000000	82.569	-168.0607
3350.000000	82.532	-168.7869
3400.000000	82.492	-169.4940
3450.000000	82.449	-170.1730
3500.000000	82.405	-170.8130
3550.000000	82.360	-171.4122
3600.000000	82.315	-171.9855
3650.000000	82.272	-172.5448
3700.000000	82.230	-173.1062
3750.000000	82.188	-173.6759
3820.000000	82.125	-174.4849
3870.000000	82.075	-175.0630
3950.000000	81.988	-175.9653
4000.000000	81.929	-176.5120
4060.000000	81.853	-177.1409
4120.000000	81.772	-177.7383
4180.000000	81.686	-178.3090
4250.000000	81.583	-178.9239
4310.000000	81.493	-179.4033
4370.000000	81.408	-179.8531
4440.000000	81.311	179.6373
4500.000000	81.227	179.1880
4550.000000	81.157	178.7979
4620.000000	81.054	178.2397
4680.000000	80.960	177.7440
4750.000000	80.841	177.1655
4820.000000	80.705	176.6162
4870.000000	80.598	176.2599
4940.000000	80.441	175.8383
5000.000000	80.300	175.5623
5080.000000	80.107	175.3135
5150.000000	79.937	175.1782
5220.000000	79.768	175.1172
5300.000000	79.575	175.1474
5380.000000	79.380	175.2953
5450.000000	79.207	175.5139
5520.000000	79.035	175.8257
5600.000000	78.840	176.3245
5700.000000	78.610	177.1586
5800.000000	78.401	178.2136
5900.000000	78.220	179.4795
6000.000000	78.075	-179.0850
6080.000000	77.991	-177.8750
6150.000000	77.940	-176.7905
6220.000000	77.907	-175.6843
6300.000000	77.891	-174.4160
6400.000000	77.905	-172.8589
6500.000000	77.953	-171.3353
6600.000000	78.038	-169.8395
6700.000000	78.167	-168.3937
6800.000000	78.342	-167.0154
6900.000000	78.562	-165.7657
7000.000000	78.835	-164.7112
7100.000000	79.165	-163.9240
7200.000000	79.550	-163.4780
7300.000000	79.987	-163.4586
7400.000000	80.473	-164.0115
7500.000000	80.997	-165.2994
7620.000000	81.649	-168.0409
7750.000000	82.308	-172.7813
7880.000000	82.799	-179.4773
8000.000000	82.996	172.9243
8120.000000	82.878	164.6432
8250.000000	82.381	155.8586
8380.000000	81.536	148.1593
8500.000000	80.500	142.6244
8620.000000	79.299	139.0338
8750.000000	77.938	137.3817
8850.000000	76.923	137.4717
9000.000000	75.531	139.2854
9120.000000	74.565	141.7314
9250.000000	73.670	144.9659
9380.000000	72.915	148.5226
9500.000000	72.321	151.9620
9620.000000	71.806	155.4803
9750.000000	71.325	159.3683
9880.000000	70.920	163.2998
10000.000000	70.605	166.9331
10150.000000	70.279	171.4762
10300.000000	70.032	176.0334
10440.000000	69.872	-179.7199
10600.000000	69.763	-174.9077
10750.000000	69.729	-170.4517
10900.000000	69.766	-166.0344
11060.000000	69.892	-161.4156
11200.000000	70.065	-157.4968
11380.000000	70.386	-152.5991
11500.000000	70.674	-149.4369
11720.000000	71.359	-144.0615
11800.000000	71.660	-142.2796
12060.000000	72.860	-137.3806
12200.000000	73.662	-135.5378
12410.000000	75.065	-134.3941
12500.000000	75.729	-134.7276
12650.000000	76.880	-136.7506
12800.000000	77.998	-141.0397
13150.000000	79.639	-160.3750
13200.000000	79.691	-163.8053
13400.000000	79.398	-176.9825
13600.000000	78.474	172.8882
13800.000000	77.262	166.7339
14000.000000	76.055	163.7954
14300.000000	74.560	163.0591
14500.000000	73.830	163.7499
14750.000000	73.198	164.9887
15000.000000	72.827	166.0469
15250.000000	72.674	166.3625
15500.000000	72.704	165.3344
15750.000000	72.849	162.2846
16000.000000	72.966	156.2708
16250.000000	72.780	146.7845
16500.000000	71.963	135.0234
16750.000000	70.357	123.7364
17000.000000	67.889	117.2402
17250.000000	64.579	125.4470
17500.000000	62.404	139.9278
17750.000000	61.673	147.5508
18000.000000	61.067	152.9383
18250.000000	60.529	158.1699
18500.000000	60.127	162.9979
18750.000000	59.848	167.1265
19000.000000	59.635	170.2726
19250.000000	59.416	172.4626
19500.000000	59.132	173.9697
19750.000000	58.779	175.0004
20000.000000	58.496	175.6575
