* Measurement data measured by REW V5.20.13
* Source: EXCL: Mic in at rear panel (Pink)(Realtek(R) Audio), MICROPHONE (마스), L, volume: 0.500
* Format: 256k Log Swept Sine, 1 sweep at -12.0 dBFS with no timing reference
* Dated: 2022. 10. 1 오후 5:32:36
* REW Settings:
*  C-weighting compensation: Off
*  Target level: 75.0 dB
* Note: 
* Measurement: R_Steel
* Smoothing: 1/24 octave
* Frequency Step: 1/48 octave
* Start Frequency: 20.300 Hz
*
* Freq(Hz)	SPL(dB)	Phase(degrees)
20.299999	84.358	-170.3567
20.600000	84.355	-170.5593
20.900000	84.346	-170.9117
21.200001	84.335	-171.2253
21.400000	84.327	-171.4244
21.799999	84.311	-171.8401
22.000000	84.302	-172.0698
22.400000	84.281	-172.5715
22.700001	84.263	-172.9771
23.000000	84.244	-173.4010
23.299999	84.224	-173.8353
23.600000	84.205	-174.2722
24.000000	84.183	-174.8467
24.299999	84.170	-175.2654
24.700001	84.161	-175.8082
25.000000	84.160	-176.2116
25.400000	84.164	-176.7588
25.799999	84.172	-177.3250
26.200001	84.178	-177.8996
26.500000	84.178	-178.3199
26.900000	84.171	-178.8458
27.200001	84.162	-179.2054
27.600000	84.147	-179.6369
28.000000	84.131	179.9785
28.500000	84.110	179.5462
29.000000	84.091	179.1422
29.500000	84.072	178.7335
30.000000	84.050	178.2963
30.400000	84.027	177.9350
30.700001	84.006	177.6717
31.100000	83.978	177.3455
31.500000	83.952	177.0406
32.000000	83.929	176.6378
32.500000	83.910	176.1433
33.000000	83.882	175.5580
33.500000	83.838	174.9768
34.000000	83.783	174.5209
34.500000	83.733	174.2293
35.000000	83.706	174.0298
35.500000	83.703	173.7910
36.000000	83.710	173.4243
36.500000	83.708	172.9362
37.000000	83.687	172.4197
37.500000	83.647	171.9868
38.200001	83.590	171.6109
38.700001	83.569	171.4203
39.500000	83.564	170.8974
40.000000	83.548	170.3869
40.599998	83.495	169.7715
41.200001	83.425	169.3667
41.799999	83.375	169.1401
42.500000	83.354	168.8144
43.099998	83.340	168.3678
43.700001	83.311	167.8886
44.400002	83.269	167.4250
45.000000	83.241	167.0793
45.500000	83.221	166.7748
46.200001	83.189	166.3179
46.799999	83.154	165.9440
47.500000	83.108	165.5891
48.200001	83.069	165.3068
48.700001	83.048	165.0934
49.400002	83.015	164.7284
50.000000	82.975	164.4044
50.799999	82.911	164.0550
51.500000	82.858	163.7866
52.200001	82.804	163.4920
53.000000	82.734	163.1642
53.799999	82.662	162.8858
54.500000	82.602	162.6442
55.200001	82.541	162.3755
56.000000	82.462	162.0912
57.000000	82.367	161.9073
58.000000	82.307	161.7184
59.000000	82.241	161.3131
60.000000	82.144	160.9651
60.799999	82.064	160.7886
61.500000	81.997	160.6692
62.200001	81.927	160.6024
63.000000	81.849	160.6242
64.000000	81.764	160.8056
65.000000	81.702	161.1103
66.000000	81.663	161.5081
67.000000	81.659	161.9413
68.000000	81.689	162.2229
69.000000	81.729	162.2838
70.000000	81.769	162.1478
71.000000	81.802	161.8295
72.000000	81.819	161.3985
73.000000	81.822	160.9468
74.000000	81.817	160.4965
75.000000	81.798	160.0823
76.199997	81.769	159.6784
77.500000	81.728	159.1987
78.800003	81.655	158.7310
80.000000	81.575	158.3953
81.199997	81.499	158.0488
82.500000	81.408	157.6679
83.800003	81.324	157.3801
85.000000	81.258	157.1000
86.199997	81.187	156.8296
87.500000	81.109	156.6901
88.500000	81.064	156.6459
90.000000	81.013	156.5289
91.199997	80.973	156.4202
92.500000	80.936	156.3217
93.800003	80.904	156.1730
95.000000	80.870	156.0138
96.199997	80.838	155.8620
97.500000	80.806	155.6268
98.800003	80.764	155.3406
100.000000	80.717	155.0816
101.500000	80.649	154.8082
103.000000	80.583	154.5689
104.400002	80.516	154.2856
106.000000	80.424	153.9813
107.500000	80.334	153.7679
109.000000	80.251	153.6278
110.599998	80.170	153.5173
112.000000	80.104	153.4391
113.800003	80.011	153.3491
115.000000	79.942	153.3784
117.199997	79.836	153.6363
118.000000	79.807	153.7519
120.599998	79.729	154.0727
122.000000	79.688	154.2416
124.099998	79.644	154.4642
125.000000	79.631	154.5178
126.500000	79.612	154.5584
128.000000	79.596	154.5474
131.500000	79.551	154.4058
132.000000	79.544	154.3809
134.000000	79.514	154.2329
136.000000	79.480	154.0043
138.000000	79.443	153.7490
140.000000	79.401	153.4555
143.000000	79.309	153.1071
145.000000	79.240	152.9735
147.500000	79.153	152.8425
150.000000	79.068	152.6922
152.500000	78.976	152.5271
155.000000	78.887	152.4386
157.500000	78.805	152.3828
160.000000	78.727	152.3799
162.500000	78.650	152.4144
165.000000	78.572	152.4528
167.500000	78.493	152.4756
170.000000	78.414	152.4925
172.500000	78.337	152.5092
175.000000	78.264	152.5396
177.500000	78.193	152.5935
180.000000	78.121	152.6604
182.500000	78.044	152.7539
185.000000	77.969	152.8849
187.500000	77.900	153.0084
190.000000	77.832	153.0924
192.500000	77.765	153.1671
195.000000	77.703	153.2713
197.500000	77.643	153.3893
200.000000	77.584	153.5197
203.000000	77.514	153.6899
206.000000	77.446	153.8625
209.000000	77.383	154.0098
212.000000	77.322	154.1487
214.000000	77.281	154.2695
218.000000	77.198	154.5344
220.000000	77.154	154.6557
224.000000	77.068	154.8907
227.000000	77.010	155.0570
230.000000	76.950	155.2380
233.000000	76.890	155.4594
236.000000	76.834	155.6726
240.000000	76.768	155.8948
243.000000	76.714	156.0613
247.000000	76.640	156.3090
250.000000	76.584	156.4944
254.000000	76.517	156.7541
258.000000	76.455	157.0769
262.000000	76.386	157.4217
265.000000	76.335	157.6455
269.000000	76.273	157.9131
272.000000	76.228	158.1136
276.000000	76.168	158.4089
280.000000	76.112	158.7151
285.000000	76.050	159.0429
290.000000	75.991	159.3688
295.000000	75.926	159.7383
300.000000	75.855	160.1018
304.000000	75.806	160.4388
307.000000	75.779	160.6859
311.000000	75.747	160.9887
315.000000	75.706	161.2695
320.000000	75.650	161.6406
325.000000	75.601	162.0286
330.000000	75.556	162.4047
335.000000	75.511	162.7856
340.000000	75.461	163.1625
345.000000	75.410	163.5009
350.000000	75.365	163.8719
355.000000	75.324	164.2756
360.000000	75.280	164.6776
365.000000	75.235	165.0660
370.000000	75.191	165.4141
375.000000	75.149	165.7536
382.000000	75.097	166.2567
387.000000	75.058	166.6031
395.000000	74.989	167.2325
400.000000	74.947	167.6208
406.000000	74.903	168.0484
412.000000	74.861	168.4847
418.000000	74.821	168.9360
425.000000	74.780	169.4399
431.000000	74.744	169.8692
437.000000	74.706	170.3147
444.000000	74.666	170.8012
450.000000	74.637	171.2090
455.000000	74.614	171.5666
462.000000	74.584	172.0749
468.000000	74.556	172.4867
475.000000	74.522	172.9624
482.000000	74.492	173.4547
487.000000	74.473	173.8121
494.000000	74.447	174.2967
500.000000	74.428	174.7273
508.000000	74.399	175.3054
515.000000	74.371	175.7751
522.000000	74.347	176.2346
530.000000	74.325	176.7913
538.000000	74.301	177.3654
545.000000	74.278	177.8539
552.000000	74.257	178.3222
560.000000	74.241	178.8713
570.000000	74.220	179.5702
580.000000	74.194	-179.7710
590.000000	74.168	-179.0727
600.000000	74.146	-178.3782
608.000000	74.129	-177.8150
615.000000	74.118	-177.3119
622.000000	74.111	-176.8296
630.000000	74.103	-176.2758
640.000000	74.093	-175.5652
650.000000	74.086	-174.8716
660.000000	74.076	-174.1324
670.000000	74.071	-173.4191
680.000000	74.069	-172.7459
690.000000	74.067	-172.0709
700.000000	74.062	-171.3875
710.000000	74.063	-170.7165
720.000000	74.066	-170.0436
730.000000	74.073	-169.3521
740.000000	74.086	-168.6563
750.000000	74.094	-167.9734
762.000000	74.108	-167.1755
775.000000	74.124	-166.3379
788.000000	74.143	-165.4648
800.000000	74.168	-164.6463
812.000000	74.197	-163.8330
825.000000	74.230	-162.9518
838.000000	74.268	-162.1351
850.000000	74.312	-161.4108
862.000000	74.354	-160.6629
875.000000	74.403	-159.8474
885.000000	74.445	-159.2419
900.000000	74.511	-158.3782
912.000000	74.568	-157.7085
925.000000	74.632	-157.0157
938.000000	74.702	-156.3833
950.000000	74.769	-155.7992
962.000000	74.838	-155.1931
975.000000	74.912	-154.5640
988.000000	74.983	-153.9985
1000.000000	75.056	-153.4972
1015.000000	75.165	-152.8616
1030.000000	75.265	-152.2926
1044.000000	75.357	-151.8197
1060.000000	75.458	-151.3378
1075.000000	75.553	-150.9133
1090.000000	75.654	-150.5218
1106.000000	75.767	-150.1447
1120.000000	75.864	-149.8472
1138.000000	75.984	-149.4915
1150.000000	76.065	-149.2767
1172.000000	76.212	-148.9314
1180.000000	76.263	-148.8140
1206.000000	76.427	-148.4820
1220.000000	76.510	-148.3086
1241.000000	76.635	-148.0666
1250.000000	76.688	-147.9715
1265.000000	76.775	-147.8160
1280.000000	76.859	-147.6661
1315.000000	77.049	-147.3544
1320.000000	77.076	-147.3004
1340.000000	77.184	-147.0824
1360.000000	77.291	-146.9071
1380.000000	77.401	-146.7654
1400.000000	77.512	-146.6470
1430.000000	77.674	-146.5519
1450.000000	77.778	-146.5102
1475.000000	77.899	-146.4583
1500.000000	78.017	-146.4207
1525.000000	78.132	-146.4228
1550.000000	78.243	-146.4272
1575.000000	78.350	-146.4043
1600.000000	78.453	-146.3772
1625.000000	78.549	-146.3385
1650.000000	78.638	-146.2795
1675.000000	78.727	-146.1931
1700.000000	78.817	-146.0796
1725.000000	78.908	-145.9121
1750.000000	79.005	-145.6937
1775.000000	79.108	-145.4884
1800.000000	79.212	-145.3100
1825.000000	79.315	-145.1031
1850.000000	79.422	-144.8302
1875.000000	79.541	-144.4723
1900.000000	79.689	-144.0721
1925.000000	79.874	-143.7610
1950.000000	80.086	-143.6730
1975.000000	80.300	-143.8660
2000.000000	80.497	-144.3091
2030.000000	80.701	-145.0213
2060.000000	80.870	-145.7830
2090.000000	81.016	-146.5269
2120.000000	81.145	-147.2430
2140.000000	81.223	-147.7105
2180.000000	81.371	-148.6159
2200.000000	81.442	-149.0514
2240.000000	81.577	-149.9204
2270.000000	81.672	-150.5804
2300.000000	81.763	-151.2515
2330.000000	81.849	-151.9308
2360.000000	81.931	-152.6002
2400.000000	82.031	-153.4764
2430.000000	82.101	-154.1242
2470.000000	82.192	-154.9687
2500.000000	82.260	-155.5978
2540.000000	82.353	-156.4562
2580.000000	82.443	-157.3681
2620.000000	82.525	-158.3297
2650.000000	82.581	-159.0703
2690.000000	82.645	-160.0596
2720.000000	82.685	-160.7809
2760.000000	82.735	-161.7118
2800.000000	82.787	-162.6393
2850.000000	82.857	-163.8609
2900.000000	82.916	-165.2218
2950.000000	82.944	-166.6675
3000.000000	82.945	-168.0835
3040.000000	82.933	-169.1481
3070.000000	82.919	-169.9007
3110.000000	82.899	-170.8537
3150.000000	82.878	-171.7847
3200.000000	82.847	-172.9516
3250.000000	82.804	-174.1251
3300.000000	82.747	-175.2818
3350.000000	82.678	-176.3783
3400.000000	82.597	-177.4014
3450.000000	82.511	-178.3479
3500.000000	82.423	-179.2028
3550.000000	82.333	-179.9509
3600.000000	82.241	179.3999
3650.000000	82.154	178.8350
3700.000000	82.072	178.3441
3750.000000	81.994	177.9084
3820.000000	81.893	177.3640
3870.000000	81.825	176.9941
3950.000000	81.716	176.4215
4000.000000	81.649	176.0492
4060.000000	81.569	175.6006
4120.000000	81.489	175.1601
4180.000000	81.407	174.7166
4250.000000	81.306	174.2205
4310.000000	81.208	173.8289
4370.000000	81.098	173.4735
4440.000000	80.960	173.1315
4500.000000	80.843	172.9184
4550.000000	80.751	172.7822
4620.000000	80.635	172.5895
4680.000000	80.542	172.3887
4750.000000	80.427	172.1334
4820.000000	80.303	171.8995
4870.000000	80.210	171.7570
4940.000000	80.076	171.5952
5000.000000	79.961	171.4940
5080.000000	79.809	171.4040
5150.000000	79.677	171.3776
5220.000000	79.547	171.4218
5300.000000	79.402	171.5118
5380.000000	79.263	171.6568
5450.000000	79.146	171.8327
5520.000000	79.031	172.0519
5600.000000	78.906	172.3420
5700.000000	78.752	172.7740
5800.000000	78.609	173.3207
5900.000000	78.482	173.9833
6000.000000	78.376	174.7333
6080.000000	78.306	175.4078
6150.000000	78.264	176.0495
6220.000000	78.238	176.7209
6300.000000	78.225	177.5054
6400.000000	78.237	178.5237
6500.000000	78.289	179.5691
6600.000000	78.391	-179.4425
6700.000000	78.540	-178.5611
6800.000000	78.740	-177.8331
6900.000000	79.007	-177.3105
7000.000000	79.340	-177.0388
7100.000000	79.724	-177.0981
7200.000000	80.150	-177.5790
7300.000000	80.615	-178.5607
7400.000000	81.109	179.8435
7500.000000	81.614	177.5238
7620.000000	82.220	173.6732
7750.000000	82.817	168.0578
7880.000000	83.223	160.8790
8000.000000	83.379	152.8625
8120.000000	83.254	143.6623
8250.000000	82.687	133.2002
8380.000000	81.618	123.9402
8500.000000	80.281	117.9281
8620.000000	78.798	114.7554
8750.000000	77.228	113.9284
8850.000000	76.122	114.5345
9000.000000	74.671	116.6298
9120.000000	73.672	118.9020
9250.000000	72.720	121.7036
9380.000000	71.883	124.7502
9500.000000	71.195	127.7031
9620.000000	70.581	130.7524
9750.000000	69.993	134.0974
9880.000000	69.473	137.4479
10000.000000	69.039	140.5653
10150.000000	68.557	144.4662
10300.000000	68.147	148.3047
10440.000000	67.817	151.8590
10600.000000	67.489	155.9277
10750.000000	67.229	159.7036
10900.000000	67.023	163.4958
11060.000000	66.864	167.5134
11200.000000	66.767	170.9182
11380.000000	66.703	175.1046
11500.000000	66.704	177.7944
11720.000000	66.790	-177.4602
11800.000000	66.847	-175.8431
12060.000000	67.111	-171.1365
12200.000000	67.291	-169.0135
12410.000000	67.576	-166.4598
12500.000000	67.698	-165.5999
12650.000000	67.901	-164.4548
12800.000000	68.102	-163.6634
13150.000000	68.513	-162.9646
13200.000000	68.563	-162.9610
13400.000000	68.739	-163.1006
13600.000000	68.897	-163.4215
13800.000000	69.066	-163.9256
14000.000000	69.254	-164.6859
14300.000000	69.562	-166.3546
14500.000000	69.795	-167.9681
14750.000000	70.085	-170.9218
15000.000000	70.328	-175.1538
15250.000000	70.469	179.2936
15500.000000	70.467	172.5121
15750.000000	70.262	164.8778
16000.000000	69.779	156.9590
16250.000000	69.014	149.2147
16500.000000	67.980	141.4997
16750.000000	66.559	133.4973
17000.000000	64.315	130.1874
17250.000000	61.627	141.3231
17500.000000	60.834	152.3435
17750.000000	60.624	154.5026
18000.000000	59.971	155.8131
18250.000000	59.158	158.6459
18500.000000	58.376	162.6797
18750.000000	57.680	167.4354
19000.000000	57.088	172.5507
19250.000000	56.558	177.8742
19500.000000	56.065	-176.6704
19750.000000	55.667	-171.3996
20000.000000	55.403	-167.7943
