* Measurement data measured by REW V5.20.13
* Source: Input device not selected, no input selected, L, volume: no control
* Format: 256k Log Swept Sine, 1 sweep at -12.0 dBFS with no timing reference
* Dated: 2022. 10. 1 ¿ÀÈÄ 8:40:59
* REW Settings:
*  C-weighting compensation: Off
*  Target level: 75.0 dB
* Note: 
* Measurement: R_Sedna
* Smoothing: 1/24 octave
* Frequency Step: 1/48 octave
* Start Frequency: 20.300 Hz
*
* Freq(Hz)	SPL(dB)	Phase(degrees)
20.299999	84.231	-169.0709
20.600000	84.243	-169.2852
20.900000	84.264	-169.6765
21.200001	84.274	-170.0714
21.400000	84.275	-170.3335
21.799999	84.264	-170.8580
22.000000	84.255	-171.1176
22.400000	84.232	-171.6166
22.700001	84.216	-171.9754
23.000000	84.203	-172.3336
23.299999	84.193	-172.7031
23.600000	84.186	-173.0895
24.000000	84.179	-173.6299
24.299999	84.174	-174.0443
24.700001	84.168	-174.5920
25.000000	84.164	-174.9893
25.400000	84.161	-175.4948
25.799999	84.160	-175.9734
26.200001	84.161	-176.4285
26.500000	84.163	-176.7565
26.900000	84.165	-177.1793
27.200001	84.166	-177.4890
27.600000	84.166	-177.8976
28.000000	84.162	-178.3050
28.500000	84.149	-178.8046
29.000000	84.126	-179.2672
29.500000	84.099	-179.6742
30.000000	84.074	179.9554
30.400000	84.058	179.6530
30.700001	84.048	179.4086
31.100000	84.034	179.0574
31.500000	84.017	178.6909
32.000000	83.994	178.2411
32.500000	83.974	177.8121
33.000000	83.960	177.3829
33.500000	83.949	176.9327
34.000000	83.937	176.4700
34.500000	83.923	176.0219
35.000000	83.908	175.6011
35.500000	83.893	175.2030
36.000000	83.875	174.8254
36.500000	83.854	174.4766
37.000000	83.834	174.1582
37.500000	83.814	173.8532
38.200001	83.785	173.4120
38.700001	83.761	173.0871
39.500000	83.718	172.5831
40.000000	83.693	172.2749
40.599998	83.665	171.8951
41.200001	83.639	171.5009
41.799999	83.615	171.0993
42.500000	83.590	170.6222
43.099998	83.567	170.2083
43.700001	83.541	169.8196
44.400002	83.511	169.4432
45.000000	83.494	169.1654
45.500000	83.486	168.9050
46.200001	83.469	168.4547
46.799999	83.438	168.0522
47.500000	83.387	167.6653
48.200001	83.333	167.3660
48.700001	83.294	167.1993
49.400002	83.250	167.0421
50.000000	83.232	166.9029
50.799999	83.221	166.5259
51.500000	83.194	166.0764
52.200001	83.154	165.6946
53.000000	83.117	165.3127
53.799999	83.078	164.8993
54.500000	83.036	164.5919
55.200001	82.997	164.3570
56.000000	82.961	164.1075
57.000000	82.921	163.7724
58.000000	82.879	163.3580
59.000000	82.823	162.9365
60.000000	82.765	162.5517
60.799999	82.718	162.2546
61.500000	82.679	162.0305
62.200001	82.648	161.8108
63.000000	82.617	161.5114
64.000000	82.569	161.1137
65.000000	82.514	160.7749
66.000000	82.460	160.5009
67.000000	82.412	160.2648
68.000000	82.368	159.9927
69.000000	82.318	159.6979
70.000000	82.267	159.4249
71.000000	82.219	159.1482
72.000000	82.171	158.8719
73.000000	82.122	158.5963
74.000000	82.069	158.3384
75.000000	82.012	158.1235
76.199997	81.944	157.9039
77.500000	81.872	157.6906
78.800003	81.800	157.4419
80.000000	81.736	157.2336
81.199997	81.679	156.9987
82.500000	81.619	156.7349
83.800003	81.563	156.4868
85.000000	81.511	156.2696
86.199997	81.458	156.0795
87.500000	81.401	155.8861
88.500000	81.356	155.7205
90.000000	81.280	155.4542
91.199997	81.215	155.2549
92.500000	81.145	155.0561
93.800003	81.077	154.8582
95.000000	81.016	154.7106
96.199997	80.966	154.5817
97.500000	80.919	154.4095
98.800003	80.869	154.2184
100.000000	80.819	154.0546
101.500000	80.750	153.8757
103.000000	80.676	153.7286
104.400002	80.604	153.6135
106.000000	80.524	153.4846
107.500000	80.448	153.3438
109.000000	80.373	153.1968
110.599998	80.297	153.0424
112.000000	80.233	152.8914
113.800003	80.141	152.7756
115.000000	80.083	152.7985
117.199997	79.989	152.8417
118.000000	79.951	152.8259
120.599998	79.813	152.8075
122.000000	79.736	152.7390
124.099998	79.603	152.7654
125.000000	79.547	152.8629
126.500000	79.461	153.0899
128.000000	79.374	153.3746
131.500000	79.225	154.4779
132.000000	79.219	154.6549
134.000000	79.233	155.2680
136.000000	79.284	155.5594
138.000000	79.329	155.4491
140.000000	79.338	155.0483
143.000000	79.292	154.4109
145.000000	79.246	154.1109
147.500000	79.173	153.8190
150.000000	79.079	153.6255
152.500000	78.987	153.5083
155.000000	78.900	153.4251
157.500000	78.808	153.3539
160.000000	78.711	153.3435
162.500000	78.621	153.4036
165.000000	78.544	153.4784
167.500000	78.478	153.5096
170.000000	78.415	153.5413
172.500000	78.351	153.6237
175.000000	78.286	153.7584
177.500000	78.227	153.8285
180.000000	78.165	153.8307
182.500000	78.099	153.8743
185.000000	78.028	153.9633
187.500000	77.956	154.0385
190.000000	77.888	154.1141
192.500000	77.829	154.2053
195.000000	77.768	154.2932
197.500000	77.700	154.3989
200.000000	77.634	154.5170
203.000000	77.556	154.6757
206.000000	77.481	154.8829
209.000000	77.408	155.1056
212.000000	77.334	155.2877
214.000000	77.283	155.3638
218.000000	77.185	155.5180
220.000000	77.143	155.6589
224.000000	77.059	156.0117
227.000000	76.997	156.2816
230.000000	76.947	156.5581
233.000000	76.908	156.8258
236.000000	76.874	157.0216
240.000000	76.824	157.1331
243.000000	76.777	157.2254
247.000000	76.703	157.4468
250.000000	76.646	157.6284
254.000000	76.569	157.8454
258.000000	76.492	158.0984
262.000000	76.421	158.3652
265.000000	76.375	158.5466
269.000000	76.321	158.7889
272.000000	76.278	158.9952
276.000000	76.217	159.2914
280.000000	76.158	159.5891
285.000000	76.083	159.9564
290.000000	76.004	160.3494
295.000000	75.933	160.7112
300.000000	75.883	161.0467
304.000000	75.840	161.3433
307.000000	75.797	161.5829
311.000000	75.736	161.9079
315.000000	75.684	162.2143
320.000000	75.626	162.5822
325.000000	75.571	162.9190
330.000000	75.518	163.2862
335.000000	75.460	163.7115
340.000000	75.400	164.0937
345.000000	75.344	164.4628
350.000000	75.298	164.8329
355.000000	75.251	165.1631
360.000000	75.207	165.4909
365.000000	75.166	165.8728
370.000000	75.120	166.2717
375.000000	75.073	166.6479
382.000000	75.018	167.1846
387.000000	74.982	167.5380
395.000000	74.918	168.1047
400.000000	74.879	168.5172
406.000000	74.839	169.0041
412.000000	74.802	169.4533
418.000000	74.761	169.8723
425.000000	74.716	170.3621
431.000000	74.678	170.7736
437.000000	74.634	171.2155
444.000000	74.591	171.7841
450.000000	74.562	172.2509
455.000000	74.538	172.6086
462.000000	74.500	173.0856
468.000000	74.466	173.4826
475.000000	74.430	173.9484
482.000000	74.397	174.4445
487.000000	74.376	174.8277
494.000000	74.349	175.3417
500.000000	74.325	175.7715
508.000000	74.295	176.3490
515.000000	74.271	176.8385
522.000000	74.249	177.3252
530.000000	74.218	177.8611
538.000000	74.182	178.4008
545.000000	74.156	178.9092
552.000000	74.134	179.4091
560.000000	74.113	179.9917
570.000000	74.086	-179.3076
580.000000	74.056	-178.6205
590.000000	74.033	-177.8822
600.000000	74.014	-177.1498
608.000000	74.002	-176.6008
615.000000	73.988	-176.1177
622.000000	73.973	-175.6281
630.000000	73.962	-175.0646
640.000000	73.956	-174.3668
650.000000	73.946	-173.6408
660.000000	73.938	-172.8773
670.000000	73.939	-172.1395
680.000000	73.939	-171.4494
690.000000	73.936	-170.7505
700.000000	73.936	-170.0465
710.000000	73.942	-169.3842
720.000000	73.950	-168.7343
730.000000	73.962	-168.0330
740.000000	73.971	-167.3106
750.000000	73.977	-166.6027
762.000000	73.993	-165.7564
775.000000	74.024	-164.8355
788.000000	74.059	-163.9225
800.000000	74.093	-163.0778
812.000000	74.131	-162.2509
825.000000	74.172	-161.3642
838.000000	74.217	-160.5235
850.000000	74.264	-159.7691
862.000000	74.312	-158.9910
875.000000	74.373	-158.1472
885.000000	74.425	-157.5344
900.000000	74.506	-156.6385
912.000000	74.572	-155.9133
925.000000	74.647	-155.1365
938.000000	74.728	-154.3932
950.000000	74.809	-153.7585
962.000000	74.890	-153.1610
975.000000	74.979	-152.5419
988.000000	75.066	-151.9777
1000.000000	75.145	-151.4670
1015.000000	75.261	-150.7818
1030.000000	75.385	-150.1814
1044.000000	75.497	-149.7003
1060.000000	75.619	-149.1788
1075.000000	75.728	-148.7299
1090.000000	75.838	-148.3345
1106.000000	75.958	-147.9220
1120.000000	76.061	-147.5899
1138.000000	76.188	-147.2281
1150.000000	76.274	-147.0119
1172.000000	76.429	-146.6584
1180.000000	76.483	-146.5399
1206.000000	76.652	-146.1894
1220.000000	76.742	-146.0184
1241.000000	76.873	-145.7919
1250.000000	76.928	-145.6994
1265.000000	77.017	-145.5521
1280.000000	77.105	-145.4182
1315.000000	77.302	-145.1421
1320.000000	77.331	-145.1027
1340.000000	77.446	-144.9655
1360.000000	77.555	-144.8435
1380.000000	77.660	-144.7234
1400.000000	77.768	-144.6113
1430.000000	77.925	-144.4941
1450.000000	78.027	-144.4318
1475.000000	78.154	-144.3572
1500.000000	78.278	-144.2996
1525.000000	78.399	-144.2885
1550.000000	78.516	-144.2867
1575.000000	78.631	-144.2893
1600.000000	78.746	-144.3085
1625.000000	78.856	-144.3397
1650.000000	78.965	-144.3633
1675.000000	79.072	-144.3775
1700.000000	79.177	-144.4062
1725.000000	79.285	-144.4479
1750.000000	79.394	-144.4897
1775.000000	79.499	-144.5575
1800.000000	79.603	-144.6367
1825.000000	79.708	-144.7190
1850.000000	79.815	-144.8220
1875.000000	79.921	-144.9366
1900.000000	80.028	-145.0676
1925.000000	80.135	-145.2275
1950.000000	80.241	-145.4031
1975.000000	80.347	-145.5826
2000.000000	80.451	-145.7796
2030.000000	80.576	-146.0517
2060.000000	80.701	-146.3540
2090.000000	80.823	-146.6886
2120.000000	80.944	-147.0495
2140.000000	81.023	-147.3117
2180.000000	81.176	-147.8864
2200.000000	81.251	-148.1895
2240.000000	81.402	-148.8273
2270.000000	81.509	-149.3355
2300.000000	81.612	-149.8701
2330.000000	81.712	-150.4343
2360.000000	81.809	-151.0252
2400.000000	81.931	-151.8530
2430.000000	82.018	-152.5052
2470.000000	82.125	-153.3988
2500.000000	82.199	-154.0828
2540.000000	82.290	-155.0178
2580.000000	82.372	-155.9847
2620.000000	82.446	-156.9762
2650.000000	82.495	-157.7291
2690.000000	82.551	-158.7362
2720.000000	82.587	-159.4885
2760.000000	82.626	-160.4901
2800.000000	82.656	-161.4928
2850.000000	82.683	-162.7344
2900.000000	82.695	-163.9510
2950.000000	82.693	-165.1353
3000.000000	82.676	-166.2779
3040.000000	82.654	-167.1579
3070.000000	82.632	-167.7814
3110.000000	82.598	-168.5447
3150.000000	82.559	-169.2341
3200.000000	82.510	-169.9796
3250.000000	82.474	-170.6226
3300.000000	82.458	-171.2624
3350.000000	82.453	-171.9951
3400.000000	82.442	-172.8271
3450.000000	82.417	-173.6978
3500.000000	82.380	-174.5439
3550.000000	82.336	-175.3460
3600.000000	82.288	-176.1242
3650.000000	82.238	-176.8888
3700.000000	82.184	-177.6358
3750.000000	82.126	-178.3629
3820.000000	82.040	-179.3408
3870.000000	81.975	179.9816
3950.000000	81.864	178.9268
4000.000000	81.789	178.2881
4060.000000	81.695	177.5551
4120.000000	81.598	176.8489
4180.000000	81.499	176.1711
4250.000000	81.378	175.4187
4310.000000	81.270	174.8071
4370.000000	81.158	174.2267
4440.000000	81.022	173.6040
4500.000000	80.905	173.1248
4550.000000	80.812	172.7563
4620.000000	80.688	172.2179
4680.000000	80.580	171.6796
4750.000000	80.437	170.9825
4820.000000	80.264	170.2866
4870.000000	80.121	169.8314
4940.000000	79.895	169.3309
5000.000000	79.683	169.1039
5080.000000	79.391	169.1794
5150.000000	79.151	169.5945
5220.000000	78.945	170.2330
5300.000000	78.755	171.0736
5380.000000	78.602	171.9055
5450.000000	78.486	172.5932
5520.000000	78.383	173.2582
5600.000000	78.275	173.9985
5700.000000	78.150	174.9258
5800.000000	78.041	175.9079
5900.000000	77.948	176.9500
6000.000000	77.876	178.0259
6080.000000	77.835	178.9200
6150.000000	77.811	179.7192
6220.000000	77.800	-179.4698
6300.000000	77.805	-178.5345
6400.000000	77.838	-177.4018
6500.000000	77.900	-176.2941
6600.000000	77.987	-175.2409
6700.000000	78.105	-174.2762
6800.000000	78.255	-173.4049
6900.000000	78.439	-172.6380
7000.000000	78.661	-172.0303
7100.000000	78.920	-171.6278
7200.000000	79.215	-171.5001
7300.000000	79.544	-171.7202
7400.000000	79.901	-172.3264
7500.000000	80.289	-173.3893
7620.000000	80.792	-175.4684
7750.000000	81.337	-179.0997
7880.000000	81.780	175.5261
8000.000000	81.982	169.1775
8120.000000	81.903	162.1393
8250.000000	81.482	154.7583
8380.000000	80.769	148.5500
8500.000000	79.941	144.2713
8620.000000	79.039	141.4059
8750.000000	78.052	139.7090
8850.000000	77.317	139.2201
9000.000000	76.283	139.5391
9120.000000	75.529	140.4936
9250.000000	74.787	142.0322
9380.000000	74.123	143.9518
9500.000000	73.580	145.9462
9620.000000	73.097	148.0815
9750.000000	72.636	150.4935
9880.000000	72.230	152.9409
10000.000000	71.892	155.2256
10150.000000	71.514	158.1379
10300.000000	71.182	161.1295
10440.000000	70.909	164.0236
10600.000000	70.653	167.4525
10750.000000	70.477	170.7691
10900.000000	70.368	174.1145
11060.000000	70.332	177.6147
11200.000000	70.367	-179.4193
11380.000000	70.492	-175.8116
11500.000000	70.625	-173.5767
11720.000000	70.981	-169.8657
11800.000000	71.147	-168.6889
12060.000000	71.816	-165.8676
12200.000000	72.241	-165.1619
12410.000000	72.917	-165.4645
12500.000000	73.201	-166.1526
12650.000000	73.628	-168.0813
12800.000000	73.954	-170.9062
13150.000000	74.135	-179.2086
13200.000000	74.093	179.6378
13400.000000	73.796	175.5674
13600.000000	73.372	172.5540
13800.000000	72.919	170.5430
14000.000000	72.485	169.1953
14300.000000	71.907	167.7322
14500.000000	71.566	166.8537
14750.000000	71.149	165.6368
15000.000000	70.703	164.2440
15250.000000	70.202	162.7925
15500.000000	69.635	161.4485
15750.000000	69.011	160.3937
16000.000000	68.353	159.7279
16250.000000	67.708	159.3081
16500.000000	67.102	158.2742
16750.000000	66.370	155.1466
17000.000000	64.878	154.3394
17250.000000	63.094	168.7953
17500.000000	63.492	-178.1914
17750.000000	64.097	-177.7928
18000.000000	64.069	-179.5595
18250.000000	63.768	179.9874
18500.000000	63.421	-179.3792
18750.000000	63.122	-178.1769
19000.000000	62.903	-176.9540
19250.000000	62.757	-176.1472
19500.000000	62.660	-176.0224
19750.000000	62.575	-176.6888
20000.000000	62.497	-177.5966
