* Measurement data measured by REW V5.20.13
* Source: Input device not selected, no input selected, L, volume: no control
* Format: 256k Log Swept Sine, 1 sweep at -12.0 dBFS with no timing reference
* Dated: 2022. 10. 2 ¿ÀÈÄ 8:00:30
* REW Settings:
*  C-weighting compensation: Off
*  Target level: 75.0 dB
* Note: 
* Measurement: L_Steel_Final E
* Smoothing: 1/24 octave
* Frequency Step: 1/48 octave
* Start Frequency: 20.300 Hz
*
* Freq(Hz)	SPL(dB)	Phase(degrees)
20.299999	83.926	-169.9875
20.600000	83.933	-170.2475
20.900000	83.944	-170.7040
21.200001	83.946	-171.1177
21.400000	83.944	-171.3749
21.799999	83.936	-171.8908
22.000000	83.931	-172.1666
22.400000	83.918	-172.7626
22.700001	83.903	-173.2380
23.000000	83.883	-173.7167
23.299999	83.861	-174.1743
23.600000	83.840	-174.5999
24.000000	83.819	-175.1227
24.299999	83.812	-175.5036
24.700001	83.814	-176.0308
25.000000	83.819	-176.4533
25.400000	83.826	-177.0447
25.799999	83.829	-177.6378
26.200001	83.828	-178.2041
26.500000	83.824	-178.6054
26.900000	83.818	-179.1135
27.200001	83.810	-179.4785
27.600000	83.795	-179.9446
28.000000	83.774	179.6193
28.500000	83.740	179.1287
29.000000	83.700	178.7017
29.500000	83.661	178.3257
30.000000	83.626	177.9703
30.400000	83.604	177.6728
30.700001	83.591	177.4285
31.100000	83.575	177.0643
31.500000	83.559	176.6574
32.000000	83.539	176.1061
32.500000	83.517	175.5334
33.000000	83.493	174.9603
33.500000	83.469	174.4022
34.000000	83.442	173.8834
34.500000	83.413	173.4362
35.000000	83.386	173.0861
35.500000	83.369	172.8251
36.000000	83.366	172.5837
36.500000	83.371	172.2557
37.000000	83.361	171.7978
37.500000	83.312	171.3356
38.200001	83.198	171.1371
38.700001	83.148	171.4015
39.500000	83.208	171.6122
40.000000	83.272	171.0822
40.599998	83.271	169.9332
41.200001	83.173	168.9315
41.799999	83.055	168.4285
42.500000	82.984	168.0876
43.099998	82.958	167.5823
43.700001	82.917	166.9391
44.400002	82.850	166.3084
45.000000	82.801	165.9240
45.500000	82.774	165.6338
46.200001	82.745	165.1975
46.799999	82.717	164.8116
47.500000	82.676	164.4123
48.200001	82.630	164.0941
48.700001	82.597	163.9156
49.400002	82.551	163.7457
50.000000	82.523	163.6567
50.799999	82.506	163.4602
51.500000	82.488	163.0921
52.200001	82.440	162.6296
53.000000	82.349	162.2226
53.799999	82.251	162.0764
54.500000	82.190	162.0642
55.200001	82.154	161.9324
56.000000	82.104	161.5519
57.000000	82.012	161.0742
58.000000	81.933	160.5415
59.000000	81.814	159.8433
60.000000	81.665	159.7056
60.799999	81.618	159.9172
61.500000	81.629	159.9431
62.200001	81.650	159.7516
63.000000	81.665	159.3479
64.000000	81.632	158.6085
65.000000	81.502	158.1852
66.000000	81.385	158.4274
67.000000	81.333	158.6288
68.000000	81.284	158.6254
69.000000	81.239	158.4943
70.000000	81.176	158.2731
71.000000	81.105	158.2333
72.000000	81.057	158.2968
73.000000	81.024	158.3831
74.000000	81.002	158.3774
75.000000	80.956	158.2234
76.199997	80.863	158.0860
77.500000	80.765	158.0164
78.800003	80.695	157.9130
80.000000	80.683	157.7730
81.199997	80.718	157.3374
82.500000	80.712	156.5347
83.800003	80.604	156.1158
85.000000	80.487	156.3810
86.199997	80.397	156.8531
87.500000	80.321	157.2191
88.500000	80.259	157.3601
90.000000	80.195	157.5596
91.199997	80.181	157.5565
92.500000	80.176	157.5440
93.800003	80.193	157.6428
95.000000	80.229	157.7056
96.199997	80.268	157.6049
97.500000	80.288	157.2195
98.800003	80.260	156.6974
100.000000	80.213	156.2943
101.500000	80.155	155.8636
103.000000	80.099	155.4478
104.400002	80.039	155.0542
106.000000	79.956	154.6707
107.500000	79.884	154.4127
109.000000	79.830	154.2304
110.599998	79.796	153.9805
112.000000	79.733	153.6323
113.800003	79.591	153.4385
115.000000	79.495	153.3966
117.199997	79.338	152.9417
118.000000	79.274	152.6519
120.599998	79.074	152.4359
122.000000	79.066	152.6367
124.099998	79.075	152.6908
125.000000	79.063	152.6857
126.500000	79.015	152.6540
128.000000	78.938	152.6547
131.500000	78.766	152.8071
132.000000	78.746	152.8278
134.000000	78.673	152.9116
136.000000	78.606	152.9285
138.000000	78.532	152.8309
140.000000	78.461	152.7547
143.000000	78.371	152.7912
145.000000	78.310	152.8538
147.500000	78.213	152.8814
150.000000	78.110	152.9285
152.500000	78.032	152.9438
155.000000	77.956	152.9394
157.500000	77.879	153.0027
160.000000	77.800	153.1535
162.500000	77.725	153.3216
165.000000	77.646	153.4121
167.500000	77.566	153.4812
170.000000	77.493	153.5705
172.500000	77.419	153.6771
175.000000	77.343	153.8418
177.500000	77.275	154.0175
180.000000	77.209	154.1469
182.500000	77.138	154.2736
185.000000	77.073	154.3940
187.500000	77.011	154.4705
190.000000	76.946	154.5991
192.500000	76.879	154.7959
195.000000	76.808	155.0127
197.500000	76.742	155.2258
200.000000	76.693	155.3804
203.000000	76.638	155.5204
206.000000	76.566	155.7083
209.000000	76.489	155.9150
212.000000	76.424	156.0762
214.000000	76.385	156.2057
218.000000	76.301	156.5723
220.000000	76.255	156.7591
224.000000	76.170	157.0804
227.000000	76.109	157.3161
230.000000	76.060	157.5412
233.000000	76.024	157.7549
236.000000	75.981	158.0009
240.000000	75.906	158.3228
243.000000	75.848	158.5318
247.000000	75.785	158.8350
250.000000	75.738	159.0267
254.000000	75.659	159.3516
258.000000	75.586	159.6720
262.000000	75.523	159.9464
265.000000	75.475	160.1883
269.000000	75.408	160.5150
272.000000	75.361	160.7605
276.000000	75.304	161.0999
280.000000	75.253	161.4580
285.000000	75.205	161.8890
290.000000	75.157	162.3155
295.000000	75.093	162.7812
300.000000	75.015	163.1645
304.000000	74.965	163.4443
307.000000	74.930	163.6598
311.000000	74.882	163.9741
315.000000	74.835	164.3195
320.000000	74.784	164.7784
325.000000	74.738	165.2173
330.000000	74.694	165.6205
335.000000	74.652	166.0205
340.000000	74.603	166.4235
345.000000	74.556	166.7726
350.000000	74.520	167.1500
355.000000	74.482	167.5491
360.000000	74.449	167.9545
365.000000	74.418	168.4204
370.000000	74.375	168.8472
375.000000	74.329	169.2011
382.000000	74.274	169.7736
387.000000	74.240	170.2145
395.000000	74.184	170.8162
400.000000	74.159	171.2151
406.000000	74.127	171.7010
412.000000	74.086	172.1528
418.000000	74.058	172.5690
425.000000	74.017	173.0572
431.000000	73.974	173.5047
437.000000	73.941	173.9630
444.000000	73.909	174.5357
450.000000	73.884	175.0142
455.000000	73.863	175.3786
462.000000	73.835	175.9037
468.000000	73.806	176.3428
475.000000	73.778	176.8299
482.000000	73.762	177.3626
487.000000	73.746	177.7891
494.000000	73.718	178.3297
500.000000	73.700	178.7374
508.000000	73.682	179.2365
515.000000	73.662	179.6741
522.000000	73.639	-179.7987
530.000000	73.611	-179.1607
538.000000	73.582	-178.5517
545.000000	73.563	-178.0469
552.000000	73.546	-177.5917
560.000000	73.526	-177.0835
570.000000	73.510	-176.3301
580.000000	73.494	-175.6052
590.000000	73.468	-174.9677
600.000000	73.460	-174.2572
608.000000	73.448	-173.6446
615.000000	73.435	-173.1244
622.000000	73.426	-172.6208
630.000000	73.418	-172.0644
640.000000	73.411	-171.3549
650.000000	73.401	-170.6035
660.000000	73.398	-169.8483
670.000000	73.404	-169.1290
680.000000	73.406	-168.4254
690.000000	73.410	-167.7042
700.000000	73.418	-167.0065
710.000000	73.427	-166.3666
720.000000	73.442	-165.6703
730.000000	73.456	-164.9470
740.000000	73.475	-164.2497
750.000000	73.500	-163.5239
762.000000	73.528	-162.6533
775.000000	73.559	-161.7049
788.000000	73.595	-160.8167
800.000000	73.630	-160.0616
812.000000	73.669	-159.2754
825.000000	73.718	-158.4187
838.000000	73.790	-157.5732
850.000000	73.847	-156.7621
862.000000	73.901	-155.9912
875.000000	73.963	-155.1783
885.000000	74.012	-154.5677
900.000000	74.093	-153.6310
912.000000	74.165	-152.8662
925.000000	74.244	-152.1566
938.000000	74.328	-151.5206
950.000000	74.407	-150.9344
962.000000	74.489	-150.3574
975.000000	74.576	-149.7597
988.000000	74.667	-149.1850
1000.000000	74.759	-148.6743
1015.000000	74.873	-148.0667
1030.000000	74.981	-147.5239
1044.000000	75.081	-147.0388
1060.000000	75.199	-146.5220
1075.000000	75.307	-146.0873
1090.000000	75.415	-145.7309
1106.000000	75.530	-145.3824
1120.000000	75.630	-145.0813
1138.000000	75.755	-144.7243
1150.000000	75.836	-144.5210
1172.000000	75.974	-144.2208
1180.000000	76.021	-144.1089
1206.000000	76.180	-143.7075
1220.000000	76.263	-143.5149
1241.000000	76.385	-143.2474
1250.000000	76.434	-143.1449
1265.000000	76.507	-142.9827
1280.000000	76.575	-142.8125
1315.000000	76.729	-142.2917
1320.000000	76.752	-142.2018
1340.000000	76.849	-141.8083
1360.000000	76.961	-141.3748
1380.000000	77.089	-140.9410
1400.000000	77.234	-140.5742
1430.000000	77.467	-140.3204
1450.000000	77.612	-140.3601
1475.000000	77.768	-140.5176
1500.000000	77.901	-140.7065
1525.000000	78.019	-140.8645
1550.000000	78.129	-140.9848
1575.000000	78.227	-141.0926
1600.000000	78.323	-141.1460
1625.000000	78.422	-141.1897
1650.000000	78.519	-141.2576
1675.000000	78.613	-141.3331
1700.000000	78.703	-141.4190
1725.000000	78.788	-141.5028
1750.000000	78.868	-141.5541
1775.000000	78.944	-141.6062
1800.000000	79.018	-141.6847
1825.000000	79.087	-141.7525
1850.000000	79.153	-141.7845
1875.000000	79.217	-141.7778
1900.000000	79.276	-141.7106
1925.000000	79.334	-141.5746
1950.000000	79.395	-141.3674
1975.000000	79.466	-141.1150
2000.000000	79.549	-140.8261
2030.000000	79.660	-140.4296
2060.000000	79.788	-139.9663
2090.000000	79.946	-139.4749
2120.000000	80.151	-139.0426
2140.000000	80.315	-138.8649
2180.000000	80.676	-139.0487
2200.000000	80.849	-139.4413
2240.000000	81.140	-140.6535
2270.000000	81.303	-141.7337
2300.000000	81.426	-142.7927
2330.000000	81.520	-143.7563
2360.000000	81.597	-144.6185
2400.000000	81.695	-145.6517
2430.000000	81.768	-146.3877
2470.000000	81.857	-147.3846
2500.000000	81.916	-148.1639
2540.000000	81.982	-149.2261
2580.000000	82.027	-150.2588
2620.000000	82.049	-151.2007
2650.000000	82.058	-151.8300
2690.000000	82.064	-152.5578
2720.000000	82.068	-153.0216
2760.000000	82.082	-153.5465
2800.000000	82.111	-154.0069
2850.000000	82.169	-154.5995
2900.000000	82.239	-155.3167
2950.000000	82.301	-156.1633
3000.000000	82.347	-157.0932
3040.000000	82.374	-157.8389
3070.000000	82.390	-158.3852
3110.000000	82.405	-159.1006
3150.000000	82.412	-159.8111
3200.000000	82.412	-160.6889
3250.000000	82.404	-161.5201
3300.000000	82.390	-162.2775
3350.000000	82.370	-162.9768
3400.000000	82.351	-163.6280
3450.000000	82.336	-164.2219
3500.000000	82.324	-164.7983
3550.000000	82.317	-165.3767
3600.000000	82.317	-165.9553
3650.000000	82.320	-166.5521
3700.000000	82.326	-167.1906
3750.000000	82.331	-167.8790
3820.000000	82.332	-168.9217
3870.000000	82.326	-169.7033
3950.000000	82.302	-171.0165
4000.000000	82.274	-171.8736
4060.000000	82.229	-172.9278
4120.000000	82.170	-173.9757
4180.000000	82.098	-174.9984
4250.000000	81.995	-176.1647
4310.000000	81.895	-177.1279
4370.000000	81.785	-178.0293
4440.000000	81.645	-178.9894
4500.000000	81.514	-179.7314
4550.000000	81.403	179.7148
4620.000000	81.248	179.0057
4680.000000	81.115	178.3995
4750.000000	80.952	177.6939
4820.000000	80.774	177.0304
4870.000000	80.636	176.5987
4940.000000	80.433	176.1053
5000.000000	80.252	175.8098
5080.000000	80.012	175.5684
5150.000000	79.801	175.4667
5220.000000	79.589	175.4615
5300.000000	79.344	175.6026
5380.000000	79.101	175.9167
5450.000000	78.896	176.3318
5520.000000	78.699	176.8915
5600.000000	78.487	177.6848
5700.000000	78.248	178.8200
5800.000000	78.037	-179.8860
5900.000000	77.859	-178.4218
6000.000000	77.715	-176.8337
6080.000000	77.626	-175.4961
6150.000000	77.565	-174.2720
6220.000000	77.524	-172.9990
6300.000000	77.505	-171.5225
6400.000000	77.525	-169.6948
6500.000000	77.593	-167.8795
6600.000000	77.708	-166.1114
6700.000000	77.875	-164.4500
6800.000000	78.094	-162.9210
6900.000000	78.362	-161.5705
7000.000000	78.688	-160.4497
7100.000000	79.072	-159.6497
7200.000000	79.516	-159.2768
7300.000000	80.016	-159.4700
7400.000000	80.560	-160.3611
7500.000000	81.126	-162.0844
7620.000000	81.796	-165.4391
7750.000000	82.437	-170.8524
7880.000000	82.883	-178.0977
8000.000000	83.030	173.9252
8120.000000	82.861	165.3271
8250.000000	82.292	156.2185
8380.000000	81.344	148.3289
8500.000000	80.195	142.8965
8620.000000	78.882	139.7319
8750.000000	77.425	138.8899
8850.000000	76.381	139.7305
9000.000000	75.022	142.5027
9120.000000	74.124	145.4629
9250.000000	73.312	149.0419
9380.000000	72.637	152.7515
9500.000000	72.109	156.1991
9620.000000	71.654	159.7185
9750.000000	71.238	163.5991
9880.000000	70.894	167.4767
10000.000000	70.635	171.0432
10150.000000	70.390	175.4746
10300.000000	70.221	179.8774
10440.000000	70.128	-176.0711
10600.000000	70.106	-171.5608
10750.000000	70.169	-167.4203
10900.000000	70.316	-163.3689
11060.000000	70.562	-159.2124
11200.000000	70.859	-155.7624
11380.000000	71.383	-151.6294
11500.000000	71.827	-149.1557
11720.000000	72.862	-145.5139
11800.000000	73.320	-144.6201
12060.000000	75.099	-144.3823
12200.000000	76.170	-146.7760
12410.000000	77.627	-155.1670
12500.000000	78.071	-160.6584
12650.000000	78.405	-171.6211
12800.000000	78.155	176.9830
13150.000000	75.828	159.1877
13200.000000	75.404	157.9727
13400.000000	73.741	155.7639
13600.000000	72.275	156.5463
13800.000000	71.088	159.0117
14000.000000	70.185	162.4224
14300.000000	69.286	168.3693
14500.000000	68.959	172.4882
14750.000000	68.876	177.4155
15000.000000	69.152	-178.5811
15250.000000	69.821	-176.2574
15500.000000	70.875	-176.8527
15750.000000	72.120	177.2263
16000.000000	72.980	163.6187
16250.000000	72.703	144.4340
16500.000000	71.057	127.5187
16750.000000	68.586	117.0435
17000.000000	65.990	109.4627
17250.000000	62.820	109.3044
17500.000000	58.964	126.6266
17750.000000	57.102	142.3815
18000.000000	56.575	150.8631
18250.000000	56.179	156.9411
18500.000000	55.787	161.8844
18750.000000	55.363	165.9205
19000.000000	54.918	169.3089
19250.000000	54.419	172.0200
19500.000000	53.871	174.4054
19750.000000	53.264	177.0930
20000.000000	52.757	179.2336
