* Measurement data measured by REW V5.20.13
* Source: EXCL: Mic in at rear panel (Pink)(Realtek(R) Audio), MICROPHONE (마스), L, volume: 0.500
* Format: 256k Log Swept Sine, 1 sweep at -12.0 dBFS with no timing reference
* Dated: 2022. 10. 1 오후 5:54:47
* REW Settings:
*  C-weighting compensation: Off
*  Target level: 75.0 dB
* Note: 
* Measurement: L_OldSteel
* Smoothing: 1/24 octave
* Frequency Step: 1/48 octave
* Start Frequency: 20.300 Hz
*
* Freq(Hz)	SPL(dB)	Phase(degrees)
20.299999	83.470	-174.2049
20.600000	83.467	-174.5722
20.900000	83.451	-175.1984
21.200001	83.420	-175.7095
21.400000	83.396	-175.9830
21.799999	83.352	-176.4484
22.000000	83.336	-176.6813
22.400000	83.316	-177.2149
22.700001	83.306	-177.7044
23.000000	83.292	-178.2687
23.299999	83.273	-178.8690
23.600000	83.248	-179.4651
24.000000	83.212	179.7955
24.299999	83.192	179.2886
24.700001	83.176	178.6384
25.000000	83.170	178.1304
25.400000	83.161	177.4025
25.799999	83.136	176.6707
26.200001	83.091	176.0605
26.500000	83.053	175.7471
26.900000	83.013	175.5179
27.200001	83.003	175.4066
27.600000	83.017	175.1766
28.000000	83.038	174.7114
28.500000	83.026	173.8509
29.000000	82.949	173.0602
29.500000	82.846	172.6537
30.000000	82.785	172.5155
30.400000	82.775	172.3221
30.700001	82.778	172.0316
31.100000	82.769	171.4810
31.500000	82.736	170.8827
32.000000	82.677	170.2708
32.500000	82.631	169.8043
33.000000	82.606	169.2930
33.500000	82.578	168.6786
34.000000	82.528	168.1399
34.500000	82.479	167.8413
35.000000	82.462	167.6880
35.500000	82.479	167.4106
36.000000	82.494	166.8802
36.500000	82.476	166.2283
37.000000	82.428	165.6735
37.500000	82.375	165.2736
38.200001	82.316	164.7527
38.700001	82.271	164.2999
39.500000	82.173	163.6393
40.000000	82.116	163.3522
40.599998	82.069	163.0248
41.200001	82.033	162.6119
41.799999	81.995	162.1797
42.500000	81.962	161.7021
43.099998	81.942	161.1931
43.700001	81.903	160.5982
44.400002	81.825	160.0624
45.000000	81.765	159.8221
45.500000	81.735	159.6347
46.200001	81.699	159.2604
46.799999	81.662	158.9303
47.500000	81.634	158.5714
48.200001	81.623	158.0348
48.700001	81.602	157.5462
49.400002	81.549	156.9413
50.000000	81.507	156.5401
50.799999	81.455	155.9534
51.500000	81.376	155.4954
52.200001	81.286	155.3700
53.000000	81.229	155.3830
53.799999	81.177	155.1458
54.500000	81.094	154.9788
55.200001	81.024	155.0255
56.000000	80.995	154.9177
57.000000	80.945	154.1517
58.000000	80.817	153.4016
59.000000	80.708	153.1457
60.000000	80.687	152.8521
60.799999	80.678	152.3138
61.500000	80.646	151.8096
62.200001	80.596	151.3766
63.000000	80.512	150.9937
64.000000	80.375	150.9651
65.000000	80.289	151.3245
66.000000	80.261	151.4594
67.000000	80.243	151.1960
68.000000	80.202	150.5168
69.000000	80.093	149.6959
70.000000	79.937	149.3014
71.000000	79.828	149.4010
72.000000	79.794	149.4413
73.000000	79.772	149.2092
74.000000	79.728	148.8588
75.000000	79.660	148.5042
76.199997	79.555	148.1322
77.500000	79.423	147.8087
78.800003	79.294	147.6232
80.000000	79.189	147.5944
81.199997	79.129	147.7330
82.500000	79.125	147.5739
83.800003	79.071	146.9458
85.000000	78.936	146.5611
86.199997	78.779	146.7179
87.500000	78.683	147.4588
88.500000	78.717	147.8729
90.000000	78.781	147.3305
91.199997	78.737	146.6310
92.500000	78.648	146.1389
93.800003	78.552	145.8384
95.000000	78.457	145.6540
96.199997	78.365	145.5718
97.500000	78.272	145.4943
98.800003	78.183	145.4522
100.000000	78.115	145.4265
101.500000	78.036	145.3064
103.000000	77.939	145.1680
104.400002	77.848	145.1782
106.000000	77.771	145.1157
107.500000	77.696	144.8681
109.000000	77.597	144.6195
110.599998	77.481	144.5454
112.000000	77.383	144.6346
113.800003	77.260	144.8201
115.000000	77.172	144.9836
117.199997	77.023	145.2819
118.000000	76.970	145.3614
120.599998	76.806	145.9009
122.000000	76.746	146.4093
124.099998	76.688	147.3954
125.000000	76.678	147.8611
126.500000	76.683	148.5551
128.000000	76.707	149.0027
131.500000	76.806	149.0435
132.000000	76.826	148.9346
134.000000	76.882	148.3301
136.000000	76.895	147.7589
138.000000	76.864	147.2747
140.000000	76.797	146.7991
143.000000	76.661	146.1187
145.000000	76.583	145.7672
147.500000	76.483	145.5359
150.000000	76.377	145.5681
152.500000	76.275	145.5360
155.000000	76.177	145.4051
157.500000	76.097	145.3447
160.000000	76.027	145.3826
162.500000	75.949	145.4176
165.000000	75.856	145.4326
167.500000	75.770	145.4418
170.000000	75.693	145.4502
172.500000	75.616	145.4919
175.000000	75.534	145.5451
177.500000	75.445	145.6116
180.000000	75.362	145.7005
182.500000	75.288	145.7637
185.000000	75.219	145.8179
187.500000	75.150	145.8521
190.000000	75.071	145.9473
192.500000	74.994	146.1313
195.000000	74.927	146.3159
197.500000	74.867	146.4590
200.000000	74.813	146.5643
203.000000	74.746	146.6694
206.000000	74.675	146.7692
209.000000	74.599	146.8610
212.000000	74.523	146.9967
214.000000	74.476	147.1154
218.000000	74.395	147.3420
220.000000	74.358	147.4399
224.000000	74.275	147.6596
227.000000	74.209	147.8391
230.000000	74.148	148.0046
233.000000	74.089	148.1724
236.000000	74.030	148.3469
240.000000	73.958	148.5271
243.000000	73.898	148.6663
247.000000	73.811	148.9386
250.000000	73.751	149.1593
254.000000	73.681	149.4198
258.000000	73.621	149.6526
262.000000	73.556	149.8914
265.000000	73.501	150.0887
269.000000	73.429	150.3566
272.000000	73.381	150.5511
276.000000	73.323	150.7944
280.000000	73.270	150.9881
285.000000	73.205	151.2358
290.000000	73.138	151.5674
295.000000	73.072	151.8636
300.000000	73.010	152.1741
304.000000	72.964	152.4534
307.000000	72.931	152.6604
311.000000	72.883	152.9102
315.000000	72.835	153.1049
320.000000	72.774	153.3367
325.000000	72.718	153.6195
330.000000	72.670	153.9340
335.000000	72.629	154.2140
340.000000	72.591	154.5184
345.000000	72.541	154.8740
350.000000	72.478	155.1894
355.000000	72.423	155.4750
360.000000	72.375	155.7501
365.000000	72.322	156.0656
370.000000	72.277	156.3790
375.000000	72.237	156.6398
382.000000	72.180	157.0293
387.000000	72.134	157.3141
395.000000	72.057	157.8056
400.000000	72.015	158.0757
406.000000	71.970	158.3305
412.000000	71.920	158.6536
418.000000	71.871	159.0145
425.000000	71.822	159.3828
431.000000	71.776	159.7126
437.000000	71.727	160.0307
444.000000	71.675	160.4045
450.000000	71.638	160.7278
455.000000	71.606	160.9890
462.000000	71.563	161.3474
468.000000	71.526	161.6569
475.000000	71.486	162.0152
482.000000	71.446	162.3218
487.000000	71.421	162.5530
494.000000	71.389	162.9250
500.000000	71.361	163.2538
508.000000	71.317	163.6239
515.000000	71.273	163.9303
522.000000	71.233	164.2382
530.000000	71.196	164.7004
538.000000	71.167	165.1992
545.000000	71.137	165.5353
552.000000	71.102	165.8084
560.000000	71.061	166.1485
570.000000	71.010	166.6535
580.000000	70.966	167.2204
590.000000	70.915	167.8105
600.000000	70.870	168.3411
608.000000	70.844	168.7293
615.000000	70.822	169.0564
622.000000	70.799	169.3968
630.000000	70.768	169.8085
640.000000	70.734	170.3582
650.000000	70.707	170.9033
660.000000	70.677	171.4571
670.000000	70.642	172.0060
680.000000	70.616	172.5443
690.000000	70.594	173.0768
700.000000	70.569	173.6245
710.000000	70.542	174.1614
720.000000	70.516	174.6882
730.000000	70.500	175.2036
740.000000	70.486	175.7479
750.000000	70.470	176.2829
762.000000	70.450	176.9283
775.000000	70.429	177.6255
788.000000	70.420	178.3489
800.000000	70.417	178.9947
812.000000	70.409	179.5933
825.000000	70.400	-179.7858
838.000000	70.406	-179.1031
850.000000	70.425	-178.4776
862.000000	70.439	-177.8749
875.000000	70.448	-177.2042
885.000000	70.456	-176.7095
900.000000	70.478	-176.0088
912.000000	70.503	-175.4301
925.000000	70.536	-174.8168
938.000000	70.569	-174.2636
950.000000	70.605	-173.8229
962.000000	70.642	-173.3660
975.000000	70.684	-172.8361
988.000000	70.730	-172.3120
1000.000000	70.775	-171.8770
1015.000000	70.832	-171.5490
1030.000000	70.890	-171.2357
1044.000000	70.945	-170.8784
1060.000000	71.002	-170.5013
1075.000000	71.054	-170.2118
1090.000000	71.109	-169.9627
1106.000000	71.174	-169.7231
1120.000000	71.230	-169.5545
1138.000000	71.301	-169.3573
1150.000000	71.348	-169.2346
1172.000000	71.427	-169.0380
1180.000000	71.453	-168.9950
1206.000000	71.533	-168.9853
1220.000000	71.573	-168.9568
1241.000000	71.634	-168.9055
1250.000000	71.659	-168.8873
1265.000000	71.696	-168.8478
1280.000000	71.729	-168.8098
1315.000000	71.797	-168.7598
1320.000000	71.805	-168.7538
1340.000000	71.833	-168.6972
1360.000000	71.854	-168.6204
1380.000000	71.878	-168.5740
1400.000000	71.901	-168.5363
1430.000000	71.927	-168.4400
1450.000000	71.941	-168.3693
1475.000000	71.959	-168.2390
1500.000000	71.980	-168.1062
1525.000000	71.997	-167.9373
1550.000000	72.010	-167.7264
1575.000000	72.021	-167.5042
1600.000000	72.028	-167.1985
1625.000000	72.040	-166.8753
1650.000000	72.055	-166.5057
1675.000000	72.080	-166.0804
1700.000000	72.120	-165.6010
1725.000000	72.173	-165.1562
1750.000000	72.235	-164.8593
1775.000000	72.297	-164.6904
1800.000000	72.347	-164.5844
1825.000000	72.385	-164.4802
1850.000000	72.414	-164.3311
1875.000000	72.441	-164.1592
1900.000000	72.464	-163.9831
1925.000000	72.487	-163.7658
1950.000000	72.513	-163.5092
1975.000000	72.540	-163.2528
2000.000000	72.571	-162.9653
2030.000000	72.608	-162.5907
2060.000000	72.644	-162.2386
2090.000000	72.685	-161.8860
2120.000000	72.730	-161.4848
2140.000000	72.764	-161.1906
2180.000000	72.839	-160.6260
2200.000000	72.879	-160.3562
2240.000000	72.962	-159.8007
2270.000000	73.028	-159.3601
2300.000000	73.093	-158.8940
2330.000000	73.163	-158.4051
2360.000000	73.245	-157.8911
2400.000000	73.374	-157.1851
2430.000000	73.491	-156.6566
2470.000000	73.680	-156.0188
2500.000000	73.841	-155.6469
2540.000000	74.071	-155.3698
2580.000000	74.297	-155.3639
2620.000000	74.506	-155.5445
2650.000000	74.655	-155.7417
2690.000000	74.845	-156.0386
2720.000000	74.984	-156.2742
2760.000000	75.172	-156.6182
2800.000000	75.362	-157.0217
2850.000000	75.600	-157.6567
2900.000000	75.838	-158.4524
2950.000000	76.070	-159.3877
3000.000000	76.293	-160.4662
3040.000000	76.465	-161.4271
3070.000000	76.590	-162.2041
3110.000000	76.750	-163.3136
3150.000000	76.903	-164.5196
3200.000000	77.086	-166.1564
3250.000000	77.254	-167.9280
3300.000000	77.402	-169.8466
3350.000000	77.522	-171.9236
3400.000000	77.614	-174.1279
3450.000000	77.679	-176.4225
3500.000000	77.713	-178.7824
3550.000000	77.710	178.8375
3600.000000	77.672	176.4742
3650.000000	77.596	174.1734
3700.000000	77.488	171.9525
3750.000000	77.352	169.8322
3820.000000	77.118	167.0624
3870.000000	76.917	165.2400
3950.000000	76.541	162.6227
4000.000000	76.283	161.2184
4060.000000	75.957	159.7746
4120.000000	75.616	158.5700
4180.000000	75.268	157.6344
4250.000000	74.865	156.8727
4310.000000	74.520	156.4467
4370.000000	74.168	156.2449
4440.000000	73.764	156.2991
4500.000000	73.439	156.5475
4550.000000	73.188	156.8540
4620.000000	72.863	157.3268
4680.000000	72.592	157.7368
4750.000000	72.282	158.3099
4820.000000	71.977	159.0453
4870.000000	71.766	159.6743
4940.000000	71.487	160.6512
5000.000000	71.264	161.5371
5080.000000	70.994	162.7726
5150.000000	70.777	163.8944
5220.000000	70.565	165.0563
5300.000000	70.344	166.4584
5380.000000	70.148	167.9560
5450.000000	69.991	169.3429
5520.000000	69.847	170.7506
5600.000000	69.702	172.3685
5700.000000	69.547	174.4718
5800.000000	69.433	176.6586
5900.000000	69.360	178.8627
6000.000000	69.320	-178.9716
6080.000000	69.315	-177.2319
6150.000000	69.343	-175.7051
6220.000000	69.398	-174.1806
6300.000000	69.474	-172.4860
6400.000000	69.600	-170.5022
6500.000000	69.773	-168.6779
6600.000000	69.984	-166.9278
6700.000000	70.238	-165.2803
6800.000000	70.538	-163.8582
6900.000000	70.896	-162.6705
7000.000000	71.320	-161.7069
7100.000000	71.799	-161.0343
7200.000000	72.333	-160.6951
7300.000000	72.915	-160.8033
7400.000000	73.541	-161.5106
7500.000000	74.211	-162.9440
7620.000000	75.057	-165.9408
7750.000000	75.933	-171.1586
7880.000000	76.569	-178.5855
8000.000000	76.824	173.0223
8120.000000	76.702	164.1147
8250.000000	76.161	155.2392
8380.000000	75.307	148.1455
8500.000000	74.367	143.4540
8620.000000	73.383	140.3790
8750.000000	72.331	138.4590
8850.000000	71.559	137.7795
9000.000000	70.483	137.7564
9120.000000	69.704	138.3004
9250.000000	68.931	139.3085
9380.000000	68.230	140.6795
9500.000000	67.641	142.1495
9620.000000	67.102	143.7261
9750.000000	66.572	145.5772
9880.000000	66.097	147.5561
10000.000000	65.704	149.4119
10150.000000	65.265	151.7457
10300.000000	64.877	154.1001
10440.000000	64.547	156.3430
10600.000000	64.212	158.8805
10750.000000	63.935	161.2428
10900.000000	63.696	163.6299
11060.000000	63.498	166.1019
11200.000000	63.368	168.1956
11380.000000	63.241	170.7308
11500.000000	63.181	172.2797
11720.000000	63.133	174.8786
11800.000000	63.131	175.7222
12060.000000	63.163	177.8561
12200.000000	63.177	178.6087
12410.000000	63.152	179.3200
12500.000000	63.124	179.4619
12650.000000	63.061	179.5416
12800.000000	62.976	179.5442
13150.000000	62.674	179.3588
13200.000000	62.618	179.3278
13400.000000	62.378	179.2776
13600.000000	62.122	179.3158
13800.000000	61.865	179.5530
14000.000000	61.626	-179.9686
14300.000000	61.288	-178.8885
14500.000000	61.101	-177.9566
14750.000000	60.979	-176.7587
15000.000000	60.997	-175.8253
15250.000000	61.144	-175.4793
15500.000000	61.446	-176.1432
15750.000000	61.876	-178.2756
16000.000000	62.336	177.4969
16250.000000	62.681	170.5348
16500.000000	62.672	160.6826
16750.000000	62.117	148.5914
17000.000000	60.850	135.2094
17250.000000	58.322	128.9812
17500.000000	55.000	139.3005
17750.000000	53.254	150.4961
18000.000000	52.477	157.5727
18250.000000	51.834	163.9156
18500.000000	51.300	170.1774
18750.000000	50.943	176.3377
19000.000000	50.710	-177.6883
19250.000000	50.528	-171.9660
19500.000000	50.328	-166.8162
19750.000000	50.160	-162.4240
20000.000000	50.049	-159.6140
