* Measurement data measured by REW V5.20.13
* Source: Input device not selected, no input selected, L, volume: no control
* Format: 256k Log Swept Sine, 1 sweep at -12.0 dBFS with no timing reference
* Dated: 2022. 10. 2 ¿ÀÈÄ 8:48:46
* REW Settings:
*  C-weighting compensation: Off
*  Target level: 75.0 dB
* Note: 
* Measurement: R_Steel_Final E
* Smoothing: 1/24 octave
* Frequency Step: 1/48 octave
* Start Frequency: 20.300 Hz
*
* Freq(Hz)	SPL(dB)	Phase(degrees)
20.299999	84.474	-169.8880
20.600000	84.476	-170.1801
20.900000	84.477	-170.6699
21.200001	84.470	-171.0513
21.400000	84.465	-171.2557
21.799999	84.460	-171.6315
22.000000	84.462	-171.8417
22.400000	84.469	-172.3525
22.700001	84.471	-172.8167
23.000000	84.464	-173.3243
23.299999	84.448	-173.8307
23.600000	84.428	-174.3050
24.000000	84.400	-174.8669
24.299999	84.384	-175.2494
24.700001	84.372	-175.7441
25.000000	84.367	-176.1195
25.400000	84.361	-176.6171
25.799999	84.353	-177.0769
26.200001	84.349	-177.4794
26.500000	84.350	-177.7563
26.900000	84.358	-178.1259
27.200001	84.365	-178.4224
27.600000	84.371	-178.8456
28.000000	84.369	-179.2747
28.500000	84.358	-179.7801
29.000000	84.341	179.7478
29.500000	84.318	179.2861
30.000000	84.289	178.8511
30.400000	84.265	178.5467
30.700001	84.250	178.3399
31.100000	84.240	178.0523
31.500000	84.237	177.6997
32.000000	84.229	177.1343
32.500000	84.203	176.5059
33.000000	84.160	175.9548
33.500000	84.118	175.5353
34.000000	84.091	175.1772
34.500000	84.077	174.7788
35.000000	84.061	174.3156
35.500000	84.036	173.8394
36.000000	84.002	173.4106
36.500000	83.966	173.0548
37.000000	83.934	172.7660
37.500000	83.912	172.5128
38.200001	83.898	172.1046
38.700001	83.891	171.7115
39.500000	83.853	171.0043
40.000000	83.817	170.6399
40.599998	83.781	170.3020
41.200001	83.759	169.9494
41.799999	83.737	169.5167
42.500000	83.692	169.0235
43.099998	83.651	168.7014
43.700001	83.619	168.4044
44.400002	83.583	167.9909
45.000000	83.541	167.6230
45.500000	83.501	167.3669
46.200001	83.456	167.0635
46.799999	83.428	166.7625
47.500000	83.393	166.3203
48.200001	83.346	165.9048
48.700001	83.316	165.6932
49.400002	83.301	165.4326
50.000000	83.306	165.0642
50.799999	83.284	164.3640
51.500000	83.224	163.8943
52.200001	83.171	163.6858
53.000000	83.139	163.4506
53.799999	83.097	163.0759
54.500000	83.043	162.8024
55.200001	82.992	162.5862
56.000000	82.939	162.2714
57.000000	82.856	161.8269
58.000000	82.774	161.4607
59.000000	82.708	161.0794
60.000000	82.640	160.6615
60.799999	82.581	160.3862
61.500000	82.532	160.2141
62.200001	82.489	160.0669
63.000000	82.440	159.8806
64.000000	82.366	159.6663
65.000000	82.285	159.5405
66.000000	82.204	159.4351
67.000000	82.114	159.3887
68.000000	82.038	159.4725
69.000000	81.990	159.4877
70.000000	81.939	159.3766
71.000000	81.879	159.3478
72.000000	81.833	159.4262
73.000000	81.808	159.5225
74.000000	81.798	159.5464
75.000000	81.788	159.5089
76.199997	81.784	159.4243
77.500000	81.773	159.1068
78.800003	81.731	158.7770
80.000000	81.681	158.4955
81.199997	81.622	158.4163
82.500000	81.617	158.2813
83.800003	81.585	157.7219
85.000000	81.522	157.2733
86.199997	81.450	156.8482
87.500000	81.371	156.4931
88.500000	81.319	156.2411
90.000000	81.258	155.9116
91.199997	81.213	155.5751
92.500000	81.136	155.3226
93.800003	81.057	155.3120
95.000000	80.988	155.3753
96.199997	80.921	155.5584
97.500000	80.876	155.7903
98.800003	80.844	155.9179
100.000000	80.821	155.9783
101.500000	80.789	155.9579
103.000000	80.757	155.9344
104.400002	80.754	155.8153
106.000000	80.758	155.3351
107.500000	80.731	154.7807
109.000000	80.680	154.4159
110.599998	80.619	154.2479
112.000000	80.568	154.1253
113.800003	80.508	153.7895
115.000000	80.471	153.4716
117.199997	80.452	153.0549
118.000000	80.472	152.9017
120.599998	80.419	152.0229
122.000000	80.275	152.1360
124.099998	80.103	152.6297
125.000000	80.043	152.6948
126.500000	79.955	152.6368
128.000000	79.883	152.5010
131.500000	79.748	152.3191
132.000000	79.728	152.3100
134.000000	79.647	152.2125
136.000000	79.555	152.0528
138.000000	79.475	151.9644
140.000000	79.410	151.9196
143.000000	79.302	151.9164
145.000000	79.224	151.9423
147.500000	79.129	152.0078
150.000000	79.042	152.0421
152.500000	78.955	152.0398
155.000000	78.876	152.0221
157.500000	78.802	152.0017
160.000000	78.722	152.0564
162.500000	78.641	152.1282
165.000000	78.551	152.1670
167.500000	78.465	152.2379
170.000000	78.389	152.3173
172.500000	78.314	152.4272
175.000000	78.244	152.5380
177.500000	78.175	152.6121
180.000000	78.099	152.7169
182.500000	78.022	152.8600
185.000000	77.949	152.9844
187.500000	77.884	153.0668
190.000000	77.823	153.1564
192.500000	77.761	153.2889
195.000000	77.696	153.4339
197.500000	77.631	153.5522
200.000000	77.566	153.6787
203.000000	77.493	153.8875
206.000000	77.420	154.1081
209.000000	77.348	154.3009
212.000000	77.281	154.4324
214.000000	77.237	154.5285
218.000000	77.152	154.7998
220.000000	77.110	154.9453
224.000000	77.016	155.2151
227.000000	76.949	155.4226
230.000000	76.889	155.6122
233.000000	76.825	155.8155
236.000000	76.762	156.0430
240.000000	76.687	156.3203
243.000000	76.634	156.5106
247.000000	76.565	156.7724
250.000000	76.510	156.9827
254.000000	76.442	157.3148
258.000000	76.382	157.6595
262.000000	76.311	157.9661
265.000000	76.254	158.1776
269.000000	76.192	158.4640
272.000000	76.154	158.6985
276.000000	76.098	159.0011
280.000000	76.031	159.2708
285.000000	75.953	159.6481
290.000000	75.880	160.0767
295.000000	75.820	160.4367
300.000000	75.758	160.8208
304.000000	75.701	161.1761
307.000000	75.658	161.4253
311.000000	75.608	161.7233
315.000000	75.564	162.0162
320.000000	75.504	162.3973
325.000000	75.445	162.7825
330.000000	75.387	163.1867
335.000000	75.339	163.5936
340.000000	75.286	164.0260
345.000000	75.226	164.4615
350.000000	75.172	164.8525
355.000000	75.127	165.1904
360.000000	75.082	165.5459
365.000000	75.033	165.9260
370.000000	74.987	166.3509
375.000000	74.948	166.8050
382.000000	74.901	167.3529
387.000000	74.858	167.6822
395.000000	74.784	168.2702
400.000000	74.746	168.6608
406.000000	74.708	169.1440
412.000000	74.672	169.6513
418.000000	74.635	170.1206
425.000000	74.584	170.6222
431.000000	74.546	171.0746
437.000000	74.516	171.5330
444.000000	74.482	172.0521
450.000000	74.449	172.4807
455.000000	74.422	172.8391
462.000000	74.385	173.3511
468.000000	74.353	173.8018
475.000000	74.313	174.3369
482.000000	74.278	174.8627
487.000000	74.255	175.2520
494.000000	74.223	175.8067
500.000000	74.197	176.2527
508.000000	74.162	176.8505
515.000000	74.136	177.3826
522.000000	74.114	177.8786
530.000000	74.085	178.4433
538.000000	74.056	179.0398
545.000000	74.032	179.5807
552.000000	74.014	-179.9175
560.000000	73.994	-179.3657
570.000000	73.970	-178.6510
580.000000	73.940	-177.9274
590.000000	73.918	-177.2177
600.000000	73.901	-176.5023
608.000000	73.882	-175.8847
615.000000	73.868	-175.3588
622.000000	73.857	-174.8449
630.000000	73.844	-174.2603
640.000000	73.834	-173.5206
650.000000	73.828	-172.7622
660.000000	73.820	-172.0364
670.000000	73.818	-171.3239
680.000000	73.817	-170.6245
690.000000	73.816	-169.9108
700.000000	73.816	-169.1804
710.000000	73.819	-168.4465
720.000000	73.826	-167.7409
730.000000	73.835	-167.0374
740.000000	73.847	-166.3248
750.000000	73.862	-165.6185
762.000000	73.887	-164.7733
775.000000	73.916	-163.8464
788.000000	73.946	-162.9428
800.000000	73.977	-162.0848
812.000000	74.011	-161.2223
825.000000	74.055	-160.3412
838.000000	74.106	-159.4886
850.000000	74.152	-158.6892
862.000000	74.202	-157.9103
875.000000	74.261	-157.0731
885.000000	74.308	-156.4227
900.000000	74.386	-155.5166
912.000000	74.452	-154.8379
925.000000	74.526	-154.1270
938.000000	74.602	-153.4183
950.000000	74.680	-152.7716
962.000000	74.763	-152.1639
975.000000	74.853	-151.5359
988.000000	74.947	-150.9158
1000.000000	75.033	-150.3652
1015.000000	75.136	-149.7548
1030.000000	75.239	-149.1859
1044.000000	75.335	-148.6781
1060.000000	75.443	-148.1616
1075.000000	75.547	-147.7264
1090.000000	75.652	-147.3052
1106.000000	75.756	-146.8842
1120.000000	75.847	-146.5539
1138.000000	75.965	-146.1599
1150.000000	76.041	-145.8945
1172.000000	76.171	-145.4723
1180.000000	76.216	-145.3344
1206.000000	76.360	-144.8889
1220.000000	76.432	-144.6536
1241.000000	76.527	-144.2731
1250.000000	76.567	-144.1029
1265.000000	76.637	-143.7917
1280.000000	76.708	-143.4236
1315.000000	76.889	-142.3900
1320.000000	76.920	-142.2226
1340.000000	77.065	-141.5692
1360.000000	77.237	-141.0574
1380.000000	77.425	-140.7831
1400.000000	77.609	-140.7586
1430.000000	77.838	-141.0381
1450.000000	77.957	-141.2677
1475.000000	78.081	-141.5320
1500.000000	78.190	-141.7426
1525.000000	78.289	-141.9017
1550.000000	78.382	-142.0244
1575.000000	78.468	-142.1223
1600.000000	78.550	-142.1893
1625.000000	78.627	-142.2376
1650.000000	78.702	-142.2538
1675.000000	78.773	-142.2595
1700.000000	78.839	-142.2332
1725.000000	78.898	-142.1881
1750.000000	78.952	-142.1056
1775.000000	79.003	-141.9462
1800.000000	79.052	-141.7027
1825.000000	79.101	-141.3519
1850.000000	79.160	-140.8800
1875.000000	79.238	-140.2988
1900.000000	79.338	-139.6461
1925.000000	79.464	-138.9519
1950.000000	79.625	-138.2612
1975.000000	79.827	-137.6694
2000.000000	80.066	-137.2994
2030.000000	80.377	-137.2972
2060.000000	80.673	-137.8253
2090.000000	80.917	-138.7355
2120.000000	81.103	-139.7890
2140.000000	81.200	-140.4793
2180.000000	81.346	-141.7039
2200.000000	81.405	-142.2258
2240.000000	81.520	-143.0813
2270.000000	81.614	-143.6101
2300.000000	81.717	-144.1411
2330.000000	81.826	-144.7426
2360.000000	81.931	-145.4402
2400.000000	82.052	-146.5006
2430.000000	82.123	-147.3347
2470.000000	82.190	-148.3902
2500.000000	82.224	-149.1053
2540.000000	82.260	-149.9389
2580.000000	82.297	-150.6410
2620.000000	82.343	-151.2494
2650.000000	82.386	-151.6903
2690.000000	82.453	-152.3184
2720.000000	82.504	-152.8395
2760.000000	82.567	-153.5859
2800.000000	82.620	-154.3564
2850.000000	82.678	-155.3260
2900.000000	82.728	-156.3096
2950.000000	82.770	-157.3174
3000.000000	82.799	-158.3408
3040.000000	82.814	-159.1544
3070.000000	82.819	-159.7483
3110.000000	82.819	-160.5172
3150.000000	82.813	-161.2577
3200.000000	82.799	-162.1373
3250.000000	82.779	-162.9681
3300.000000	82.758	-163.7378
3350.000000	82.735	-164.4415
3400.000000	82.711	-165.1070
3450.000000	82.688	-165.7496
3500.000000	82.668	-166.3669
3550.000000	82.650	-166.9548
3600.000000	82.639	-167.5284
3650.000000	82.631	-168.1212
3700.000000	82.628	-168.7572
3750.000000	82.627	-169.4482
3820.000000	82.620	-170.4951
3870.000000	82.608	-171.3014
3950.000000	82.570	-172.6670
4000.000000	82.533	-173.5375
4060.000000	82.476	-174.5765
4120.000000	82.404	-175.6068
4180.000000	82.320	-176.6133
4250.000000	82.209	-177.7422
4310.000000	82.100	-178.6708
4370.000000	81.979	-179.5597
4440.000000	81.825	179.4733
4500.000000	81.683	178.7253
4550.000000	81.559	178.1735
4620.000000	81.386	177.4957
4680.000000	81.239	176.9544
4750.000000	81.060	176.3326
4820.000000	80.867	175.7550
4870.000000	80.722	175.4001
4940.000000	80.506	175.0124
5000.000000	80.314	174.7968
5080.000000	80.056	174.6887
5150.000000	79.834	174.7523
5220.000000	79.619	174.9530
5300.000000	79.380	175.3242
5380.000000	79.148	175.8355
5450.000000	78.955	176.3893
5520.000000	78.771	177.0340
5600.000000	78.572	177.8815
5700.000000	78.352	179.0842
5800.000000	78.157	-179.5391
5900.000000	77.991	-178.0018
6000.000000	77.858	-176.3470
6080.000000	77.782	-174.9577
6150.000000	77.736	-173.7190
6220.000000	77.709	-172.4600
6300.000000	77.704	-170.9995
6400.000000	77.735	-169.1734
6500.000000	77.809	-167.3786
6600.000000	77.926	-165.6396
6700.000000	78.093	-163.9664
6800.000000	78.311	-162.4030
6900.000000	78.586	-161.0244
7000.000000	78.918	-159.8922
7100.000000	79.310	-159.0726
7200.000000	79.761	-158.6844
7300.000000	80.267	-158.8679
7400.000000	80.816	-159.7610
7500.000000	81.388	-161.5057
7620.000000	82.063	-164.9185
7750.000000	82.704	-170.4301
7880.000000	83.135	-177.8219
8000.000000	83.250	174.0750
8120.000000	83.032	165.4740
8250.000000	82.407	156.5859
8380.000000	81.416	149.1117
8500.000000	80.248	144.1675
8620.000000	78.943	141.4997
8750.000000	77.523	141.0734
8850.000000	76.509	142.1376
9000.000000	75.197	145.1902
9120.000000	74.333	148.2957
9250.000000	73.554	152.0062
9380.000000	72.907	155.9227
9500.000000	72.407	159.6116
9620.000000	71.987	163.3339
9750.000000	71.613	167.3980
9880.000000	71.315	171.4716
10000.000000	71.100	175.2105
10150.000000	70.913	179.8521
10300.000000	70.810	-175.5603
10440.000000	70.792	-171.3402
10600.000000	70.865	-166.6033
10750.000000	71.023	-162.2824
10900.000000	71.273	-158.1112
11060.000000	71.648	-153.9283
11200.000000	72.077	-150.5516
11380.000000	72.782	-146.6905
11500.000000	73.358	-144.5411
11720.000000	74.660	-141.9497
11800.000000	75.214	-141.6310
12060.000000	77.235	-144.2216
12200.000000	78.321	-148.8509
12410.000000	79.525	-161.0065
12500.000000	79.759	-167.7596
12650.000000	79.677	-179.5605
12800.000000	79.040	169.9528
13150.000000	76.367	156.6750
13200.000000	75.956	155.9687
13400.000000	74.428	155.1111
13600.000000	73.159	156.3817
13800.000000	72.163	158.8359
14000.000000	71.409	161.8921
14300.000000	70.671	166.9059
14500.000000	70.432	170.2036
14750.000000	70.410	173.7928
15000.000000	70.689	176.3697
15250.000000	71.286	177.2882
15500.000000	72.186	175.2897
15750.000000	73.217	168.1470
16000.000000	73.841	153.6971
16250.000000	73.342	134.1281
16500.000000	71.471	116.9188
16750.000000	68.694	105.9263
17000.000000	65.484	100.7159
17250.000000	61.522	112.0984
17500.000000	58.483	133.2921
17750.000000	57.700	144.7594
18000.000000	57.271	151.2492
18250.000000	56.814	156.6446
18500.000000	56.346	161.1896
18750.000000	55.902	164.8523
19000.000000	55.444	167.9437
19250.000000	54.909	170.5527
19500.000000	54.294	172.9433
19750.000000	53.619	175.5895
20000.000000	53.089	177.9017
