* Measurement data measured by REW V5.20.13
* Source: EXCL: Mic in at rear panel (Pink)(Realtek(R) Audio), MICROPHONE (마스), L, volume: 0.500
* Format: 256k Log Swept Sine, 1 sweep at -12.0 dBFS with no timing reference
* Dated: 2022. 10. 1 오후 5:41:35
* REW Settings:
*  C-weighting compensation: Off
*  Target level: 75.0 dB
* Note: 
* Measurement: R_Deep
* Smoothing: 1/24 octave
* Frequency Step: 1/48 octave
* Start Frequency: 20.300 Hz
*
* Freq(Hz)	SPL(dB)	Phase(degrees)
20.299999	84.459	-169.5544
20.600000	84.457	-169.7908
20.900000	84.449	-170.2042
21.200001	84.436	-170.5744
21.400000	84.424	-170.8010
21.799999	84.398	-171.2411
22.000000	84.385	-171.4669
22.400000	84.358	-171.9355
22.700001	84.339	-172.3031
23.000000	84.321	-172.6856
23.299999	84.304	-173.0788
23.600000	84.290	-173.4779
24.000000	84.275	-174.0125
24.299999	84.269	-174.4113
24.700001	84.265	-174.9381
25.000000	84.266	-175.3298
25.400000	84.271	-175.8498
25.799999	84.277	-176.3691
26.200001	84.281	-176.8836
26.500000	84.280	-177.2573
26.900000	84.272	-177.7216
27.200001	84.261	-178.0330
27.600000	84.244	-178.3941
28.000000	84.229	-178.7114
28.500000	84.215	-179.1030
29.000000	84.200	-179.5441
29.500000	84.174	179.9726
30.000000	84.138	179.5085
30.400000	84.107	179.1774
30.700001	84.088	178.9448
31.100000	84.068	178.6233
31.500000	84.052	178.2594
32.000000	84.031	177.7435
32.500000	84.002	177.2253
33.000000	83.975	176.7773
33.500000	83.965	176.3813
34.000000	83.972	175.9360
34.500000	83.976	175.3822
35.000000	83.959	174.7942
35.500000	83.921	174.3305
36.000000	83.883	174.0654
36.500000	83.865	173.9118
37.000000	83.865	173.7100
37.500000	83.864	173.3960
38.200001	83.835	172.9018
38.700001	83.802	172.6155
39.500000	83.757	172.2136
40.000000	83.733	171.9180
40.599998	83.698	171.5256
41.200001	83.661	171.1449
41.799999	83.628	170.7762
42.500000	83.596	170.3210
43.099998	83.569	169.9143
43.700001	83.540	169.5335
44.400002	83.507	169.1497
45.000000	83.484	168.8544
45.500000	83.466	168.6089
46.200001	83.441	168.2552
46.799999	83.416	167.9501
47.500000	83.383	167.6039
48.200001	83.347	167.2807
48.700001	83.324	167.0629
49.400002	83.295	166.7405
50.000000	83.271	166.4163
50.799999	83.229	165.9633
51.500000	83.188	165.6329
52.200001	83.158	165.3423
53.000000	83.133	164.9564
53.799999	83.098	164.5278
54.500000	83.058	164.2053
55.200001	83.019	163.9536
56.000000	82.984	163.6847
57.000000	82.941	163.2754
58.000000	82.882	162.8658
59.000000	82.821	162.5411
60.000000	82.769	162.2112
60.799999	82.731	161.9086
61.500000	82.698	161.6216
62.200001	82.660	161.3468
63.000000	82.619	161.0866
64.000000	82.579	160.7673
65.000000	82.532	160.3910
66.000000	82.473	160.0975
67.000000	82.419	159.8866
68.000000	82.371	159.6518
69.000000	82.319	159.3752
70.000000	82.260	159.0952
71.000000	82.202	158.8413
72.000000	82.148	158.5794
73.000000	82.094	158.2965
74.000000	82.039	158.0349
75.000000	81.985	157.8185
76.199997	81.925	157.5967
77.500000	81.863	157.3599
78.800003	81.794	157.1226
80.000000	81.722	156.9584
81.199997	81.660	156.8337
82.500000	81.602	156.5369
83.800003	81.517	156.1674
85.000000	81.435	155.9803
86.199997	81.376	155.8556
87.500000	81.328	155.6655
88.500000	81.293	155.4977
90.000000	81.243	155.2314
91.199997	81.196	155.0011
92.500000	81.138	154.7982
93.800003	81.083	154.6399
95.000000	81.035	154.4894
96.199997	80.986	154.3129
97.500000	80.924	154.1177
98.800003	80.859	153.9772
100.000000	80.805	153.8587
101.500000	80.737	153.6571
103.000000	80.663	153.4678
104.400002	80.594	153.3475
106.000000	80.522	153.2548
107.500000	80.457	153.1635
109.000000	80.389	153.0563
110.599998	80.310	152.9230
112.000000	80.240	152.8221
113.800003	80.156	152.7156
115.000000	80.105	152.6487
117.199997	80.009	152.5072
118.000000	79.971	152.4630
120.599998	79.837	152.3393
122.000000	79.764	152.3121
124.099998	79.663	152.3227
125.000000	79.620	152.3416
126.500000	79.545	152.4120
128.000000	79.464	152.5189
131.500000	79.259	152.8342
132.000000	79.229	152.8893
134.000000	79.110	153.2412
136.000000	79.018	153.8864
138.000000	78.967	154.6722
140.000000	78.954	155.4518
143.000000	79.031	156.2592
145.000000	79.124	156.2606
147.500000	79.190	155.7883
150.000000	79.181	155.2521
152.500000	79.130	154.7486
155.000000	79.060	154.3153
157.500000	78.986	154.0184
160.000000	78.904	153.8734
162.500000	78.820	153.8141
165.000000	78.738	153.7663
167.500000	78.662	153.7338
170.000000	78.585	153.6969
172.500000	78.499	153.6992
175.000000	78.416	153.7456
177.500000	78.346	153.8061
180.000000	78.281	153.8588
182.500000	78.211	153.9232
185.000000	78.140	153.9928
187.500000	78.072	154.0737
190.000000	78.012	154.1865
192.500000	77.954	154.2979
195.000000	77.891	154.3881
197.500000	77.827	154.4724
200.000000	77.768	154.5761
203.000000	77.700	154.7214
206.000000	77.631	154.8903
209.000000	77.564	155.0815
212.000000	77.503	155.2529
214.000000	77.461	155.3484
218.000000	77.375	155.5540
220.000000	77.332	155.6727
224.000000	77.250	155.9424
227.000000	77.198	156.1581
230.000000	77.144	156.3795
233.000000	77.085	156.6201
236.000000	77.027	156.8543
240.000000	76.957	157.1567
243.000000	76.909	157.3577
247.000000	76.846	157.6055
250.000000	76.799	157.8016
254.000000	76.729	158.0360
258.000000	76.659	158.2899
262.000000	76.595	158.5652
265.000000	76.549	158.7918
269.000000	76.490	159.1060
272.000000	76.449	159.3435
276.000000	76.395	159.6564
280.000000	76.341	159.9655
285.000000	76.281	160.3076
290.000000	76.222	160.6005
295.000000	76.156	160.9193
300.000000	76.092	161.3277
304.000000	76.043	161.6429
307.000000	76.005	161.8617
311.000000	75.961	162.1577
315.000000	75.923	162.4577
320.000000	75.877	162.8213
325.000000	75.831	163.1974
330.000000	75.785	163.5880
335.000000	75.741	163.9669
340.000000	75.700	164.3624
345.000000	75.656	164.7460
350.000000	75.603	165.1199
355.000000	75.552	165.4735
360.000000	75.508	165.8510
365.000000	75.464	166.2750
370.000000	75.420	166.6688
375.000000	75.377	167.0176
382.000000	75.316	167.5586
387.000000	75.276	167.9512
395.000000	75.224	168.5260
400.000000	75.189	168.8815
406.000000	75.148	169.3206
412.000000	75.106	169.7697
418.000000	75.067	170.2212
425.000000	75.022	170.7661
431.000000	74.985	171.2286
437.000000	74.957	171.6975
444.000000	74.922	172.2023
450.000000	74.887	172.6401
455.000000	74.859	173.0137
462.000000	74.826	173.5102
468.000000	74.801	173.9496
475.000000	74.771	174.4785
482.000000	74.744	174.9871
487.000000	74.727	175.3466
494.000000	74.702	175.8495
500.000000	74.677	176.2933
508.000000	74.647	176.8711
515.000000	74.621	177.3618
522.000000	74.601	177.8434
530.000000	74.582	178.4259
538.000000	74.561	178.9954
545.000000	74.542	179.4734
552.000000	74.524	179.9756
560.000000	74.502	-179.4361
570.000000	74.474	-178.7158
580.000000	74.448	-177.9742
590.000000	74.432	-177.2261
600.000000	74.409	-176.4784
608.000000	74.392	-175.9187
615.000000	74.382	-175.4359
622.000000	74.376	-174.9360
630.000000	74.370	-174.3475
640.000000	74.364	-173.6303
650.000000	74.359	-172.9165
660.000000	74.358	-172.1873
670.000000	74.358	-171.4801
680.000000	74.352	-170.7843
690.000000	74.345	-170.0624
700.000000	74.342	-169.3256
710.000000	74.346	-168.6126
720.000000	74.353	-167.9168
730.000000	74.364	-167.2097
740.000000	74.373	-166.4973
750.000000	74.387	-165.8023
762.000000	74.407	-164.9748
775.000000	74.427	-164.0752
788.000000	74.449	-163.1759
800.000000	74.469	-162.3465
812.000000	74.498	-161.5282
825.000000	74.536	-160.6273
838.000000	74.579	-159.7450
850.000000	74.624	-158.9588
862.000000	74.671	-158.2042
875.000000	74.723	-157.3681
885.000000	74.764	-156.7356
900.000000	74.835	-155.8088
912.000000	74.898	-155.0840
925.000000	74.965	-154.3361
938.000000	75.034	-153.6087
950.000000	75.104	-152.9417
962.000000	75.177	-152.3182
975.000000	75.262	-151.6899
988.000000	75.358	-151.0938
1000.000000	75.450	-150.5660
1015.000000	75.542	-149.9330
1030.000000	75.637	-149.3385
1044.000000	75.734	-148.8275
1060.000000	75.846	-148.3210
1075.000000	75.950	-147.8681
1090.000000	76.055	-147.4359
1106.000000	76.176	-147.0124
1120.000000	76.283	-146.6811
1138.000000	76.418	-146.3183
1150.000000	76.506	-146.1006
1172.000000	76.665	-145.7281
1180.000000	76.720	-145.5995
1206.000000	76.898	-145.2355
1220.000000	76.992	-145.0660
1241.000000	77.130	-144.8120
1250.000000	77.188	-144.7104
1265.000000	77.285	-144.5540
1280.000000	77.380	-144.4050
1315.000000	77.592	-144.1051
1320.000000	77.622	-144.0682
1340.000000	77.740	-143.9114
1360.000000	77.853	-143.7580
1380.000000	77.967	-143.6362
1400.000000	78.082	-143.5344
1430.000000	78.255	-143.4120
1450.000000	78.369	-143.3458
1475.000000	78.508	-143.2895
1500.000000	78.642	-143.2391
1525.000000	78.772	-143.2187
1550.000000	78.902	-143.2262
1575.000000	79.030	-143.2248
1600.000000	79.151	-143.2391
1625.000000	79.269	-143.2595
1650.000000	79.387	-143.2888
1675.000000	79.503	-143.3280
1700.000000	79.622	-143.3639
1725.000000	79.738	-143.4054
1750.000000	79.851	-143.4775
1775.000000	79.962	-143.5623
1800.000000	80.072	-143.6457
1825.000000	80.182	-143.7493
1850.000000	80.291	-143.8675
1875.000000	80.401	-143.9897
1900.000000	80.510	-144.1373
1925.000000	80.619	-144.3062
1950.000000	80.728	-144.4891
1975.000000	80.834	-144.6920
2000.000000	80.939	-144.9117
2030.000000	81.064	-145.2116
2060.000000	81.189	-145.5467
2090.000000	81.310	-145.8985
2120.000000	81.430	-146.2788
2140.000000	81.510	-146.5464
2180.000000	81.664	-147.1139
2200.000000	81.738	-147.4268
2240.000000	81.878	-148.0876
2270.000000	81.978	-148.5940
2300.000000	82.075	-149.1258
2330.000000	82.168	-149.6951
2360.000000	82.256	-150.2889
2400.000000	82.367	-151.0866
2430.000000	82.447	-151.7013
2470.000000	82.547	-152.5366
2500.000000	82.614	-153.1772
2540.000000	82.697	-154.0627
2580.000000	82.773	-154.9665
2620.000000	82.842	-155.8814
2650.000000	82.889	-156.5600
2690.000000	82.944	-157.4579
2720.000000	82.978	-158.1362
2760.000000	83.018	-159.0392
2800.000000	83.050	-159.9321
2850.000000	83.078	-161.0237
2900.000000	83.098	-162.0990
2950.000000	83.108	-163.1576
3000.000000	83.110	-164.1853
3040.000000	83.106	-164.9817
3070.000000	83.101	-165.5671
3110.000000	83.092	-166.3354
3150.000000	83.081	-167.0838
3200.000000	83.060	-167.9915
3250.000000	83.031	-168.8761
3300.000000	82.998	-169.7346
3350.000000	82.963	-170.5587
3400.000000	82.927	-171.3522
3450.000000	82.891	-172.1161
3500.000000	82.855	-172.8516
3550.000000	82.818	-173.5678
3600.000000	82.779	-174.2527
3650.000000	82.738	-174.9046
3700.000000	82.696	-175.5296
3750.000000	82.653	-176.1330
3820.000000	82.589	-176.9539
3870.000000	82.539	-177.5327
3950.000000	82.446	-178.4371
4000.000000	82.384	-178.9841
4060.000000	82.308	-179.6271
4120.000000	82.230	179.7294
4180.000000	82.148	179.0758
4250.000000	82.042	178.3224
4310.000000	81.937	177.6968
4370.000000	81.814	177.1086
4440.000000	81.654	176.4962
4500.000000	81.510	176.0553
4550.000000	81.392	175.7368
4620.000000	81.230	175.3089
4680.000000	81.087	174.9333
4750.000000	80.907	174.5282
4820.000000	80.716	174.2302
4870.000000	80.573	174.0873
4940.000000	80.372	173.9800
5000.000000	80.204	173.9736
5080.000000	79.985	174.0511
5150.000000	79.797	174.1854
5220.000000	79.612	174.4037
5300.000000	79.406	174.7412
5380.000000	79.204	175.1558
5450.000000	79.032	175.6098
5520.000000	78.867	176.1480
5600.000000	78.689	176.8341
5700.000000	78.480	177.8191
5800.000000	78.294	178.9436
5900.000000	78.131	-179.8072
6000.000000	77.998	-178.4744
6080.000000	77.915	-177.3631
6150.000000	77.861	-176.3582
6220.000000	77.824	-175.3335
6300.000000	77.804	-174.1516
6400.000000	77.809	-172.6929
6500.000000	77.849	-171.2819
6600.000000	77.925	-169.9248
6700.000000	78.038	-168.6414
6800.000000	78.198	-167.4749
6900.000000	78.418	-166.4430
7000.000000	78.702	-165.5821
7100.000000	79.041	-164.9815
7200.000000	79.419	-164.7254
7300.000000	79.827	-164.8733
7400.000000	80.266	-165.4673
7500.000000	80.737	-166.5878
7620.000000	81.344	-168.8257
7750.000000	81.996	-172.7137
7880.000000	82.476	-178.3932
8000.000000	82.675	174.9846
8120.000000	82.582	167.6770
8250.000000	82.133	159.9846
8380.000000	81.380	153.4580
8500.000000	80.499	148.9021
8620.000000	79.519	145.8524
8750.000000	78.417	144.0836
8850.000000	77.582	143.6425
9000.000000	76.397	144.1863
9120.000000	75.523	145.4268
9250.000000	74.660	147.3643
9380.000000	73.886	149.7580
9500.000000	73.247	152.2612
9620.000000	72.676	154.9741
9750.000000	72.125	158.1069
9880.000000	71.637	161.4126
10000.000000	71.240	164.5585
10150.000000	70.819	168.5684
10300.000000	70.480	172.6745
10440.000000	70.229	176.6014
10600.000000	70.018	-178.8735
10750.000000	69.892	-174.6038
10900.000000	69.846	-170.3219
11060.000000	69.883	-165.8469
11200.000000	69.985	-162.0558
11380.000000	70.217	-157.3595
11500.000000	70.439	-154.3540
11720.000000	70.997	-149.2525
11800.000000	71.252	-147.5771
12060.000000	72.273	-143.0206
12200.000000	72.934	-141.3561
12410.000000	74.057	-140.3746
12500.000000	74.583	-140.6715
12650.000000	75.492	-142.4077
12800.000000	76.376	-146.0153
13150.000000	77.722	-162.1044
13200.000000	77.774	-165.0247
13400.000000	77.569	-176.7163
13600.000000	76.793	173.4288
13800.000000	75.688	166.6374
14000.000000	74.506	162.6853
14300.000000	72.892	160.4162
14500.000000	71.995	160.3124
14750.000000	71.079	160.8851
15000.000000	70.349	161.6808
15250.000000	69.780	162.3971
15500.000000	69.388	162.8757
15750.000000	69.181	162.8644
16000.000000	69.127	161.8713
16250.000000	69.168	158.9241
16500.000000	69.115	152.7526
16750.000000	68.564	142.9421
17000.000000	66.911	135.4565
17250.000000	64.490	141.7342
17500.000000	63.461	149.3145
17750.000000	62.924	151.1680
18000.000000	62.211	153.5091
18250.000000	61.593	156.8788
18500.000000	61.153	160.2805
18750.000000	60.836	163.1014
19000.000000	60.584	165.1131
19250.000000	60.307	166.3066
19500.000000	59.919	166.8250
19750.000000	59.443	167.0450
20000.000000	59.046	167.2426
