* Measurement data measured by REW V5.20.13
* Source: USB-C to 3.5mm Headphone Jack Adapter, USB-C to 3.5mm Headphone Jack Adapter, 0, volume: 1.000
* Format: 256k Log Swept Sine, 1 sweep at -12.0 dBFS with no timing reference
* Dated: 2022. 11. 13 ¿ÀÈÄ 1:11:17
* REW Settings:
*  C-weighting compensation: Off
*  Target level: 75.0 dB
* Note: 
* Measurement: Nov 13
* Smoothing: 1/24 octave
* Frequency Step: 1/48 octave
* Start Frequency: 20.300 Hz
*
* Freq(Hz)	SPL(dB)	Phase(degrees)
20.299999	98.060	-110.7092
20.600000	98.078	-111.1505
20.900000	98.111	-111.8984
21.200001	98.135	-112.4957
21.400000	98.153	-112.8070
21.799999	98.206	-113.3289
22.000000	98.248	-113.6014
22.400000	98.360	-114.2909
22.700001	98.459	-115.0123
23.000000	98.554	-115.9371
23.299999	98.636	-117.0179
23.600000	98.699	-118.1850
24.000000	98.757	-119.7594
24.299999	98.789	-120.8901
24.700001	98.824	-122.3085
25.000000	98.851	-123.3208
25.400000	98.886	-124.6252
25.799999	98.915	-125.8695
26.200001	98.938	-127.0096
26.500000	98.952	-127.7716
26.900000	98.973	-128.6609
27.200001	98.993	-129.2526
27.600000	99.028	-129.9792
28.000000	99.071	-130.6712
28.500000	99.133	-131.5247
29.000000	99.200	-132.4171
29.500000	99.259	-133.4041
30.000000	99.294	-134.4598
30.400000	99.297	-135.2551
30.700001	99.291	-135.7658
31.100000	99.284	-136.3110
31.500000	99.292	-136.7577
32.000000	99.330	-137.3480
32.500000	99.380	-138.1102
33.000000	99.419	-139.0018
33.500000	99.445	-139.8892
34.000000	99.471	-140.7233
34.500000	99.504	-141.5708
35.000000	99.533	-142.4769
35.500000	99.551	-143.3883
36.000000	99.562	-144.2324
36.500000	99.577	-145.0212
37.000000	99.595	-145.8224
37.500000	99.604	-146.6440
38.200001	99.594	-147.6704
38.700001	99.586	-148.2408
39.500000	99.602	-149.0427
40.000000	99.621	-149.5765
40.599998	99.639	-150.2139
41.200001	99.661	-150.7996
41.799999	99.694	-151.4167
42.500000	99.725	-152.2795
43.099998	99.727	-153.0359
43.700001	99.714	-153.6611
44.400002	99.710	-154.2666
45.000000	99.720	-154.8333
45.500000	99.725	-155.3795
46.200001	99.719	-156.1769
46.799999	99.710	-156.8161
47.500000	99.711	-157.5310
48.200001	99.727	-158.3096
48.700001	99.739	-158.9202
49.400002	99.746	-159.7582
50.000000	99.751	-160.3647
50.799999	99.780	-161.0616
51.500000	99.815	-161.7048
52.200001	99.838	-162.3372
53.000000	99.854	-162.9279
53.799999	99.867	-163.4897
54.500000	99.854	-164.0005
55.200001	99.816	-164.4019
56.000000	99.770	-164.7177
57.000000	99.715	-165.1271
58.000000	99.653	-165.4703
59.000000	99.637	-165.7317
60.000000	99.673	-166.3426
60.799999	99.691	-167.1146
61.500000	99.686	-167.7728
62.200001	99.680	-168.2976
63.000000	99.692	-168.8234
64.000000	99.713	-169.5828
65.000000	99.697	-170.3540
66.000000	99.658	-170.8526
67.000000	99.643	-171.2001
68.000000	99.643	-171.7023
69.000000	99.629	-172.3542
70.000000	99.598	-172.9951
71.000000	99.571	-173.5388
72.000000	99.562	-174.0694
73.000000	99.557	-174.6328
74.000000	99.547	-175.1887
75.000000	99.525	-175.6655
76.199997	99.505	-176.0552
77.500000	99.503	-176.5926
78.800003	99.466	-177.2511
80.000000	99.415	-177.7157
81.199997	99.378	-178.0651
82.500000	99.364	-178.4836
83.800003	99.350	-179.0644
85.000000	99.318	-179.6143
86.199997	99.276	179.9370
87.500000	99.242	179.5531
88.500000	99.229	179.2396
90.000000	99.210	178.6348
91.199997	99.186	178.1906
92.500000	99.168	177.7489
93.800003	99.148	177.2633
95.000000	99.117	176.8307
96.199997	99.078	176.4706
97.500000	99.040	176.1892
98.800003	99.021	175.8847
100.000000	99.001	175.4924
101.500000	98.956	175.0224
103.000000	98.912	174.6344
104.400002	98.878	174.2690
106.000000	98.840	173.8741
107.500000	98.818	173.5155
109.000000	98.791	173.0834
110.599998	98.743	172.6511
112.000000	98.696	172.3467
113.800003	98.654	171.9767
115.000000	98.640	171.7357
117.199997	98.644	171.3087
118.000000	98.648	171.1703
120.599998	98.626	170.5803
122.000000	98.561	170.2936
124.099998	98.461	170.0148
125.000000	98.431	169.8749
126.500000	98.395	169.5785
128.000000	98.367	169.2511
131.500000	98.288	168.6575
132.000000	98.275	168.5834
134.000000	98.224	168.2875
136.000000	98.183	167.9986
138.000000	98.146	167.7303
140.000000	98.100	167.4866
143.000000	98.017	167.1797
145.000000	97.967	166.9323
147.500000	97.905	166.6278
150.000000	97.856	166.3430
152.500000	97.808	166.0067
155.000000	97.750	165.6880
157.500000	97.680	165.4501
160.000000	97.621	165.2726
162.500000	97.576	165.0561
165.000000	97.532	164.8853
167.500000	97.483	164.7399
170.000000	97.438	164.5435
172.500000	97.389	164.3003
175.000000	97.332	164.1300
177.500000	97.275	164.0135
180.000000	97.222	163.8991
182.500000	97.176	163.7834
185.000000	97.133	163.6333
187.500000	97.084	163.4591
190.000000	97.029	163.3329
192.500000	96.978	163.2275
195.000000	96.928	163.0775
197.500000	96.879	162.9514
200.000000	96.831	162.8828
203.000000	96.771	162.8312
206.000000	96.724	162.7781
209.000000	96.684	162.6933
212.000000	96.630	162.6069
214.000000	96.590	162.5768
218.000000	96.524	162.5281
220.000000	96.489	162.4749
224.000000	96.417	162.4556
227.000000	96.386	162.4781
230.000000	96.357	162.4144
233.000000	96.307	162.3200
236.000000	96.238	162.3087
240.000000	96.155	162.4446
243.000000	96.124	162.5044
247.000000	96.084	162.3971
250.000000	96.032	162.2964
254.000000	95.958	162.3469
258.000000	95.903	162.5682
262.000000	95.867	162.6540
265.000000	95.840	162.5817
269.000000	95.787	162.4169
272.000000	95.726	162.3212
276.000000	95.640	162.4595
280.000000	95.582	162.9228
285.000000	95.551	163.5087
290.000000	95.573	163.6500
295.000000	95.587	163.2486
300.000000	95.531	162.6045
304.000000	95.418	162.2160
307.000000	95.302	162.1469
311.000000	95.137	162.4159
315.000000	94.990	163.0114
320.000000	94.861	164.0388
325.000000	94.780	165.0643
330.000000	94.734	165.8036
335.000000	94.703	166.3481
340.000000	94.649	166.7495
345.000000	94.580	166.9551
350.000000	94.502	166.7755
355.000000	94.433	166.3426
360.000000	94.393	165.6288
365.000000	94.406	164.7660
370.000000	94.493	164.0745
375.000000	94.643	163.9953
382.000000	94.853	165.1297
387.000000	94.883	166.6390
395.000000	94.654	168.3600
400.000000	94.467	168.2558
406.000000	94.397	167.5668
412.000000	94.464	167.5127
418.000000	94.483	168.2338
425.000000	94.391	168.7710
431.000000	94.339	168.9290
437.000000	94.316	169.2679
444.000000	94.277	169.6510
450.000000	94.250	170.0106
455.000000	94.231	170.4105
462.000000	94.190	170.7149
468.000000	94.168	171.0640
475.000000	94.153	171.5031
482.000000	94.125	171.7421
487.000000	94.097	172.0220
494.000000	94.085	172.4416
500.000000	94.078	172.7149
508.000000	94.057	173.1180
515.000000	94.040	173.5630
522.000000	94.024	173.9949
530.000000	94.003	174.4601
538.000000	93.987	174.8800
545.000000	93.979	175.2712
552.000000	93.970	175.6838
560.000000	93.953	176.1522
570.000000	93.927	176.7734
580.000000	93.915	177.3200
590.000000	93.913	177.8702
600.000000	93.908	178.5745
608.000000	93.904	179.0823
615.000000	93.899	179.4999
622.000000	93.894	179.9067
630.000000	93.889	-179.6201
640.000000	93.886	-179.0028
650.000000	93.887	-178.3887
660.000000	93.897	-177.7946
670.000000	93.908	-177.1918
680.000000	93.927	-176.5521
690.000000	93.945	-175.8800
700.000000	93.959	-175.2571
710.000000	93.974	-174.6530
720.000000	93.986	-174.0309
730.000000	94.001	-173.4162
740.000000	94.025	-172.8038
750.000000	94.056	-172.1516
762.000000	94.099	-171.3716
775.000000	94.148	-170.5675
788.000000	94.197	-169.6862
800.000000	94.249	-168.9109
812.000000	94.296	-168.1609
825.000000	94.355	-167.3630
838.000000	94.428	-166.5963
850.000000	94.501	-165.8864
862.000000	94.580	-165.1772
875.000000	94.672	-164.4256
885.000000	94.743	-163.8683
900.000000	94.849	-163.0798
912.000000	94.939	-162.4776
925.000000	95.043	-161.8139
938.000000	95.159	-161.1392
950.000000	95.268	-160.5492
962.000000	95.374	-160.0256
975.000000	95.494	-159.5379
988.000000	95.622	-159.0917
1000.000000	95.743	-158.6826
1015.000000	95.893	-158.1705
1030.000000	96.038	-157.7121
1044.000000	96.177	-157.3497
1060.000000	96.343	-157.0107
1075.000000	96.501	-156.7572
1090.000000	96.658	-156.5296
1106.000000	96.826	-156.3199
1120.000000	96.977	-156.1924
1138.000000	97.175	-156.0669
1150.000000	97.303	-155.9959
1172.000000	97.531	-155.9096
1180.000000	97.612	-155.9034
1206.000000	97.875	-155.9315
1220.000000	98.017	-155.9817
1241.000000	98.223	-156.0916
1250.000000	98.310	-156.1408
1265.000000	98.453	-156.2356
1280.000000	98.595	-156.3615
1315.000000	98.925	-156.7097
1320.000000	98.971	-156.7630
1340.000000	99.155	-156.9939
1360.000000	99.331	-157.2492
1380.000000	99.507	-157.5213
1400.000000	99.691	-157.8212
1430.000000	99.970	-158.3068
1450.000000	100.156	-158.6871
1475.000000	100.389	-159.2197
1500.000000	100.619	-159.7874
1525.000000	100.849	-160.4191
1550.000000	101.077	-161.1227
1575.000000	101.304	-161.9137
1600.000000	101.531	-162.7844
1625.000000	101.753	-163.7177
1650.000000	101.973	-164.7387
1675.000000	102.187	-165.8780
1700.000000	102.394	-167.1192
1725.000000	102.589	-168.4463
1750.000000	102.771	-169.8652
1775.000000	102.940	-171.3778
1800.000000	103.097	-172.9910
1825.000000	103.237	-174.6946
1850.000000	103.360	-176.4753
1875.000000	103.462	-178.3144
1900.000000	103.542	179.8008
1925.000000	103.600	177.8666
1950.000000	103.636	175.9051
1975.000000	103.647	173.9454
2000.000000	103.633	172.0067
2030.000000	103.587	169.7136
2060.000000	103.508	167.4864
2090.000000	103.398	165.3616
2120.000000	103.260	163.3598
2140.000000	103.156	162.0994
2180.000000	102.922	159.7611
2200.000000	102.791	158.6991
2240.000000	102.509	156.7876
2270.000000	102.285	155.5363
2300.000000	102.054	154.4403
2330.000000	101.816	153.4863
2360.000000	101.575	152.6740
2400.000000	101.255	151.8176
2430.000000	101.017	151.3202
2470.000000	100.702	150.8353
2500.000000	100.468	150.6072
2540.000000	100.163	150.4573
2580.000000	99.869	150.4419
2620.000000	99.585	150.5663
2650.000000	99.375	150.7564
2690.000000	99.104	151.1158
2720.000000	98.911	151.4480
2760.000000	98.665	151.9793
2800.000000	98.427	152.5724
2850.000000	98.144	153.4415
2900.000000	97.876	154.4457
2950.000000	97.626	155.4877
3000.000000	97.389	156.6077
3040.000000	97.213	157.5677
3070.000000	97.088	158.3060
3110.000000	96.928	159.3087
3150.000000	96.776	160.3423
3200.000000	96.597	161.6714
3250.000000	96.435	163.0465
3300.000000	96.280	164.4688
3350.000000	96.136	165.9101
3400.000000	96.005	167.3399
3450.000000	95.892	168.7987
3500.000000	95.791	170.3111
3550.000000	95.701	171.8314
3600.000000	95.625	173.3292
3650.000000	95.556	174.8416
3700.000000	95.496	176.3816
3750.000000	95.443	177.9108
3820.000000	95.380	179.9951
3870.000000	95.340	-178.5090
3950.000000	95.294	-176.0523
4000.000000	95.274	-174.5235
4060.000000	95.257	-172.7167
4120.000000	95.250	-170.9347
4180.000000	95.254	-169.1602
4250.000000	95.272	-167.0811
4310.000000	95.294	-165.2937
4370.000000	95.317	-163.5608
4440.000000	95.345	-161.5797
4500.000000	95.377	-159.8966
4550.000000	95.412	-158.5137
4620.000000	95.475	-156.6171
4680.000000	95.543	-155.0063
4750.000000	95.635	-153.1679
4820.000000	95.740	-151.3762
4870.000000	95.817	-150.1143
4940.000000	95.931	-148.3659
5000.000000	96.042	-146.9090
5080.000000	96.206	-145.0430
5150.000000	96.364	-143.4534
5220.000000	96.533	-141.9272
5300.000000	96.741	-140.2695
5380.000000	96.966	-138.6876
5450.000000	97.174	-137.3715
5520.000000	97.392	-136.1312
5600.000000	97.655	-134.8209
5700.000000	98.002	-133.3236
5800.000000	98.365	-131.9731
5900.000000	98.746	-130.8045
6000.000000	99.145	-129.8119
6080.000000	99.473	-129.1392
6150.000000	99.768	-128.6458
6220.000000	100.069	-128.2426
6300.000000	100.419	-127.8906
6400.000000	100.863	-127.6258
6500.000000	101.311	-127.5414
6600.000000	101.763	-127.6322
6700.000000	102.220	-127.8972
6800.000000	102.688	-128.3392
6900.000000	103.181	-128.9753
7000.000000	103.702	-129.7923
7100.000000	104.240	-130.8255
7200.000000	104.794	-132.1473
7300.000000	105.360	-133.8373
7400.000000	105.932	-135.9777
7500.000000	106.504	-138.6670
7620.000000	107.174	-142.7735
7750.000000	107.820	-148.4380
7880.000000	108.238	-155.3466
8000.000000	108.371	-162.5225
8120.000000	108.242	-169.9139
8250.000000	107.812	-177.4149
8380.000000	107.136	176.2732
8500.000000	106.368	171.8075
8620.000000	105.532	168.6730
8750.000000	104.612	166.6203
8850.000000	103.926	165.8370
9000.000000	102.980	165.6418
9120.000000	102.313	166.0843
9250.000000	101.693	166.9449
9380.000000	101.181	168.0205
9500.000000	100.802	169.0399
9620.000000	100.511	169.9431
9750.000000	100.294	170.6468
9880.000000	100.169	170.8804
10000.000000	100.125	170.4715
10150.000000	100.133	168.8513
10300.000000	100.134	165.8162
10440.000000	100.044	161.6174
10600.000000	99.727	155.4555
10750.000000	99.136	149.0923
10900.000000	98.235	143.1693
11060.000000	96.989	138.2626
11200.000000	95.745	135.5579
11380.000000	94.062	134.3353
11500.000000	92.951	134.7965
11720.000000	91.036	137.7285
11800.000000	90.393	139.3174
12060.000000	88.524	146.0312
12200.000000	87.658	150.4446
12410.000000	86.528	157.6711
12500.000000	86.111	160.9360
12650.000000	85.515	166.5712
12800.000000	85.042	172.3351
13150.000000	84.426	-174.5471
13200.000000	84.392	-172.7462
13400.000000	84.383	-165.7604
13600.000000	84.564	-159.3181
13800.000000	84.924	-153.7043
14000.000000	85.466	-149.0282
14300.000000	86.574	-144.0098
14500.000000	87.502	-142.2390
14750.000000	88.882	-142.2616
15000.000000	90.468	-145.4143
15250.000000	92.204	-152.5175
15500.000000	93.937	-164.7605
15750.000000	95.298	177.0593
16000.000000	95.871	154.2842
16250.000000	95.506	130.7664
16500.000000	94.412	110.0862
16750.000000	92.979	93.1610
17000.000000	91.549	78.9640
17250.000000	90.314	66.0416
17500.000000	89.340	53.1009
17750.000000	88.613	39.0540
18000.000000	88.058	22.7510
18250.000000	87.568	2.9949
18500.000000	86.969	-21.5246
18750.000000	86.019	-53.5201
19000.000000	84.494	-107.4474
19250.000000	82.280	131.9447
19500.000000	79.366	-48.7014
19750.000000	75.936	-171.9735
20000.000000	73.194	144.0083
