* Measurement data measured by REW V5.20.13
* Source: USB-C to 3.5mm Headphone Jack Adapter, USB-C to 3.5mm Headphone Jack Adapter, 0, volume: 1.000
* Format: 256k Log Swept Sine, 1 sweep at -12.0 dBFS with no timing reference
* Dated: 2022. 11. 13 ¿ÀÈÄ 12:59:24
* REW Settings:
*  C-weighting compensation: Off
*  Target level: 75.0 dB
* Note: 
* Measurement: Nov 13
* Smoothing: 1/24 octave
* Frequency Step: 1/48 octave
* Start Frequency: 20.300 Hz
*
* Freq(Hz)	SPL(dB)	Phase(degrees)
20.299999	101.209	-107.7382
20.600000	101.286	-108.7307
20.900000	101.410	-110.4964
21.200001	101.455	-112.1134
21.400000	101.447	-113.0086
21.799999	101.385	-114.3334
22.000000	101.356	-114.7807
22.400000	101.339	-115.3807
22.700001	101.373	-115.8038
23.000000	101.437	-116.4191
23.299999	101.504	-117.2857
23.600000	101.555	-118.3478
24.000000	101.582	-119.8755
24.299999	101.579	-120.9353
24.700001	101.571	-122.1201
25.000000	101.583	-122.8740
25.400000	101.637	-123.8523
25.799999	101.722	-124.9828
26.200001	101.809	-126.3244
26.500000	101.860	-127.4067
26.900000	101.899	-128.8139
27.200001	101.914	-129.7511
27.600000	101.933	-130.7893
28.000000	101.972	-131.6418
28.500000	102.063	-132.6741
29.000000	102.172	-133.9197
29.500000	102.254	-135.3974
30.000000	102.283	-136.8659
30.400000	102.280	-137.8502
30.700001	102.275	-138.4437
31.100000	102.285	-139.1062
31.500000	102.319	-139.7490
32.000000	102.382	-140.7114
32.500000	102.439	-141.9003
33.000000	102.469	-143.1850
33.500000	102.479	-144.4087
34.000000	102.487	-145.5098
34.500000	102.503	-146.5364
35.000000	102.530	-147.5613
35.500000	102.560	-148.6147
36.000000	102.584	-149.6620
36.500000	102.603	-150.6469
37.000000	102.626	-151.5501
37.500000	102.656	-152.4149
38.200001	102.699	-153.6712
38.700001	102.717	-154.5932
39.500000	102.723	-155.9251
40.000000	102.729	-156.6480
40.599998	102.750	-157.5180
41.200001	102.773	-158.4901
41.799999	102.783	-159.5240
42.500000	102.782	-160.6915
43.099998	102.784	-161.6541
43.700001	102.786	-162.6287
44.400002	102.784	-163.7532
45.000000	102.782	-164.6502
45.500000	102.789	-165.3777
46.200001	102.808	-166.4811
46.799999	102.813	-167.5242
47.500000	102.796	-168.6899
48.200001	102.776	-169.6938
48.700001	102.771	-170.3780
49.400002	102.767	-171.3916
50.000000	102.751	-172.2433
50.799999	102.730	-173.2042
51.500000	102.736	-174.0071
52.200001	102.745	-174.9357
53.000000	102.729	-175.9941
53.799999	102.709	-176.8909
54.500000	102.701	-177.6917
55.200001	102.682	-178.5638
56.000000	102.643	-179.5396
57.000000	102.576	179.2556
58.000000	102.483	178.2984
59.000000	102.456	177.5925
60.000000	102.475	176.3677
60.799999	102.447	175.1862
61.500000	102.404	174.2880
62.200001	102.366	173.5004
63.000000	102.328	172.6607
64.000000	102.286	171.6523
65.000000	102.238	170.6339
66.000000	102.179	169.6477
67.000000	102.115	168.6853
68.000000	102.049	167.7293
69.000000	101.985	166.7657
70.000000	101.920	165.8108
71.000000	101.860	164.9144
72.000000	101.808	164.0366
73.000000	101.755	163.1650
74.000000	101.695	162.3051
75.000000	101.620	161.4666
76.199997	101.512	160.5839
77.500000	101.402	159.7413
78.800003	101.312	158.8343
80.000000	101.227	157.8514
81.199997	101.130	156.9048
82.500000	101.031	155.9738
83.800003	100.935	155.0700
85.000000	100.841	154.2959
86.199997	100.746	153.5812
87.500000	100.643	152.8168
88.500000	100.560	152.2242
90.000000	100.432	151.3726
91.199997	100.334	150.7149
92.500000	100.227	149.9969
93.800003	100.117	149.3170
95.000000	100.015	148.7421
96.199997	99.916	148.2119
97.500000	99.813	147.6515
98.800003	99.709	147.0968
100.000000	99.611	146.6324
101.500000	99.492	146.0815
103.000000	99.367	145.5507
104.400002	99.251	145.0820
106.000000	99.119	144.5085
107.500000	98.990	143.9619
109.000000	98.864	143.4794
110.599998	98.743	142.9775
112.000000	98.637	142.5134
113.800003	98.493	141.9449
115.000000	98.394	141.6057
117.199997	98.213	141.1464
118.000000	98.154	141.0300
120.599998	97.987	140.4703
122.000000	97.878	140.1003
124.099998	97.708	139.6480
125.000000	97.637	139.4641
126.500000	97.520	139.1990
128.000000	97.412	138.9958
131.500000	97.175	138.5163
132.000000	97.139	138.4579
134.000000	96.996	138.2317
136.000000	96.848	137.9442
138.000000	96.698	137.6548
140.000000	96.559	137.3540
143.000000	96.349	136.9104
145.000000	96.205	136.7867
147.500000	96.037	136.6536
150.000000	95.857	136.4118
152.500000	95.675	136.2296
155.000000	95.511	136.0295
157.500000	95.348	135.7654
160.000000	95.180	135.5923
162.500000	95.001	135.5551
165.000000	94.817	135.6179
167.500000	94.632	135.6442
170.000000	94.454	135.7177
172.500000	94.288	135.8302
175.000000	94.110	135.9210
177.500000	93.927	136.0216
180.000000	93.752	136.1019
182.500000	93.582	136.2248
185.000000	93.404	136.4250
187.500000	93.217	136.7029
190.000000	93.025	137.0131
192.500000	92.844	137.3412
195.000000	92.681	137.6299
197.500000	92.514	137.9402
200.000000	92.339	138.3614
203.000000	92.123	138.9831
206.000000	91.912	139.7796
209.000000	91.725	140.6271
212.000000	91.540	141.3846
214.000000	91.417	141.9049
218.000000	91.186	143.1693
220.000000	91.080	143.8914
224.000000	90.863	145.3453
227.000000	90.687	146.5045
230.000000	90.525	147.6979
233.000000	90.406	148.8573
236.000000	90.308	150.0073
240.000000	90.149	151.7148
243.000000	90.042	153.1439
247.000000	89.965	155.0442
250.000000	89.921	156.2841
254.000000	89.846	157.8225
258.000000	89.795	159.6132
262.000000	89.803	161.4959
265.000000	89.828	162.7111
269.000000	89.854	164.0890
272.000000	89.870	165.0453
276.000000	89.893	166.3556
280.000000	89.940	167.7871
285.000000	90.035	169.6537
290.000000	90.163	170.9643
295.000000	90.302	171.7404
300.000000	90.411	172.6979
304.000000	90.456	173.5106
307.000000	90.482	174.0722
311.000000	90.524	174.7798
315.000000	90.565	175.4966
320.000000	90.640	176.4273
325.000000	90.738	177.2172
330.000000	90.839	177.9202
335.000000	90.923	178.6113
340.000000	91.011	179.1943
345.000000	91.097	179.5715
350.000000	91.171	179.8660
355.000000	91.232	-179.8982
360.000000	91.285	-179.6512
365.000000	91.346	-179.4822
370.000000	91.422	-179.3271
375.000000	91.506	-179.1553
382.000000	91.617	-178.6367
387.000000	91.673	-178.0261
395.000000	91.685	-177.3006
400.000000	91.670	-177.2060
406.000000	91.702	-177.2236
412.000000	91.779	-177.0408
418.000000	91.824	-176.5462
425.000000	91.826	-176.1011
431.000000	91.853	-175.9467
437.000000	91.909	-175.6380
444.000000	91.942	-175.1945
450.000000	91.965	-174.9464
455.000000	91.996	-174.7365
462.000000	92.023	-174.4299
468.000000	92.038	-174.1677
475.000000	92.065	-173.7731
482.000000	92.089	-173.4613
487.000000	92.105	-173.2615
494.000000	92.124	-172.9210
500.000000	92.147	-172.6314
508.000000	92.175	-172.1935
515.000000	92.191	-171.8089
522.000000	92.211	-171.4830
530.000000	92.236	-171.0712
538.000000	92.256	-170.5954
545.000000	92.280	-170.2074
552.000000	92.310	-169.8368
560.000000	92.341	-169.4163
570.000000	92.367	-168.8960
580.000000	92.388	-168.3999
590.000000	92.406	-167.8230
600.000000	92.438	-167.1598
608.000000	92.469	-166.7043
615.000000	92.504	-166.3157
622.000000	92.537	-165.9043
630.000000	92.565	-165.3929
640.000000	92.594	-164.7757
650.000000	92.619	-164.2156
660.000000	92.660	-163.5649
670.000000	92.702	-162.9626
680.000000	92.736	-162.3306
690.000000	92.779	-161.6091
700.000000	92.830	-160.9930
710.000000	92.884	-160.3963
720.000000	92.931	-159.7025
730.000000	92.969	-159.0065
740.000000	93.016	-158.3519
750.000000	93.079	-157.7242
762.000000	93.154	-156.9248
775.000000	93.232	-156.0445
788.000000	93.320	-155.1380
800.000000	93.402	-154.3041
812.000000	93.487	-153.5400
825.000000	93.585	-152.6992
838.000000	93.695	-151.8256
850.000000	93.802	-151.0334
862.000000	93.918	-150.2703
875.000000	94.053	-149.4767
885.000000	94.151	-148.8851
900.000000	94.292	-148.0053
912.000000	94.418	-147.3069
925.000000	94.567	-146.5688
938.000000	94.721	-145.8486
950.000000	94.861	-145.2339
962.000000	95.005	-144.6859
975.000000	95.171	-144.1339
988.000000	95.341	-143.6127
1000.000000	95.501	-143.1512
1015.000000	95.704	-142.6026
1030.000000	95.909	-142.1369
1044.000000	96.103	-141.7569
1060.000000	96.325	-141.3442
1075.000000	96.529	-141.0310
1090.000000	96.742	-140.8062
1106.000000	96.981	-140.5925
1120.000000	97.188	-140.4600
1138.000000	97.454	-140.3721
1150.000000	97.635	-140.3435
1172.000000	97.961	-140.3460
1180.000000	98.076	-140.3671
1206.000000	98.452	-140.5490
1220.000000	98.653	-140.6819
1241.000000	98.951	-140.9345
1250.000000	99.078	-141.0700
1265.000000	99.292	-141.3157
1280.000000	99.505	-141.6126
1315.000000	99.987	-142.4723
1320.000000	100.055	-142.6033
1340.000000	100.322	-143.1706
1360.000000	100.584	-143.8170
1380.000000	100.843	-144.5125
1400.000000	101.102	-145.2544
1430.000000	101.483	-146.5134
1450.000000	101.729	-147.4383
1475.000000	102.029	-148.6803
1500.000000	102.319	-149.9848
1525.000000	102.596	-151.3572
1550.000000	102.860	-152.8437
1575.000000	103.113	-154.4133
1600.000000	103.353	-156.0432
1625.000000	103.581	-157.7452
1650.000000	103.793	-159.4951
1675.000000	103.991	-161.2977
1700.000000	104.175	-163.1620
1725.000000	104.344	-165.0795
1750.000000	104.497	-167.0477
1775.000000	104.634	-169.0700
1800.000000	104.754	-171.1355
1825.000000	104.855	-173.2364
1850.000000	104.940	-175.3770
1875.000000	105.006	-177.5528
1900.000000	105.053	-179.7553
1925.000000	105.078	178.0283
1950.000000	105.082	175.8099
1975.000000	105.065	173.5987
2000.000000	105.023	171.3904
2030.000000	104.941	168.7829
2060.000000	104.827	166.2744
2090.000000	104.685	163.8748
2120.000000	104.514	161.5927
2140.000000	104.386	160.1558
2180.000000	104.101	157.4943
2200.000000	103.945	156.2629
2240.000000	103.608	154.0317
2270.000000	103.342	152.5776
2300.000000	103.067	151.2976
2330.000000	102.785	150.1787
2360.000000	102.499	149.2225
2400.000000	102.117	148.1982
2430.000000	101.832	147.6036
2470.000000	101.458	147.0158
2500.000000	101.182	146.7161
2540.000000	100.822	146.4893
2580.000000	100.474	146.4617
2620.000000	100.138	146.5944
2650.000000	99.891	146.7818
2690.000000	99.574	147.1523
2720.000000	99.346	147.5059
2760.000000	99.055	148.0866
2800.000000	98.775	148.7644
2850.000000	98.443	149.7081
2900.000000	98.131	150.7801
2950.000000	97.836	151.9500
3000.000000	97.559	153.2246
3040.000000	97.349	154.3029
3070.000000	97.201	155.1279
3110.000000	97.014	156.2356
3150.000000	96.835	157.3750
3200.000000	96.622	158.8668
3250.000000	96.430	160.4171
3300.000000	96.253	161.9918
3350.000000	96.083	163.5945
3400.000000	95.928	165.2196
3450.000000	95.791	166.8742
3500.000000	95.676	168.5450
3550.000000	95.576	170.2058
3600.000000	95.481	171.8569
3650.000000	95.393	173.5422
3700.000000	95.315	175.2603
3750.000000	95.250	176.9572
3820.000000	95.176	179.3167
3870.000000	95.127	-178.9676
3950.000000	95.065	-176.2296
4000.000000	95.036	-174.5441
4060.000000	95.013	-172.5255
4120.000000	95.002	-170.4976
4180.000000	95.001	-168.4682
4250.000000	95.011	-166.1284
4310.000000	95.026	-164.1674
4370.000000	95.045	-162.2329
4440.000000	95.080	-159.9671
4500.000000	95.120	-158.0324
4550.000000	95.160	-156.4433
4620.000000	95.227	-154.2819
4680.000000	95.298	-152.4660
4750.000000	95.396	-150.3644
4820.000000	95.506	-148.2833
4870.000000	95.590	-146.8285
4940.000000	95.719	-144.8348
5000.000000	95.841	-143.1682
5080.000000	96.026	-140.9913
5150.000000	96.204	-139.1361
5220.000000	96.396	-137.3491
5300.000000	96.630	-135.3854
5380.000000	96.879	-133.5318
5450.000000	97.114	-131.9645
5520.000000	97.363	-130.4679
5600.000000	97.662	-128.8483
5700.000000	98.057	-126.9704
5800.000000	98.474	-125.2805
5900.000000	98.910	-123.7501
6000.000000	99.368	-122.4005
6080.000000	99.748	-121.4533
6150.000000	100.092	-120.7228
6220.000000	100.445	-120.0873
6300.000000	100.858	-119.4788
6400.000000	101.391	-118.9043
6500.000000	101.939	-118.5694
6600.000000	102.496	-118.4895
6700.000000	103.060	-118.6626
6800.000000	103.634	-119.0752
6900.000000	104.232	-119.7451
7000.000000	104.856	-120.6667
7100.000000	105.494	-121.8468
7200.000000	106.143	-123.3485
7300.000000	106.801	-125.2632
7400.000000	107.463	-127.6774
7500.000000	108.120	-130.6929
7620.000000	108.888	-135.2762
7750.000000	109.624	-141.5900
7880.000000	110.106	-149.2819
8000.000000	110.268	-157.2681
8120.000000	110.133	-165.4459
8250.000000	109.663	-173.6465
8380.000000	108.924	179.5842
8500.000000	108.092	174.9145
8620.000000	107.195	171.7355
8750.000000	106.220	169.7388
8850.000000	105.501	169.0289
9000.000000	104.514	168.9772
9120.000000	103.815	169.5773
9250.000000	103.155	170.6517
9380.000000	102.596	171.9953
9500.000000	102.168	173.3736
9620.000000	101.822	174.7838
9750.000000	101.543	176.2035
9880.000000	101.362	177.3788
10000.000000	101.279	178.1797
10150.000000	101.281	178.6149
10300.000000	101.371	178.1185
10440.000000	101.504	176.5773
10600.000000	101.648	173.2845
10750.000000	101.689	168.6287
10900.000000	101.534	162.6833
11060.000000	101.064	155.6589
11200.000000	100.372	149.7902
11380.000000	99.149	143.7523
11500.000000	98.192	141.0560
11720.000000	96.330	139.0005
11800.000000	95.657	139.0852
12060.000000	93.608	141.7422
12200.000000	92.620	144.3322
12410.000000	91.299	149.3512
12500.000000	90.797	151.8387
12650.000000	90.053	156.2963
12800.000000	89.431	161.0326
13150.000000	88.445	172.6321
13200.000000	88.359	174.3093
13400.000000	88.154	-179.1496
13600.000000	88.146	-173.0519
13800.000000	88.335	-167.5521
14000.000000	88.702	-162.7845
14300.000000	89.548	-157.1292
14500.000000	90.311	-154.5970
14750.000000	91.489	-153.2172
15000.000000	92.943	-154.2008
15250.000000	94.713	-158.2931
15500.000000	96.790	-166.9544
15750.000000	98.862	177.5963
16000.000000	100.281	153.7828
16250.000000	100.454	124.6069
16500.000000	99.319	97.3605
16750.000000	97.381	76.3026
17000.000000	95.269	60.5414
17250.000000	93.369	47.6503
17500.000000	91.807	35.7795
17750.000000	90.554	23.7178
18000.000000	89.540	10.5969
18250.000000	88.733	-4.4197
18500.000000	88.099	-22.3003
18750.000000	87.573	-44.3783
19000.000000	87.015	-72.2526
19250.000000	86.180	-107.3127
19500.000000	84.753	-149.2309
19750.000000	82.634	167.9314
20000.000000	80.773	141.4387
