* Measurement data measured by REW V5.20.7
* Source: Mic in at rear panel (Pink)(Realtek(R) Audio), MICROPHONE (마스), L, volume: 1.000
* Format: 128k Log Swept Sine, 1 sweep at -12.0 dBFS with no timing reference
* Dated: 2022. 5. 9 오후 1:36:04
* REW Settings:
*  C-weighting compensation: Off
*  Target level: 75.0 dB
* Note: 
* Measurement: L_01
* Smoothing: 1/24 octave
* Frequency Step: 1/48 octave
* Start Frequency: 20.300 Hz
*
* Freq(Hz)	SPL(dB)	Phase(degrees)
20.299999	88.157	178.9572
20.600000	88.145	178.7200
20.900000	88.117	178.3071
21.200001	88.086	177.9397
21.400000	88.066	177.7098
21.799999	88.022	177.2379
22.000000	87.998	176.9803
22.400000	87.946	176.4211
22.700001	87.909	175.9776
23.000000	87.873	175.5327
23.299999	87.837	175.1054
23.600000	87.801	174.7047
24.000000	87.758	174.2098
24.299999	87.735	173.8528
24.700001	87.714	173.3704
25.000000	87.702	172.9925
25.400000	87.686	172.4692
25.799999	87.671	171.9428
26.200001	87.655	171.4325
26.500000	87.642	171.0638
26.900000	87.617	170.5885
27.200001	87.593	170.2442
27.600000	87.551	169.8097
28.000000	87.500	169.4208
28.500000	87.427	169.0090
29.000000	87.359	168.6393
29.500000	87.299	168.2433
30.000000	87.238	167.7893
30.400000	87.184	167.4030
30.700001	87.145	167.1143
31.100000	87.099	166.7398
31.500000	87.057	166.3774
32.000000	87.010	165.9466
32.500000	86.974	165.5521
33.000000	86.954	165.1716
33.500000	86.941	164.7423
34.000000	86.918	164.2527
34.500000	86.877	163.8232
35.000000	86.829	163.5818
35.500000	86.803	163.4706
36.000000	86.796	163.2667
36.500000	86.772	162.8774
37.000000	86.703	162.4980
37.500000	86.609	162.3471
38.200001	86.513	162.2707
38.700001	86.450	161.9494
39.500000	86.212	161.5827
40.000000	86.041	162.1728
40.599998	85.993	163.3748
41.200001	86.117	163.7058
41.799999	86.214	162.6771
42.500000	86.142	161.0399
43.099998	86.019	160.2910
43.700001	85.953	159.9082
44.400002	85.927	159.3317
45.000000	85.888	158.8080
45.500000	85.851	158.5256
46.200001	85.818	158.2785
46.799999	85.800	158.0477
47.500000	85.771	157.7772
48.200001	85.736	157.5689
48.700001	85.705	157.4414
49.400002	85.643	157.2869
50.000000	85.575	157.1940
50.799999	85.479	157.0987
51.500000	85.396	157.0067
52.200001	85.324	156.9012
53.000000	85.268	156.7279
53.799999	85.229	156.4498
54.500000	85.193	156.1535
55.200001	85.149	155.8928
56.000000	85.096	155.7183
57.000000	85.036	155.6626
58.000000	84.969	155.6349
59.000000	84.873	155.6945
60.000000	84.795	155.9267
60.799999	84.768	155.9298
61.500000	84.739	155.6679
62.200001	84.679	155.3110
63.000000	84.584	155.0158
64.000000	84.478	154.9348
65.000000	84.438	154.9943
66.000000	84.446	154.7958
67.000000	84.421	154.4374
68.000000	84.367	154.2818
69.000000	84.302	154.2545
70.000000	84.223	154.2677
71.000000	84.143	154.2826
72.000000	84.065	154.2299
73.000000	83.990	154.1491
74.000000	83.934	154.0478
75.000000	83.901	153.9182
76.199997	83.885	153.7146
77.500000	83.861	153.5394
78.800003	83.826	153.4638
80.000000	83.767	153.4691
81.199997	83.686	153.4761
82.500000	83.570	153.5439
83.800003	83.484	153.7314
85.000000	83.447	153.8566
86.199997	83.426	153.8325
87.500000	83.391	153.7741
88.500000	83.355	153.7351
90.000000	83.284	153.7713
91.199997	83.225	153.7698
92.500000	83.151	153.7731
93.800003	83.096	153.8583
95.000000	83.071	153.9427
96.199997	83.059	154.0095
97.500000	83.044	154.0046
98.800003	82.994	153.9619
100.000000	82.923	154.0170
101.500000	82.836	154.1025
103.000000	82.762	154.1143
104.400002	82.715	154.0911
106.000000	82.674	154.0556
107.500000	82.640	154.1134
109.000000	82.607	154.1979
110.599998	82.560	154.3116
112.000000	82.517	154.3909
113.800003	82.450	154.4240
115.000000	82.405	154.4513
117.199997	82.339	154.1519
118.000000	82.296	153.9115
120.599998	82.112	154.0212
122.000000	82.113	154.5028
124.099998	82.147	154.8869
125.000000	82.145	155.0187
126.500000	82.118	155.1985
128.000000	82.064	155.2776
131.500000	81.916	155.4847
132.000000	81.909	155.5403
134.000000	81.905	155.6382
136.000000	81.885	155.7070
138.000000	81.853	155.8004
140.000000	81.817	155.8352
143.000000	81.785	155.8539
145.000000	81.767	155.8765
147.500000	81.718	156.0168
150.000000	81.652	156.2270
152.500000	81.583	156.4392
155.000000	81.525	156.5954
157.500000	81.484	156.7349
160.000000	81.463	156.9001
162.500000	81.437	157.0643
165.000000	81.391	157.1683
167.500000	81.358	157.2393
170.000000	81.341	157.3630
172.500000	81.310	157.7865
175.000000	81.277	158.1632
177.500000	81.204	158.1418
180.000000	81.113	158.2126
182.500000	81.034	158.4757
185.000000	80.952	159.0071
187.500000	80.898	159.6746
190.000000	80.884	160.2922
192.500000	80.912	160.7431
195.000000	80.939	161.0516
197.500000	80.960	161.3253
200.000000	80.970	161.2989
203.000000	81.005	161.1194
206.000000	81.109	161.1499
209.000000	81.174	161.6917
212.000000	81.197	161.8127
214.000000	81.177	161.2438
218.000000	81.128	160.3313
220.000000	81.106	160.3137
224.000000	80.944	160.4188
227.000000	80.820	160.2803
230.000000	80.841	160.1940
233.000000	80.920	160.2289
236.000000	80.936	160.3011
240.000000	80.902	160.2638
243.000000	80.894	160.3360
247.000000	80.891	160.4666
250.000000	80.868	160.5499
254.000000	80.823	160.7198
258.000000	80.780	160.7957
262.000000	80.756	160.8939
265.000000	80.746	160.9843
269.000000	80.717	161.0568
272.000000	80.695	161.1220
276.000000	80.678	161.2381
280.000000	80.649	161.4082
285.000000	80.610	161.5955
290.000000	80.575	161.7467
295.000000	80.546	161.8569
300.000000	80.519	161.9138
304.000000	80.485	162.0112
307.000000	80.462	162.0951
311.000000	80.440	162.1941
315.000000	80.422	162.3150
320.000000	80.395	162.4520
325.000000	80.366	162.5327
330.000000	80.345	162.6453
335.000000	80.327	162.8078
340.000000	80.311	162.9610
345.000000	80.295	163.1018
350.000000	80.268	163.3073
355.000000	80.233	163.5597
360.000000	80.190	163.7756
365.000000	80.154	163.9019
370.000000	80.127	164.0258
375.000000	80.103	164.2723
382.000000	80.059	164.7692
387.000000	80.021	165.1078
395.000000	79.958	165.6557
400.000000	79.929	166.1859
406.000000	79.924	167.0362
412.000000	79.983	167.8708
418.000000	80.094	168.4981
425.000000	80.233	168.6857
431.000000	80.319	168.2640
437.000000	80.348	167.7746
444.000000	80.341	167.4630
450.000000	80.316	167.3128
455.000000	80.289	167.2340
462.000000	80.255	167.1860
468.000000	80.233	167.1842
475.000000	80.211	167.2645
482.000000	80.182	167.3817
487.000000	80.163	167.4920
494.000000	80.147	167.7120
500.000000	80.136	167.9183
508.000000	80.113	168.2134
515.000000	80.092	168.4257
522.000000	80.076	168.6002
530.000000	80.067	168.8442
538.000000	80.061	169.1288
545.000000	80.051	169.3203
552.000000	80.038	169.5660
560.000000	80.033	169.9066
570.000000	80.034	170.2372
580.000000	80.041	170.5554
590.000000	80.027	170.8627
600.000000	80.013	171.1191
608.000000	80.020	171.3315
615.000000	80.029	171.5401
622.000000	80.033	171.7480
630.000000	80.034	171.9780
640.000000	80.043	172.2879
650.000000	80.042	172.6205
660.000000	80.040	172.9669
670.000000	80.039	173.3218
680.000000	80.040	173.6542
690.000000	80.048	173.9442
700.000000	80.054	174.2860
710.000000	80.056	174.6872
720.000000	80.062	175.0699
730.000000	80.074	175.4450
740.000000	80.091	175.8280
750.000000	80.105	176.2392
762.000000	80.129	176.7069
775.000000	80.153	177.1852
788.000000	80.181	177.6439
800.000000	80.219	178.1400
812.000000	80.260	178.6610
825.000000	80.293	179.1678
838.000000	80.338	179.6337
850.000000	80.384	-179.9376
862.000000	80.429	-179.5226
875.000000	80.484	-179.0724
885.000000	80.529	-178.7026
900.000000	80.588	-178.1230
912.000000	80.638	-177.7455
925.000000	80.701	-177.3612
938.000000	80.770	-176.9373
950.000000	80.835	-176.5809
962.000000	80.903	-176.2394
975.000000	80.976	-175.8759
988.000000	81.036	-175.5405
1000.000000	81.094	-175.2680
1015.000000	81.205	-175.0276
1030.000000	81.312	-174.7637
1044.000000	81.400	-174.4904
1060.000000	81.500	-174.2090
1075.000000	81.587	-174.0130
1090.000000	81.679	-173.8309
1106.000000	81.786	-173.6594
1120.000000	81.871	-173.5651
1138.000000	81.974	-173.4603
1150.000000	82.046	-173.3351
1172.000000	82.178	-173.0957
1180.000000	82.221	-173.0316
1206.000000	82.357	-172.8457
1220.000000	82.424	-172.7982
1241.000000	82.511	-172.7319
1250.000000	82.546	-172.7004
1265.000000	82.618	-172.6516
1280.000000	82.719	-172.6040
1315.000000	83.038	-172.4985
1320.000000	83.087	-172.4734
1340.000000	83.275	-172.3666
1360.000000	83.448	-172.2818
1380.000000	83.596	-172.1823
1400.000000	83.720	-172.0801
1430.000000	83.899	-171.9940
1450.000000	84.020	-171.9393
1475.000000	84.180	-171.8480
1500.000000	84.351	-171.7497
1525.000000	84.523	-171.6902
1550.000000	84.697	-171.6479
1575.000000	84.883	-171.6553
1600.000000	85.083	-171.7285
1625.000000	85.291	-171.9062
1650.000000	85.498	-172.1379
1675.000000	85.708	-172.4415
1700.000000	85.917	-172.8240
1725.000000	86.129	-173.3111
1750.000000	86.338	-173.9248
1775.000000	86.536	-174.6740
1800.000000	86.722	-175.5324
1825.000000	86.900	-176.4900
1850.000000	87.062	-177.5163
1875.000000	87.199	-178.5796
1900.000000	87.310	-179.6542
1925.000000	87.399	179.2901
1950.000000	87.469	178.2826
1975.000000	87.525	177.3454
2000.000000	87.571	176.4877
2030.000000	87.614	175.5978
2060.000000	87.650	174.8696
2090.000000	87.685	174.2880
2120.000000	87.726	173.8439
2140.000000	87.762	173.6002
2180.000000	87.854	173.1732
2200.000000	87.911	172.9870
2240.000000	88.044	172.6308
2270.000000	88.161	172.3053
2300.000000	88.289	171.8970
2330.000000	88.426	171.3968
2360.000000	88.574	170.7940
2400.000000	88.777	169.8146
2430.000000	88.926	168.9279
2470.000000	89.114	167.5580
2500.000000	89.242	166.4126
2540.000000	89.392	164.7048
2580.000000	89.510	162.7995
2620.000000	89.593	160.7557
2650.000000	89.632	159.1756
2690.000000	89.650	157.0406
2720.000000	89.634	155.4291
2760.000000	89.573	153.3073
2800.000000	89.470	151.2808
2850.000000	89.286	148.9430
2900.000000	89.058	146.8801
2950.000000	88.797	145.1236
3000.000000	88.512	143.6652
3040.000000	88.262	142.7441
3070.000000	88.065	142.2125
3110.000000	87.798	141.7301
3150.000000	87.531	141.4903
3200.000000	87.209	141.5552
3250.000000	86.916	141.9683
3300.000000	86.663	142.5735
3350.000000	86.436	143.3182
3400.000000	86.239	144.1936
3450.000000	86.077	145.1784
3500.000000	85.941	146.2228
3550.000000	85.827	147.2655
3600.000000	85.729	148.2692
3650.000000	85.639	149.2654
3700.000000	85.556	150.3156
3750.000000	85.485	151.4787
3820.000000	85.427	153.2443
3870.000000	85.419	154.5157
3950.000000	85.461	156.4182
4000.000000	85.514	157.5024
4060.000000	85.584	158.7290
4120.000000	85.652	159.9050
4180.000000	85.720	161.0497
4250.000000	85.804	162.3661
4310.000000	85.885	163.4758
4370.000000	85.996	164.5963
4440.000000	86.186	165.9404
4500.000000	86.405	167.0292
4550.000000	86.629	167.8435
4620.000000	86.995	168.7492
4680.000000	87.348	169.2309
4750.000000	87.799	169.3930
4820.000000	88.277	169.0510
4870.000000	88.627	168.4624
4940.000000	89.126	167.0983
5000.000000	89.548	165.3463
5080.000000	90.064	162.0401
5150.000000	90.425	158.2307
5220.000000	90.651	153.7127
5300.000000	90.700	148.1134
5380.000000	90.523	142.6491
5450.000000	90.213	138.3860
5520.000000	89.796	134.8359
5600.000000	89.239	131.7761
5700.000000	88.496	129.3584
5800.000000	87.764	128.2392
5900.000000	87.088	128.0917
6000.000000	86.500	128.6331
6080.000000	86.105	129.4311
6150.000000	85.809	130.3292
6220.000000	85.553	131.3493
6300.000000	85.301	132.6127
6400.000000	85.043	134.3282
6500.000000	84.850	136.1315
6600.000000	84.712	137.9022
6700.000000	84.628	139.5432
6800.000000	84.583	140.9992
6900.000000	84.559	142.2770
7000.000000	84.543	143.4456
7100.000000	84.529	144.5620
7200.000000	84.526	145.7804
7300.000000	84.554	147.1608
7400.000000	84.635	148.5994
7500.000000	84.781	149.9874
7620.000000	85.040	151.2820
7750.000000	85.373	151.7455
7880.000000	85.658	150.8121
8000.000000	85.783	148.5114
8120.000000	85.717	145.0687
8250.000000	85.386	140.6703
8380.000000	84.770	136.4204
8500.000000	83.982	133.3946
8620.000000	83.033	131.6776
8750.000000	81.902	131.4827
8850.000000	81.028	132.5058
9000.000000	79.818	135.6134
9120.000000	78.952	139.0902
9250.000000	78.132	143.5867
9380.000000	77.442	148.6044
9500.000000	76.906	153.5716
9620.000000	76.462	158.7607
9750.000000	76.094	164.5265
9880.000000	75.860	170.3097
10000.000000	75.757	175.5925
10150.000000	75.783	-177.9583
10300.000000	76.009	-171.8552
10440.000000	76.428	-166.7293
10600.000000	77.130	-162.0278
10750.000000	77.993	-159.4290
10900.000000	78.995	-159.6402
11060.000000	79.965	-164.2733
11200.000000	80.398	-172.1550
11380.000000	79.985	175.5629
11500.000000	79.065	169.1351
11720.000000	76.565	165.7784
11800.000000	75.617	167.0781
12060.000000	73.105	175.8566
12200.000000	72.091	-178.1225
12410.000000	70.876	-167.8478
12500.000000	70.477	-163.0074
12650.000000	69.993	-154.4941
12800.000000	69.752	-145.6691
13150.000000	70.044	-126.3774
13200.000000	70.151	-123.9559
13400.000000	70.643	-115.4852
13600.000000	71.144	-109.1352
13800.000000	71.540	-104.3347
14000.000000	71.830	-99.8752
14300.000000	72.304	-92.5118
14500.000000	72.819	-87.1009
14750.000000	73.879	-80.7113
15000.000000	75.517	-76.8324
15250.000000	77.525	-79.4629
15500.000000	79.068	-93.0630
15750.000000	79.160	-116.0972
16000.000000	77.408	-138.5895
16250.000000	73.997	-148.9533
16500.000000	69.683	-141.6260
16750.000000	66.326	-123.3207
17000.000000	65.446	-105.8341
17250.000000	65.774	-95.5983
17500.000000	65.963	-89.6360
17750.000000	66.093	-83.6985
18000.000000	66.534	-77.9985
18250.000000	67.313	-74.6758
18500.000000	68.154	-75.8039
18750.000000	68.591	-81.9597
19000.000000	68.233	-90.4048
19250.000000	67.101	-96.6096
19500.000000	65.482	-98.1435
19750.000000	63.683	-95.6254
20000.000000	62.425	-92.6386
