* Measurement data measured by REW V5.20.5
* Source: ??? (Realtek(R) Audio), MICROPHONE (Master Volume), L, volume: 0.250
* Format: 128k Log Swept Sine, 4 sweeps at -12.0 dBFS with no timing reference
* Dated: 08-Apr-2022 02:00:48
* REW Settings:
*  C-weighting compensation: Off
*  Target level: 75.0 dB
* Note: 
* Measurement: LG USB-C Earphones R
* Smoothing: 1/24 octave
* Frequency Step: 1/48 octave
* Start Frequency: 20.300 Hz
*
* Freq(Hz)	SPL(dB)	Phase(degrees)
20.299999	82.600	-174.5397
20.600000	82.590	-174.7886
20.900000	82.569	-175.2294
21.200001	82.546	-175.6401
21.400000	82.530	-175.9025
21.799999	82.496	-176.4326
22.000000	82.478	-176.7095
22.400000	82.440	-177.2827
22.700001	82.410	-177.7263
23.000000	82.379	-178.1817
23.299999	82.349	-178.6471
23.600000	82.321	-179.1198
24.000000	82.286	-179.7554
24.299999	82.264	179.7690
24.700001	82.237	179.1424
25.000000	82.219	178.6803
25.400000	82.197	178.0761
25.799999	82.177	177.4873
26.200001	82.158	176.9185
26.500000	82.142	176.5083
26.900000	82.118	175.9854
27.200001	82.098	175.6100
27.600000	82.070	175.1276
28.000000	82.041	174.6597
28.500000	82.001	174.0914
29.000000	81.957	173.5440
29.500000	81.910	173.0180
30.000000	81.864	172.5038
30.400000	81.827	172.0920
30.700001	81.799	171.7811
31.100000	81.761	171.3658
31.500000	81.722	170.9536
32.000000	81.674	170.4464
32.500000	81.628	169.9451
33.000000	81.582	169.4468
33.500000	81.538	168.9572
34.000000	81.497	168.4865
34.500000	81.458	168.0372
35.000000	81.420	167.6029
35.500000	81.380	167.1799
36.000000	81.337	166.7768
36.500000	81.292	166.4058
37.000000	81.245	166.0704
37.500000	81.199	165.7654
38.200001	81.133	165.3890
38.700001	81.089	165.1631
39.500000	81.036	164.8375
40.000000	81.016	164.5923
40.599998	80.999	164.1965
41.200001	80.978	163.6943
41.799999	80.944	163.1483
42.500000	80.893	162.5447
43.099998	80.846	162.0820
43.700001	80.801	161.6459
44.400002	80.750	161.1419
45.000000	80.703	160.7197
45.500000	80.663	160.3862
46.200001	80.607	159.9433
46.799999	80.560	159.5723
47.500000	80.504	159.1465
48.200001	80.449	158.7355
48.700001	80.409	158.4518
49.400002	80.352	158.0727
50.000000	80.303	157.7697
50.799999	80.241	157.3810
51.500000	80.187	157.0300
52.200001	80.130	156.6717
53.000000	80.059	156.2798
53.799999	79.986	155.9278
54.500000	79.922	155.6526
55.200001	79.863	155.3848
56.000000	79.798	155.0656
57.000000	79.717	154.6633
58.000000	79.637	154.2470
59.000000	79.547	153.8671
60.000000	79.464	153.6022
60.799999	79.410	153.3680
61.500000	79.360	153.1196
62.200001	79.307	152.8883
63.000000	79.251	152.6423
64.000000	79.183	152.2711
65.000000	79.103	151.9261
66.000000	79.028	151.6812
67.000000	78.960	151.4368
68.000000	78.883	151.2113
69.000000	78.806	151.1225
70.000000	78.759	151.0425
71.000000	78.716	150.6708
72.000000	78.629	150.2164
73.000000	78.530	149.9476
74.000000	78.447	149.7299
75.000000	78.370	149.5022
76.199997	78.285	149.2521
77.500000	78.200	149.0009
78.800003	78.116	148.7711
80.000000	78.037	148.5734
81.199997	77.956	148.3875
82.500000	77.867	148.1863
83.800003	77.778	147.9832
85.000000	77.698	147.8051
86.199997	77.620	147.6317
87.500000	77.536	147.4572
88.500000	77.472	147.3359
90.000000	77.375	147.1713
91.199997	77.297	147.0600
92.500000	77.216	146.9378
93.800003	77.135	146.8074
95.000000	77.061	146.6945
96.199997	76.989	146.5883
97.500000	76.912	146.4874
98.800003	76.836	146.4041
100.000000	76.767	146.3253
101.500000	76.678	146.2302
103.000000	76.590	146.1482
104.400002	76.508	146.0748
106.000000	76.417	145.9976
107.500000	76.333	145.9290
109.000000	76.248	145.8628
110.599998	76.157	145.8105
112.000000	76.078	145.7814
113.800003	75.978	145.7461
115.000000	75.912	145.7194
117.199997	75.790	145.6863
118.000000	75.746	145.6802
120.599998	75.605	145.6861
122.000000	75.529	145.7024
124.099998	75.415	145.7278
125.000000	75.365	145.7399
126.500000	75.282	145.7650
128.000000	75.202	145.7918
131.500000	75.021	145.8781
132.000000	74.995	145.8952
134.000000	74.889	145.9833
136.000000	74.779	146.0995
138.000000	74.667	146.2238
140.000000	74.555	146.3605
143.000000	74.393	146.5870
145.000000	74.284	146.7358
147.500000	74.135	146.9580
150.000000	73.969	147.2784
152.500000	73.798	147.7019
155.000000	73.622	148.2179
157.500000	73.439	148.8917
160.000000	73.239	149.7922
162.500000	73.029	151.0922
165.000000	72.841	152.9282
167.500000	72.716	155.4944
170.000000	72.750	158.7791
172.500000	73.024	162.0269
175.000000	73.512	164.1532
177.500000	74.073	164.3399
180.000000	74.524	162.6572
182.500000	74.762	160.0538
185.000000	74.808	157.5305
187.500000	74.740	155.5219
190.000000	74.616	154.1028
192.500000	74.471	153.1640
195.000000	74.319	152.5446
197.500000	74.174	152.1309
200.000000	74.049	151.8432
203.000000	73.914	151.6333
206.000000	73.781	151.5703
209.000000	73.654	151.5721
212.000000	73.535	151.6004
214.000000	73.459	151.6619
218.000000	73.314	151.8643
220.000000	73.246	151.9644
224.000000	73.125	152.1393
227.000000	73.041	152.2737
230.000000	72.956	152.4402
233.000000	72.872	152.6255
236.000000	72.790	152.8106
240.000000	72.684	153.0672
243.000000	72.608	153.2677
247.000000	72.513	153.5485
250.000000	72.444	153.7648
254.000000	72.353	154.0564
258.000000	72.268	154.3793
262.000000	72.188	154.7057
265.000000	72.127	154.9499
269.000000	72.049	155.2736
272.000000	71.992	155.5095
276.000000	71.921	155.8311
280.000000	71.852	156.1690
285.000000	71.768	156.5910
290.000000	71.687	157.0237
295.000000	71.609	157.4604
300.000000	71.532	157.8895
304.000000	71.471	158.2303
307.000000	71.427	158.4852
311.000000	71.373	158.8360
315.000000	71.319	159.1976
320.000000	71.254	159.6310
325.000000	71.188	160.0631
330.000000	71.125	160.5028
335.000000	71.065	160.9305
340.000000	71.006	161.3615
345.000000	70.947	161.8077
350.000000	70.890	162.2526
355.000000	70.836	162.6785
360.000000	70.784	163.1035
365.000000	70.735	163.5318
370.000000	70.684	163.9680
375.000000	70.634	164.4129
382.000000	70.568	165.0113
387.000000	70.524	165.4318
395.000000	70.453	166.1049
400.000000	70.410	166.5265
406.000000	70.360	167.0457
412.000000	70.311	167.5679
418.000000	70.264	168.0849
425.000000	70.213	168.6974
431.000000	70.171	169.2211
437.000000	70.130	169.7296
444.000000	70.086	170.3380
450.000000	70.050	170.9013
455.000000	70.022	171.3699
462.000000	69.988	171.9958
468.000000	69.965	172.5212
475.000000	69.943	173.1117
482.000000	69.920	173.6629
487.000000	69.904	174.0397
494.000000	69.879	174.5562
500.000000	69.853	175.0118
508.000000	69.817	175.6311
515.000000	69.789	176.1723
522.000000	69.764	176.7238
530.000000	69.735	177.3557
538.000000	69.707	177.9811
545.000000	69.684	178.5297
552.000000	69.660	179.0880
560.000000	69.634	179.7252
570.000000	69.604	-179.4792
580.000000	69.578	-178.6792
590.000000	69.554	-177.8766
600.000000	69.531	-177.0801
608.000000	69.514	-176.4536
615.000000	69.501	-175.9011
622.000000	69.489	-175.3459
630.000000	69.476	-174.7159
640.000000	69.463	-173.9304
650.000000	69.450	-173.1399
660.000000	69.443	-172.3539
670.000000	69.440	-171.5697
680.000000	69.437	-170.7788
690.000000	69.434	-169.9772
700.000000	69.433	-169.1763
710.000000	69.436	-168.3824
720.000000	69.443	-167.5894
730.000000	69.452	-166.7956
740.000000	69.462	-166.0171
750.000000	69.476	-165.2379
762.000000	69.497	-164.2896
775.000000	69.522	-163.2676
788.000000	69.549	-162.2549
800.000000	69.579	-161.3195
812.000000	69.613	-160.3978
825.000000	69.654	-159.4047
838.000000	69.702	-158.4290
850.000000	69.749	-157.5352
862.000000	69.799	-156.6472
875.000000	69.855	-155.6923
885.000000	69.903	-154.9689
900.000000	69.979	-153.9277
912.000000	70.044	-153.1187
925.000000	70.119	-152.2696
938.000000	70.198	-151.4549
950.000000	70.276	-150.7180
962.000000	70.355	-150.0044
975.000000	70.443	-149.2645
988.000000	70.533	-148.5631
1000.000000	70.617	-147.9532
1015.000000	70.727	-147.2318
1030.000000	70.840	-146.5585
1044.000000	70.945	-145.9816
1060.000000	71.065	-145.3712
1075.000000	71.171	-144.8463
1090.000000	71.271	-144.3613
1106.000000	71.377	-143.8934
1120.000000	71.470	-143.5376
1138.000000	71.588	-143.1262
1150.000000	71.664	-142.8701
1172.000000	71.802	-142.4446
1180.000000	71.850	-142.3076
1206.000000	72.005	-141.9097
1220.000000	72.094	-141.7126
1241.000000	72.233	-141.4423
1250.000000	72.292	-141.3342
1265.000000	72.389	-141.1630
1280.000000	72.482	-141.0009
1315.000000	72.690	-140.6586
1320.000000	72.719	-140.6117
1340.000000	72.834	-140.4229
1360.000000	72.950	-140.2400
1380.000000	73.069	-140.0679
1400.000000	73.188	-139.8907
1430.000000	73.365	-139.6449
1450.000000	73.482	-139.4862
1475.000000	73.628	-139.2966
1500.000000	73.771	-139.1242
1525.000000	73.907	-138.9680
1550.000000	74.036	-138.8383
1575.000000	74.160	-138.7309
1600.000000	74.282	-138.6604
1625.000000	74.400	-138.6352
1650.000000	74.516	-138.6475
1675.000000	74.627	-138.6934
1700.000000	74.731	-138.7779
1725.000000	74.828	-138.8956
1750.000000	74.916	-139.0271
1775.000000	74.991	-139.1352
1800.000000	75.053	-139.1928
1825.000000	75.107	-139.1653
1850.000000	75.159	-139.0256
1875.000000	75.215	-138.7753
1900.000000	75.282	-138.4454
1925.000000	75.363	-138.0784
1950.000000	75.457	-137.7009
1975.000000	75.564	-137.3428
2000.000000	75.681	-137.0265
2030.000000	75.833	-136.7101
2060.000000	75.991	-136.4756
2090.000000	76.155	-136.3237
2120.000000	76.319	-136.2492
2140.000000	76.429	-136.2426
2180.000000	76.646	-136.3138
2200.000000	76.753	-136.3863
2240.000000	76.963	-136.6062
2270.000000	77.117	-136.8370
2300.000000	77.269	-137.1197
2330.000000	77.417	-137.4483
2360.000000	77.559	-137.8195
2400.000000	77.742	-138.3738
2430.000000	77.875	-138.8344
2470.000000	78.045	-139.5056
2500.000000	78.166	-140.0434
2540.000000	78.317	-140.8004
2580.000000	78.459	-141.5981
2620.000000	78.590	-142.4420
2650.000000	78.680	-143.1007
2690.000000	78.790	-143.9961
2720.000000	78.865	-144.6740
2760.000000	78.954	-145.5856
2800.000000	79.033	-146.5046
2850.000000	79.117	-147.6544
2900.000000	79.184	-148.7881
2950.000000	79.236	-149.8960
3000.000000	79.274	-150.9675
3040.000000	79.296	-151.7929
3070.000000	79.309	-152.3894
3110.000000	79.320	-153.1516
3150.000000	79.328	-153.8756
3200.000000	79.331	-154.7346
3250.000000	79.331	-155.5512
3300.000000	79.327	-156.3249
3350.000000	79.317	-157.0565
3400.000000	79.304	-157.7447
3450.000000	79.289	-158.3852
3500.000000	79.272	-158.9841
3550.000000	79.254	-159.5478
3600.000000	79.235	-160.0688
3650.000000	79.218	-160.5403
3700.000000	79.203	-160.9686
3750.000000	79.193	-161.3566
3820.000000	79.192	-161.8530
3870.000000	79.207	-162.2082
3950.000000	79.255	-162.8548
4000.000000	79.291	-163.3412
4060.000000	79.332	-164.0085
4120.000000	79.366	-164.7456
4180.000000	79.394	-165.5297
4250.000000	79.419	-166.4951
4310.000000	79.435	-167.3709
4370.000000	79.444	-168.2896
4440.000000	79.447	-169.4165
4500.000000	79.438	-170.4332
4550.000000	79.423	-171.3173
4620.000000	79.391	-172.6071
4680.000000	79.348	-173.7551
4750.000000	79.277	-175.1271
4820.000000	79.181	-176.5182
4870.000000	79.095	-177.5128
4940.000000	78.949	-178.8831
5000.000000	78.802	179.9775
5080.000000	78.577	178.5280
5150.000000	78.355	177.3622
5220.000000	78.111	176.3233
5300.000000	77.809	175.3214
5380.000000	77.488	174.5422
5450.000000	77.194	174.0591
5520.000000	76.890	173.7606
5600.000000	76.539	173.6348
5700.000000	76.107	173.7720
5800.000000	75.687	174.2062
5900.000000	75.280	174.9105
6000.000000	74.890	175.9005
6080.000000	74.594	176.9230
6150.000000	74.354	177.9716
6220.000000	74.134	179.1411
6300.000000	73.910	-179.3818
6400.000000	73.679	-177.3671
6500.000000	73.507	-175.2440
6600.000000	73.394	-173.0683
6700.000000	73.341	-170.8684
6800.000000	73.353	-168.6895
6900.000000	73.441	-166.5888
7000.000000	73.609	-164.6247
7100.000000	73.856	-162.8719
7200.000000	74.184	-161.4393
7300.000000	74.588	-160.4276
7400.000000	75.069	-159.9244
7500.000000	75.627	-160.0857
7620.000000	76.389	-161.4516
7750.000000	77.285	-164.8591
7880.000000	78.171	-171.0772
8000.000000	78.805	179.9449
8120.000000	79.010	168.0546
8250.000000	78.526	153.9714
8380.000000	77.320	141.8084
8500.000000	75.784	133.9073
8620.000000	74.084	129.1819
8750.000000	72.249	126.8720
8850.000000	70.915	126.5398
9000.000000	69.087	127.6414
9120.000000	67.777	129.4453
9250.000000	66.502	131.9534
9380.000000	65.354	134.8125
9500.000000	64.386	137.6700
9620.000000	63.493	140.6889
9750.000000	62.604	144.1032
9880.000000	61.790	147.6020
10000.000000	61.097	150.8613
10150.000000	60.305	154.9593
10300.000000	59.595	158.9908
10440.000000	58.994	162.6354
10600.000000	58.372	166.6613
10750.000000	57.846	170.2957
10900.000000	57.365	173.6749
11060.000000	56.895	176.9100
11200.000000	56.509	179.3887
11380.000000	56.033	-177.9168
11500.000000	55.721	-176.4252
11720.000000	55.115	-174.5111
11800.000000	54.871	-174.0720
12060.000000	53.959	-173.4086
12200.000000	53.393	-173.4436
12410.000000	52.424	-173.7115
12500.000000	51.956	-173.8573
12650.000000	51.097	-174.0477
12800.000000	50.132	-174.0367
13150.000000	47.474	-172.7807
13200.000000	47.049	-172.4557
13400.000000	45.236	-170.8975
13600.000000	43.206	-169.1104
13800.000000	40.902	-167.9451
14000.000000	38.181	-178.9059
14300.000000	32.850	-143.0913
14500.000000	30.630	-19.4976
14750.000000	35.421	88.5181
15000.000000	40.861	83.8667
15250.000000	45.353	48.1150
15500.000000	49.038	39.9919
15750.000000	51.615	26.5176
16000.000000	52.699	8.5967
16250.000000	52.344	-6.1348
16500.000000	51.157	-13.2346
16750.000000	49.807	-13.8914
17000.000000	48.668	-10.5437
17250.000000	47.781	-4.7620
17500.000000	47.059	2.0879
17750.000000	46.503	9.7207
18000.000000	46.193	17.9138
18250.000000	46.251	25.4915
18500.000000	46.608	30.9194
18750.000000	46.870	33.5010
19000.000000	46.757	35.1860
19250.000000	46.455	38.3308
19500.000000	46.252	42.9224
19750.000000	46.218	47.0215
20000.000000	46.230	49.0198
