* Measurement data measured by REW V5.20.7
* Source: 마이크(Realtek High Definition Audi, MICROPHONE (마스), L, volume: 0.050
* Format: 128k Log Swept Sine, 1 sweep at -12.0 dBFS with no timing reference
* Dated: May 5, 2023 4:16:05 PM
* REW Settings:
*  C-weighting compensation: Off
*  Target level: 75.0 dB
* Note: ; 
* Measurement: Lark Studio LSVI R
* Smoothing: 1/24 octave
* Frequency Step: 1/48 octave
* Start Frequency: 20.300 Hz
*
* Freq(Hz)	SPL(dB)	Phase(degrees)
20.299999	94.459	-136.3421
20.600000	94.376	-136.2615
20.900000	94.204	-136.0870
21.200001	94.035	-135.8505
21.400000	93.929	-135.6898
21.799999	93.733	-135.4429
22.000000	93.642	-135.3978
22.400000	93.471	-135.5276
22.700001	93.354	-135.8380
23.000000	93.247	-136.3337
23.299999	93.152	-137.0060
23.600000	93.073	-137.8473
24.000000	92.998	-139.2219
24.299999	92.965	-140.4318
24.700001	92.948	-142.2498
25.000000	92.948	-143.7134
25.400000	92.958	-145.6889
25.799999	92.976	-147.5335
26.200001	93.005	-149.1024
26.500000	93.039	-150.0532
26.900000	93.104	-151.0232
27.200001	93.167	-151.5590
27.600000	93.266	-152.0678
28.000000	93.371	-152.3822
28.500000	93.502	-152.5350
29.000000	93.624	-152.4778
29.500000	93.733	-152.3147
30.000000	93.820	-152.1531
30.400000	93.867	-152.0558
30.700001	93.889	-152.0046
31.100000	93.905	-151.9837
31.500000	93.908	-152.0610
32.000000	93.893	-152.3781
32.500000	93.847	-152.9666
33.000000	93.767	-153.7289
33.500000	93.667	-154.5287
34.000000	93.576	-155.3101
34.500000	93.512	-156.1272
35.000000	93.474	-157.0315
35.500000	93.448	-157.9709
36.000000	93.431	-158.8065
36.500000	93.429	-159.4236
37.000000	93.457	-159.8053
37.500000	93.518	-160.0273
38.200001	93.637	-160.2480
38.700001	93.722	-160.3964
39.500000	93.830	-160.5590
40.000000	93.884	-160.6044
40.599998	93.941	-160.6933
41.200001	93.983	-160.9379
41.799999	94.001	-161.3568
42.500000	93.997	-162.0035
43.099998	93.987	-162.6886
43.700001	93.977	-163.5180
44.400002	93.966	-164.6195
45.000000	93.960	-165.6039
45.500000	93.961	-166.4189
46.200001	93.967	-167.4948
46.799999	93.977	-168.2871
47.500000	94.001	-169.0550
48.200001	94.031	-169.7538
48.700001	94.042	-170.2336
49.400002	94.034	-170.8248
50.000000	94.009	-171.2336
50.799999	93.961	-171.7198
51.500000	93.904	-172.1682
52.200001	93.835	-172.6510
53.000000	93.750	-173.2475
53.799999	93.669	-173.9029
54.500000	93.604	-174.5161
55.200001	93.548	-175.1480
56.000000	93.494	-175.8582
57.000000	93.439	-176.6569
58.000000	93.396	-177.3214
59.000000	93.356	-177.8788
60.000000	93.310	-178.3710
60.799999	93.265	-178.7532
61.500000	93.218	-179.1094
62.200001	93.164	-179.4984
63.000000	93.095	-179.9840
64.000000	93.012	179.3110
65.000000	92.937	178.4630
66.000000	92.878	177.5096
67.000000	92.840	176.4833
68.000000	92.823	175.4534
69.000000	92.829	174.4767
70.000000	92.850	173.5643
71.000000	92.881	172.7405
72.000000	92.921	172.0031
73.000000	92.968	171.3375
74.000000	93.023	170.7615
75.000000	93.086	170.3112
76.199997	93.164	169.9804
77.500000	93.228	169.9459
78.800003	93.247	170.1748
80.000000	93.202	170.4299
81.199997	93.100	170.4923
82.500000	92.954	170.0630
83.800003	92.827	169.0409
85.000000	92.778	167.7766
86.199997	92.816	166.5562
87.500000	92.923	165.6755
88.500000	93.010	165.4241
90.000000	93.079	165.5831
91.199997	93.053	165.8278
92.500000	92.961	165.7952
93.800003	92.851	165.2384
95.000000	92.787	164.3589
96.199997	92.785	163.4007
97.500000	92.838	162.6027
98.800003	92.900	162.2211
100.000000	92.926	162.1528
101.500000	92.895	162.1016
103.000000	92.823	161.7433
104.400002	92.767	161.0863
106.000000	92.757	160.2333
107.500000	92.785	159.6414
109.000000	92.806	159.3307
110.599998	92.789	159.1058
112.000000	92.749	158.7835
113.800003	92.704	158.1287
115.000000	92.694	157.6400
117.199997	92.704	156.9311
118.000000	92.704	156.7473
120.599998	92.670	156.1749
122.000000	92.642	155.7650
124.099998	92.617	155.0551
125.000000	92.614	154.7679
126.500000	92.609	154.3499
128.000000	92.599	153.9828
131.500000	92.554	153.0516
132.000000	92.549	152.9054
134.000000	92.530	152.3326
136.000000	92.513	151.8083
138.000000	92.490	151.3021
140.000000	92.465	150.7752
143.000000	92.430	149.9933
145.000000	92.404	149.5036
147.500000	92.368	148.8959
150.000000	92.334	148.2916
152.500000	92.302	147.7059
155.000000	92.266	147.1237
157.500000	92.227	146.5381
160.000000	92.189	145.9496
162.500000	92.151	145.3682
165.000000	92.115	144.7975
167.500000	92.080	144.2431
170.000000	92.044	143.6980
172.500000	92.011	143.1539
175.000000	91.980	142.6241
177.500000	91.951	142.1093
180.000000	91.921	141.5914
182.500000	91.891	141.0604
185.000000	91.863	140.5245
187.500000	91.834	139.9966
190.000000	91.804	139.4842
192.500000	91.770	138.9890
195.000000	91.737	138.4990
197.500000	91.707	138.0090
200.000000	91.676	137.5274
203.000000	91.638	136.9604
206.000000	91.596	136.3889
209.000000	91.553	135.8235
212.000000	91.512	135.2800
214.000000	91.485	134.9239
218.000000	91.430	134.2175
220.000000	91.402	133.8717
224.000000	91.345	133.1871
227.000000	91.299	132.6679
230.000000	91.251	132.1552
233.000000	91.199	131.6669
236.000000	91.146	131.2002
240.000000	91.083	130.5927
243.000000	91.038	130.1381
247.000000	90.979	129.5341
250.000000	90.934	129.0893
254.000000	90.870	128.5017
258.000000	90.803	127.9252
262.000000	90.735	127.3752
265.000000	90.684	126.9808
269.000000	90.620	126.4704
272.000000	90.576	126.0906
276.000000	90.520	125.5780
280.000000	90.463	125.0656
285.000000	90.382	124.4402
290.000000	90.299	123.8473
295.000000	90.217	123.2959
300.000000	90.136	122.7780
304.000000	90.070	122.3796
307.000000	90.022	122.0756
311.000000	89.966	121.6591
315.000000	89.912	121.2464
320.000000	89.840	120.7340
325.000000	89.758	120.2194
330.000000	89.669	119.7203
335.000000	89.583	119.2678
340.000000	89.507	118.8720
345.000000	89.439	118.5106
350.000000	89.372	118.1503
355.000000	89.302	117.7700
360.000000	89.230	117.3508
365.000000	89.162	116.8907
370.000000	89.097	116.4075
375.000000	89.029	115.9543
382.000000	88.927	115.4540
387.000000	88.849	115.1844
395.000000	88.728	114.7798
400.000000	88.660	114.4812
406.000000	88.588	114.0292
412.000000	88.524	113.5143
418.000000	88.464	113.0009
425.000000	88.390	112.4493
431.000000	88.322	112.0459
437.000000	88.247	111.7034
444.000000	88.146	111.3062
450.000000	88.054	110.9143
455.000000	87.977	110.5708
462.000000	87.878	110.1501
468.000000	87.805	109.8679
475.000000	87.739	109.5913
482.000000	87.693	109.3198
487.000000	87.664	109.1446
494.000000	87.618	108.9215
500.000000	87.565	108.7035
508.000000	87.475	108.3689
515.000000	87.391	108.0415
522.000000	87.305	107.6980
530.000000	87.203	107.3485
538.000000	87.100	106.9939
545.000000	87.013	106.6549
552.000000	86.935	106.3599
560.000000	86.864	106.1078
570.000000	86.799	105.8783
580.000000	86.725	105.8253
590.000000	86.635	105.9691
600.000000	86.561	106.1324
608.000000	86.522	106.1677
615.000000	86.495	106.1250
622.000000	86.463	106.0219
630.000000	86.411	105.8481
640.000000	86.330	105.5882
650.000000	86.240	105.3188
660.000000	86.144	105.0789
670.000000	86.055	104.8588
680.000000	85.984	104.5790
690.000000	85.928	104.2704
700.000000	85.887	104.1203
710.000000	85.861	104.2504
720.000000	85.843	104.5762
730.000000	85.823	104.8834
740.000000	85.808	105.0264
750.000000	85.805	105.0414
762.000000	85.806	105.0229
775.000000	85.787	104.9251
788.000000	85.765	104.7060
800.000000	85.749	104.4293
812.000000	85.747	104.0706
825.000000	85.770	103.6986
838.000000	85.802	103.4513
850.000000	85.816	103.3422
862.000000	85.819	103.2417
875.000000	85.830	103.0921
885.000000	85.845	102.9888
900.000000	85.869	102.8398
912.000000	85.892	102.7055
925.000000	85.914	102.5737
938.000000	85.928	102.4674
950.000000	85.944	102.3792
962.000000	85.964	102.2568
975.000000	85.990	102.1423
988.000000	86.022	102.0331
1000.000000	86.044	101.9108
1015.000000	86.053	101.8662
1030.000000	86.071	102.0100
1044.000000	86.120	102.1424
1060.000000	86.196	102.0903
1075.000000	86.254	101.8653
1090.000000	86.287	101.5711
1106.000000	86.299	101.1671
1120.000000	86.300	100.6566
1138.000000	86.308	99.7693
1150.000000	86.329	99.1208
1172.000000	86.399	98.1442
1180.000000	86.426	97.9185
1206.000000	86.480	97.4492
1220.000000	86.511	97.1767
1241.000000	86.581	96.8327
1250.000000	86.609	96.7184
1265.000000	86.654	96.5271
1280.000000	86.701	96.3567
1315.000000	86.826	96.0107
1320.000000	86.846	95.9761
1340.000000	86.936	95.8808
1360.000000	87.051	95.7940
1380.000000	87.186	95.6878
1400.000000	87.343	95.5025
1430.000000	87.593	94.9014
1450.000000	87.748	94.3151
1475.000000	87.921	93.4656
1500.000000	88.074	92.5402
1525.000000	88.209	91.5944
1550.000000	88.323	90.6985
1575.000000	88.429	89.9059
1600.000000	88.530	89.1919
1625.000000	88.631	88.4756
1650.000000	88.733	87.7444
1675.000000	88.831	86.9927
1700.000000	88.928	86.2300
1725.000000	89.022	85.4789
1750.000000	89.115	84.7462
1775.000000	89.207	84.0360
1800.000000	89.297	83.3350
1825.000000	89.386	82.6252
1850.000000	89.478	81.9074
1875.000000	89.570	81.1911
1900.000000	89.663	80.4909
1925.000000	89.760	79.8132
1950.000000	89.864	79.1432
1975.000000	89.974	78.4505
2000.000000	90.087	77.7135
2030.000000	90.224	76.7617
2060.000000	90.364	75.7260
2090.000000	90.510	74.6075
2120.000000	90.664	73.4016
2140.000000	90.767	72.5350
2180.000000	90.962	70.6115
2200.000000	91.052	69.5598
2240.000000	91.224	67.3077
2270.000000	91.351	65.4961
2300.000000	91.475	63.6027
2330.000000	91.581	61.6763
2360.000000	91.659	59.8119
2400.000000	91.761	57.6425
2430.000000	91.882	56.1513
2470.000000	92.070	53.8730
2500.000000	92.171	51.8457
2540.000000	92.218	48.8862
2580.000000	92.209	45.9061
2620.000000	92.198	43.1952
2650.000000	92.192	41.3679
2690.000000	92.173	39.0929
2720.000000	92.146	37.4708
2760.000000	92.090	35.3974
2800.000000	92.013	33.4146
2850.000000	91.899	31.1050
2900.000000	91.759	29.1007
2950.000000	91.597	27.5171
3000.000000	91.433	26.4255
3040.000000	91.312	25.9039
3070.000000	91.227	25.6953
3110.000000	91.116	25.6202
3150.000000	91.006	25.7915
3200.000000	90.897	26.5054
3250.000000	90.879	27.6837
3300.000000	90.926	28.7598
3350.000000	90.932	29.4032
3400.000000	90.889	29.5740
3450.000000	90.892	29.4861
3500.000000	90.979	29.5774
3550.000000	91.112	29.8252
3600.000000	91.275	29.9649
3650.000000	91.466	29.8905
3700.000000	91.682	29.5474
3750.000000	91.915	28.9004
3820.000000	92.242	27.4594
3870.000000	92.453	26.0793
3950.000000	92.706	23.4237
4000.000000	92.791	21.5932
4060.000000	92.808	19.3892
4120.000000	92.720	17.3530
4180.000000	92.514	16.0906
4250.000000	92.274	16.4824
4310.000000	92.136	17.9435
4370.000000	91.967	19.7275
4440.000000	91.768	21.2520
4500.000000	91.736	22.2764
4550.000000	91.794	23.2122
4620.000000	91.967	24.3629
4680.000000	92.188	25.0282
4750.000000	92.508	25.2615
4820.000000	92.862	24.7607
4870.000000	93.112	23.8911
4940.000000	93.424	21.9315
5000.000000	93.629	19.6307
5080.000000	93.782	15.9968
5150.000000	93.796	12.7827
5220.000000	93.728	10.0643
5300.000000	93.630	7.9592
5380.000000	93.609	6.7849
5450.000000	93.699	5.9580
5520.000000	93.877	4.6710
5600.000000	94.123	2.0139
5700.000000	94.345	-3.5096
5800.000000	94.299	-11.0200
5900.000000	93.882	-18.9744
6000.000000	93.124	-25.4700
6080.000000	92.357	-28.8357
6150.000000	91.633	-30.3886
6220.000000	90.905	-30.8084
6300.000000	90.103	-30.1551
6400.000000	89.191	-27.9956
6500.000000	88.419	-24.6849
6600.000000	87.825	-20.5952
6700.000000	87.434	-16.2285
6800.000000	87.218	-12.0949
6900.000000	87.113	-8.4168
7000.000000	87.064	-5.0657
7100.000000	87.052	-1.8078
7200.000000	87.089	1.4985
7300.000000	87.196	4.8492
7400.000000	87.381	8.1573
7500.000000	87.650	11.3276
7620.000000	88.085	14.7943
7750.000000	88.682	17.8334
7880.000000	89.375	19.7186
8000.000000	90.045	20.1570
8120.000000	90.676	19.3303
8250.000000	91.256	17.2930
8380.000000	91.711	14.5081
8500.000000	92.029	11.6312
8620.000000	92.276	8.6808
8750.000000	92.496	5.4495
8850.000000	92.655	2.8575
9000.000000	92.893	-1.6007
9120.000000	93.049	-6.0497
9250.000000	93.111	-11.8754
9380.000000	92.999	-18.3833
9500.000000	92.716	-24.3807
9620.000000	92.271	-29.7469
9750.000000	91.652	-34.3727
9880.000000	90.948	-37.6061
10000.000000	90.267	-39.4122
10150.000000	89.427	-40.1857
10300.000000	88.692	-39.4277
10440.000000	88.242	-38.1708
10600.000000	87.948	-37.9749
10750.000000	87.636	-38.9175
10900.000000	87.263	-40.0970
11060.000000	86.837	-41.6445
11200.000000	86.423	-43.3228
11380.000000	85.813	-45.8514
11500.000000	85.334	-47.8083
11720.000000	84.197	-51.4248
11800.000000	83.692	-52.4603
12060.000000	81.805	-53.7656
12200.000000	80.713	-52.9806
12410.000000	79.111	-49.9520
12500.000000	78.458	-48.0543
12650.000000	77.429	-44.2117
12800.000000	76.484	-39.6423
13150.000000	74.667	-26.9191
13200.000000	74.455	-24.9309
13400.000000	73.733	-16.7137
13600.000000	73.224	-8.2175
13800.000000	72.960	0.4323
14000.000000	72.939	9.1093
14300.000000	73.393	21.3077
14500.000000	73.995	28.1786
14750.000000	75.033	35.6670
15000.000000	76.190	40.7240
15250.000000	77.455	43.4549
15500.000000	78.784	42.6919
15750.000000	79.850	37.4565
16000.000000	80.342	28.3493
16250.000000	80.002	18.0439
16500.000000	78.904	10.6797
16750.000000	77.451	7.8904
17000.000000	76.010	8.7710
17250.000000	74.732	11.9708
17500.000000	73.621	16.3300
17750.000000	72.686	20.8160
18000.000000	71.889	24.7293
18250.000000	71.107	28.0483
18500.000000	70.242	31.4649
18750.000000	69.287	35.9727
19000.000000	68.348	42.3011
19250.000000	67.618	50.6176
19500.000000	67.301	60.2917
19750.000000	67.369	69.3146
20000.000000	67.488	74.4001
