* Measurement data measured by REW V5.20.7
* Source: 마이크(Realtek High Definition Audi, MICROPHONE (마스), L, volume: 0.050
* Format: 128k Log Swept Sine, 1 sweep at -12.0 dBFS with no timing reference
* Dated: May 5, 2023 4:15:11 PM
* REW Settings:
*  C-weighting compensation: Off
*  Target level: 75.0 dB
* Note: ; 
* Measurement: Lark Studio LSVI L
* Smoothing: 1/24 octave
* Frequency Step: 1/48 octave
* Start Frequency: 20.300 Hz
*
* Freq(Hz)	SPL(dB)	Phase(degrees)
20.299999	93.891	-138.6152
20.600000	93.836	-138.6297
20.900000	93.723	-138.6891
21.200001	93.616	-138.8494
21.400000	93.545	-139.0401
21.799999	93.396	-139.6236
22.000000	93.313	-140.0025
22.400000	93.133	-140.8727
22.700001	92.996	-141.5828
23.000000	92.870	-142.3416
23.299999	92.764	-143.1924
23.600000	92.680	-144.1745
24.000000	92.595	-145.7107
24.299999	92.546	-146.9889
24.700001	92.493	-148.7394
25.000000	92.469	-149.9989
25.400000	92.469	-151.5522
25.799999	92.515	-152.9920
26.200001	92.598	-154.3771
26.500000	92.671	-155.3779
26.900000	92.770	-156.6028
27.200001	92.843	-157.3844
27.600000	92.941	-158.2083
28.000000	93.048	-158.8214
28.500000	93.186	-159.4179
29.000000	93.305	-159.8939
29.500000	93.392	-160.1931
30.000000	93.460	-160.2935
30.400000	93.508	-160.3133
30.700001	93.539	-160.3493
31.100000	93.561	-160.4496
31.500000	93.557	-160.5673
32.000000	93.523	-160.6331
32.500000	93.487	-160.6049
33.000000	93.471	-160.6771
33.500000	93.466	-161.0510
34.000000	93.441	-161.7220
34.500000	93.385	-162.4757
35.000000	93.318	-163.1262
35.500000	93.276	-163.6810
36.000000	93.271	-164.3032
36.500000	93.286	-165.1035
37.000000	93.293	-166.0115
37.500000	93.287	-166.8425
38.200001	93.286	-167.6534
38.700001	93.317	-168.0496
39.500000	93.407	-168.7407
40.000000	93.457	-169.2613
40.599998	93.490	-169.8498
41.200001	93.500	-170.2712
41.799999	93.507	-170.5434
42.500000	93.519	-170.8225
43.099998	93.525	-171.1184
43.700001	93.520	-171.4596
44.400002	93.504	-171.8806
45.000000	93.489	-172.2670
45.500000	93.478	-172.6227
46.200001	93.464	-173.1727
46.799999	93.454	-173.6727
47.500000	93.448	-174.2552
48.200001	93.450	-174.8055
48.700001	93.459	-175.1779
49.400002	93.480	-175.7029
50.000000	93.498	-176.1707
50.799999	93.509	-176.7439
51.500000	93.516	-177.1264
52.200001	93.532	-177.4667
53.000000	93.552	-177.9416
53.799999	93.555	-178.4739
54.500000	93.547	-178.9095
55.200001	93.541	-179.3506
56.000000	93.532	-179.9054
57.000000	93.516	179.4383
58.000000	93.521	178.8318
59.000000	93.534	178.1297
60.000000	93.531	177.4815
60.799999	93.530	177.0912
61.500000	93.535	176.7921
62.200001	93.541	176.4960
63.000000	93.545	176.1580
64.000000	93.545	175.7249
65.000000	93.536	175.2495
66.000000	93.516	174.7673
67.000000	93.498	174.3192
68.000000	93.492	173.8323
69.000000	93.487	173.2899
70.000000	93.480	172.7743
71.000000	93.481	172.3089
72.000000	93.487	171.8185
73.000000	93.482	171.3167
74.000000	93.471	170.8911
75.000000	93.467	170.4980
76.199997	93.465	169.9420
77.500000	93.452	169.3220
78.800003	93.446	168.7516
80.000000	93.446	168.1995
81.199997	93.440	167.6904
82.500000	93.437	167.1906
83.800003	93.430	166.6513
85.000000	93.415	166.1611
86.199997	93.403	165.6978
87.500000	93.398	165.1631
88.500000	93.391	164.7462
90.000000	93.380	164.1987
91.199997	93.374	163.8013
92.500000	93.363	163.3558
93.800003	93.345	162.9185
95.000000	93.330	162.5115
96.199997	93.318	162.0707
97.500000	93.303	161.5812
98.800003	93.288	161.1272
100.000000	93.276	160.7426
101.500000	93.261	160.2581
103.000000	93.244	159.7735
104.400002	93.228	159.3256
106.000000	93.214	158.7976
107.500000	93.198	158.3112
109.000000	93.180	157.8569
110.599998	93.163	157.3655
112.000000	93.145	156.9098
113.800003	93.121	156.3395
115.000000	93.108	155.9784
117.199997	93.086	155.3439
118.000000	93.078	155.1241
120.599998	93.046	154.4140
122.000000	93.030	154.0165
124.099998	93.006	153.4151
125.000000	92.995	153.1661
126.500000	92.978	152.7670
128.000000	92.959	152.3715
131.500000	92.910	151.4468
132.000000	92.903	151.3152
134.000000	92.877	150.7919
136.000000	92.849	150.2864
138.000000	92.819	149.8099
140.000000	92.787	149.3463
143.000000	92.742	148.6336
145.000000	92.712	148.1612
147.500000	92.679	147.5839
150.000000	92.645	147.0147
152.500000	92.606	146.4587
155.000000	92.567	145.9071
157.500000	92.531	145.3541
160.000000	92.494	144.8160
162.500000	92.456	144.2989
165.000000	92.420	143.7796
167.500000	92.387	143.2558
170.000000	92.353	142.7467
172.500000	92.321	142.2475
175.000000	92.290	141.7422
177.500000	92.259	141.2426
180.000000	92.227	140.7680
182.500000	92.195	140.3184
185.000000	92.163	139.8806
187.500000	92.130	139.4450
190.000000	92.095	139.0164
192.500000	92.059	138.5969
195.000000	92.022	138.1750
197.500000	91.985	137.7444
200.000000	91.949	137.3135
203.000000	91.905	136.8107
206.000000	91.860	136.3258
209.000000	91.814	135.8482
212.000000	91.767	135.3702
214.000000	91.735	135.0520
218.000000	91.667	134.4290
220.000000	91.632	134.1264
224.000000	91.563	133.5302
227.000000	91.514	133.0881
230.000000	91.466	132.6569
233.000000	91.419	132.2330
236.000000	91.371	131.8104
240.000000	91.308	131.2569
243.000000	91.260	130.8488
247.000000	91.199	130.3018
250.000000	91.155	129.8934
254.000000	91.099	129.3519
258.000000	91.044	128.8188
262.000000	90.991	128.3023
265.000000	90.951	127.9232
269.000000	90.898	127.4366
272.000000	90.858	127.0875
276.000000	90.804	126.6364
280.000000	90.750	126.1960
285.000000	90.684	125.6498
290.000000	90.618	125.1035
295.000000	90.550	124.5650
300.000000	90.481	124.0342
304.000000	90.427	123.6167
307.000000	90.386	123.3091
311.000000	90.332	122.9083
315.000000	90.278	122.5116
320.000000	90.212	122.0125
325.000000	90.146	121.5196
330.000000	90.079	121.0339
335.000000	90.010	120.5619
340.000000	89.941	120.1115
345.000000	89.873	119.6782
350.000000	89.806	119.2589
355.000000	89.741	118.8470
360.000000	89.677	118.4414
365.000000	89.614	118.0387
370.000000	89.551	117.6370
375.000000	89.486	117.2350
382.000000	89.396	116.6848
387.000000	89.333	116.3136
395.000000	89.235	115.7662
400.000000	89.176	115.4406
406.000000	89.107	115.0496
412.000000	89.040	114.6501
418.000000	88.975	114.2480
425.000000	88.902	113.8009
431.000000	88.841	113.4378
437.000000	88.778	113.0898
444.000000	88.702	112.7042
450.000000	88.635	112.3868
455.000000	88.581	112.1256
462.000000	88.507	111.7555
468.000000	88.449	111.4415
475.000000	88.384	111.0850
482.000000	88.321	110.7393
487.000000	88.277	110.5021
494.000000	88.216	110.1827
500.000000	88.162	109.9113
508.000000	88.089	109.5427
515.000000	88.026	109.2205
522.000000	87.963	108.8963
530.000000	87.892	108.5292
538.000000	87.821	108.1649
545.000000	87.758	107.8570
552.000000	87.694	107.5774
560.000000	87.621	107.2978
570.000000	87.529	107.0047
580.000000	87.435	106.7707
590.000000	87.346	106.6133
600.000000	87.265	106.5232
608.000000	87.205	106.4825
615.000000	87.158	106.4469
622.000000	87.113	106.4039
630.000000	87.062	106.3474
640.000000	86.998	106.2452
650.000000	86.930	106.0992
660.000000	86.860	105.9390
670.000000	86.794	105.7751
680.000000	86.730	105.5991
690.000000	86.673	105.4390
700.000000	86.623	105.3578
710.000000	86.583	105.3960
720.000000	86.560	105.5304
730.000000	86.556	105.6768
740.000000	86.564	105.7527
750.000000	86.574	105.7217
762.000000	86.577	105.5770
775.000000	86.566	105.3124
788.000000	86.551	104.9398
800.000000	86.542	104.5195
812.000000	86.539	104.0746
825.000000	86.547	103.6159
838.000000	86.560	103.2280
850.000000	86.569	102.9521
862.000000	86.572	102.7550
875.000000	86.576	102.6089
885.000000	86.580	102.5028
900.000000	86.586	102.3466
912.000000	86.592	102.3064
925.000000	86.602	102.3487
938.000000	86.628	102.4099
950.000000	86.667	102.4123
962.000000	86.712	102.3011
975.000000	86.761	102.0483
988.000000	86.806	101.6860
1000.000000	86.845	101.2726
1015.000000	86.889	100.6615
1030.000000	86.930	99.9584
1044.000000	86.967	99.2929
1060.000000	87.006	98.5902
1075.000000	87.033	97.9820
1090.000000	87.056	97.3682
1106.000000	87.076	96.7048
1120.000000	87.083	96.1561
1138.000000	87.082	95.5330
1150.000000	87.078	95.1940
1172.000000	87.069	94.7115
1180.000000	87.068	94.5858
1206.000000	87.078	94.4644
1220.000000	87.109	94.5892
1241.000000	87.207	94.8968
1250.000000	87.267	95.0207
1265.000000	87.388	95.1648
1280.000000	87.526	95.1957
1315.000000	87.860	94.5348
1320.000000	87.900	94.3523
1340.000000	88.031	93.5130
1360.000000	88.138	92.5906
1380.000000	88.246	91.5865
1400.000000	88.355	90.4836
1430.000000	88.512	88.7630
1450.000000	88.608	87.6614
1475.000000	88.718	86.3272
1500.000000	88.823	85.0448
1525.000000	88.915	83.9095
1550.000000	88.988	82.9403
1575.000000	89.064	82.1450
1600.000000	89.162	81.4540
1625.000000	89.276	80.7301
1650.000000	89.391	79.9176
1675.000000	89.500	79.0271
1700.000000	89.604	78.0681
1725.000000	89.705	77.0599
1750.000000	89.804	76.0422
1775.000000	89.899	75.0441
1800.000000	89.992	74.0789
1825.000000	90.088	73.1013
1850.000000	90.177	72.0704
1875.000000	90.251	71.0622
1900.000000	90.326	70.1613
1925.000000	90.425	69.2803
1950.000000	90.547	68.2650
1975.000000	90.672	67.0635
2000.000000	90.787	65.7093
2030.000000	90.901	63.9273
2060.000000	90.983	62.0501
2090.000000	91.043	60.2281
2120.000000	91.104	58.5195
2140.000000	91.151	57.4339
2180.000000	91.266	55.4215
2200.000000	91.334	54.4892
2240.000000	91.480	52.6626
2270.000000	91.573	51.2540
2300.000000	91.641	49.8840
2330.000000	91.698	48.6814
2360.000000	91.774	47.6249
2400.000000	91.944	45.9785
2430.000000	92.083	44.3029
2470.000000	92.210	41.6592
2500.000000	92.250	39.5752
2540.000000	92.267	36.7609
2580.000000	92.287	34.0217
2620.000000	92.317	31.4862
2650.000000	92.330	29.6691
2690.000000	92.320	27.3121
2720.000000	92.288	25.6016
2760.000000	92.217	23.4048
2800.000000	92.123	21.3165
2850.000000	91.979	18.9562
2900.000000	91.811	17.0139
2950.000000	91.636	15.5378
3000.000000	91.464	14.5175
3040.000000	91.325	14.0302
3070.000000	91.226	13.8494
3110.000000	91.107	13.8225
3150.000000	91.009	14.0522
3200.000000	90.935	14.7668
3250.000000	90.942	15.6319
3300.000000	90.982	16.2064
3350.000000	90.988	16.5219
3400.000000	90.969	16.6605
3450.000000	90.988	16.7300
3500.000000	91.072	16.8713
3550.000000	91.209	16.9827
3600.000000	91.383	16.8895
3650.000000	91.579	16.4988
3700.000000	91.788	15.7659
3750.000000	91.996	14.6510
3820.000000	92.247	12.4624
3870.000000	92.374	10.5355
3950.000000	92.454	7.1271
4000.000000	92.411	5.0040
4060.000000	92.244	2.7371
4120.000000	91.972	1.1205
4180.000000	91.657	0.3754
4250.000000	91.315	0.7146
4310.000000	91.107	2.1855
4370.000000	91.043	4.5135
4440.000000	91.164	7.7534
4500.000000	91.393	10.4158
4550.000000	91.632	12.1533
4620.000000	91.991	13.6270
4680.000000	92.296	13.9755
4750.000000	92.647	13.3019
4820.000000	92.973	11.5625
4870.000000	93.166	9.7327
4940.000000	93.337	6.5028
5000.000000	93.367	3.3759
5080.000000	93.229	-0.6207
5150.000000	92.971	-3.2264
5220.000000	92.661	-4.4971
5300.000000	92.366	-4.2749
5380.000000	92.253	-2.8861
5450.000000	92.344	-1.5128
5520.000000	92.590	-0.6780
5600.000000	92.998	-1.0035
5700.000000	93.545	-4.0089
5800.000000	93.911	-10.1487
5900.000000	93.886	-18.4975
6000.000000	93.399	-26.8957
6080.000000	92.740	-32.1810
6150.000000	92.043	-35.2736
6220.000000	91.294	-36.9364
6300.000000	90.439	-37.3420
6400.000000	89.440	-36.1354
6500.000000	88.562	-33.5488
6600.000000	87.835	-29.9788
6700.000000	87.279	-25.7717
6800.000000	86.903	-21.2933
6900.000000	86.691	-16.8806
7000.000000	86.608	-12.7289
7100.000000	86.612	-8.8719
7200.000000	86.681	-5.2633
7300.000000	86.802	-1.8201
7400.000000	86.978	1.5698
7500.000000	87.235	4.9149
7620.000000	87.671	8.6160
7750.000000	88.280	11.7928
7880.000000	88.986	13.6327
8000.000000	89.663	13.7924
8120.000000	90.269	12.3661
8250.000000	90.746	9.4271
8380.000000	90.993	5.9586
8500.000000	91.059	3.1298
8620.000000	91.051	1.0582
8750.000000	91.049	-0.4497
8850.000000	91.089	-1.3882
9000.000000	91.227	-3.0304
9120.000000	91.365	-4.9143
9250.000000	91.485	-7.6654
9380.000000	91.523	-10.9865
9500.000000	91.470	-14.2506
9620.000000	91.338	-17.4314
9750.000000	91.134	-20.6040
9880.000000	90.893	-23.4659
10000.000000	90.652	-25.8994
10150.000000	90.336	-28.8056
10300.000000	89.999	-31.7847
10440.000000	89.638	-34.7293
10600.000000	89.149	-38.1195
10750.000000	88.624	-41.1890
10900.000000	88.040	-44.1780
11060.000000	87.344	-47.3956
11200.000000	86.641	-50.2411
11380.000000	85.557	-53.5839
11500.000000	84.715	-55.2895
11720.000000	82.970	-56.6471
11800.000000	82.295	-56.4801
12060.000000	80.084	-53.5681
12200.000000	78.951	-50.7126
12410.000000	77.404	-45.1452
12500.000000	76.802	-42.3879
12650.000000	75.873	-37.4100
12800.000000	75.032	-32.0292
13150.000000	73.379	-18.1497
13200.000000	73.178	-16.0345
13400.000000	72.471	-7.2854
13600.000000	71.939	1.8857
13800.000000	71.626	11.4207
14000.000000	71.530	21.3181
14300.000000	71.843	36.9576
14500.000000	72.641	47.8409
14750.000000	74.452	57.7127
15000.000000	76.280	61.6062
15250.000000	77.761	62.6492
15500.000000	78.947	61.1417
15750.000000	79.886	57.4885
16000.000000	80.532	51.6354
16250.000000	80.731	43.7387
16500.000000	80.325	35.7416
16750.000000	79.411	30.3831
17000.000000	78.323	28.5358
17250.000000	77.334	28.9135
17500.000000	76.459	29.8322
17750.000000	75.622	30.3692
18000.000000	74.737	30.3685
18250.000000	73.708	30.3639
18500.000000	72.503	31.4021
18750.000000	71.197	34.3927
19000.000000	69.972	39.5724
19250.000000	69.049	46.3899
19500.000000	68.543	53.6473
19750.000000	68.344	59.7765
20000.000000	68.260	63.0065
