* Measurement data measured by REW V5.20.5
* Source: 마이크(THX Onyx USB Amplifie, MICROPHONE (마스), L, volume: 0.250
* Format: 128k Log Swept Sine, 4 sweeps at -5.0 dBFS with no timing reference
* Dated: 2022. 4. 18 오후 5:50:00
* REW Settings:
*  C-weighting compensation: Off
*  Target level: 75.0 dB
* Note: ; 
* Measurement: KEFm100_spinfit_Left
* Smoothing: 1/24 octave
* Frequency Step: 1/48 octave
* Start Frequency: 1.000 Hz
*
* Freq(Hz)	SPL(dB)	Phase(degrees)
1.000000	76.592	-21.2171
1.015000	76.501	-23.3663
1.030000	76.412	-25.4534
1.044000	76.332	-27.3384
1.060000	76.245	-29.4099
1.075000	76.166	-31.2636
1.090000	76.093	-33.0237
1.106000	76.019	-34.7930
1.120000	75.957	-36.2668
1.138000	75.879	-38.0708
1.150000	75.828	-39.2201
1.172000	75.738	-41.2248
1.180000	75.706	-41.9230
1.206000	75.605	-44.0901
1.220000	75.552	-45.1980
1.241000	75.476	-46.7920
1.250000	75.444	-47.4528
1.265000	75.392	-48.5279
1.280000	75.342	-49.5740
1.315000	75.231	-51.9264
1.320000	75.216	-52.2548
1.340000	75.156	-53.5553
1.360000	75.099	-54.8431
1.380000	75.045	-56.1286
1.400000	74.993	-57.4221
1.430000	74.920	-59.4000
1.450000	74.874	-60.7589
1.475000	74.821	-62.5164
1.500000	74.776	-64.3073
1.525000	74.739	-66.1138
1.550000	74.710	-67.9263
1.575000	74.686	-69.7354
1.600000	74.667	-71.5313
1.625000	74.651	-73.3045
1.650000	74.637	-75.0456
1.675000	74.624	-76.7449
1.700000	74.611	-78.3928
1.725000	74.596	-79.9798
1.750000	74.578	-81.4963
1.775000	74.556	-82.9328
1.800000	74.529	-84.2797
1.825000	74.495	-85.5274
1.850000	74.453	-86.6725
1.875000	74.407	-87.7282
1.900000	74.355	-88.7008
1.925000	74.299	-89.5964
1.950000	74.240	-90.4210
1.975000	74.179	-91.1804
2.000000	74.117	-91.8807
2.030000	74.041	-92.6515
2.060000	73.967	-93.3560
2.090000	73.894	-94.0046
2.120000	73.826	-94.6077
2.140000	73.783	-94.9895
2.180000	73.705	-95.7183
2.200000	73.672	-96.0712
2.240000	73.609	-96.7053
2.270000	73.564	-97.1061
2.300000	73.521	-97.4484
2.330000	73.481	-97.7368
2.360000	73.443	-97.9764
2.400000	73.400	-98.2279
2.430000	73.372	-98.3720
2.470000	73.342	-98.5140
2.500000	73.326	-98.5891
2.540000	73.314	-98.6565
2.580000	73.312	-98.6892
2.620000	73.321	-98.6321
2.650000	73.333	-98.5313
2.690000	73.358	-98.3349
2.720000	73.381	-98.1518
2.760000	73.421	-97.8756
2.800000	73.469	-97.5804
2.850000	73.540	-97.2144
2.900000	73.623	-96.8871
2.950000	73.720	-96.6236
3.000000	73.835	-96.3425
3.040000	73.940	-96.1026
3.070000	74.024	-95.9222
3.110000	74.143	-95.6914
3.150000	74.267	-95.4833
3.200000	74.425	-95.2748
3.250000	74.584	-95.1467
3.300000	74.740	-95.1239
3.350000	74.898	-95.2127
3.400000	75.063	-95.3933
3.450000	75.231	-95.6479
3.500000	75.401	-95.9583
3.550000	75.568	-96.3066
3.600000	75.729	-96.6747
3.650000	75.882	-97.0445
3.700000	76.026	-97.4151
3.750000	76.164	-97.8158
3.820000	76.351	-98.4206
3.870000	76.478	-98.8772
3.950000	76.670	-99.6367
4.000000	76.784	-100.1218
4.060000	76.913	-100.7146
4.120000	77.033	-101.3500
4.180000	77.146	-102.0129
4.250000	77.269	-102.7915
4.310000	77.367	-103.4379
4.370000	77.461	-104.0415
4.440000	77.564	-104.6752
4.500000	77.643	-105.1803
4.550000	77.705	-105.5784
4.620000	77.787	-106.1043
4.680000	77.854	-106.5290
4.750000	77.933	-106.9980
4.820000	78.012	-107.4373
4.870000	78.066	-107.7291
4.940000	78.141	-108.1105
5.000000	78.204	-108.4153
5.080000	78.290	-108.7952
5.150000	78.368	-109.1059
5.220000	78.448	-109.3810
5.300000	78.541	-109.6604
5.380000	78.636	-109.9230
5.450000	78.721	-110.1556
5.520000	78.808	-110.4033
5.600000	78.911	-110.6856
5.700000	79.043	-111.0400
5.800000	79.175	-111.4133
5.900000	79.306	-111.8226
6.000000	79.437	-112.2655
6.080000	79.542	-112.6377
6.150000	79.631	-112.9728
6.220000	79.718	-113.3139
6.300000	79.813	-113.7147
6.400000	79.929	-114.2354
6.500000	80.039	-114.7643
6.600000	80.145	-115.2871
6.700000	80.244	-115.8096
6.800000	80.337	-116.3323
6.900000	80.427	-116.8405
7.000000	80.513	-117.3211
7.100000	80.595	-117.7786
7.200000	80.674	-118.2165
7.300000	80.752	-118.6359
7.400000	80.830	-119.0351
7.500000	80.907	-119.4128
7.620000	80.998	-119.8472
7.750000	81.098	-120.3053
7.880000	81.199	-120.7427
8.000000	81.292	-121.1407
8.120000	81.386	-121.5463
8.250000	81.487	-121.9880
8.380000	81.587	-122.4349
8.500000	81.678	-122.8563
8.620000	81.767	-123.2858
8.750000	81.860	-123.7536
8.850000	81.929	-124.1126
9.000000	82.029	-124.6541
9.120000	82.106	-125.0813
9.250000	82.187	-125.5316
9.380000	82.267	-125.9723
9.500000	82.336	-126.3675
9.620000	82.402	-126.7491
9.750000	82.469	-127.1488
9.880000	82.528	-127.5374
10.000000	82.572	-127.8870
10.150000	82.616	-128.3110
10.300000	82.655	-128.7239
10.440000	82.683	-129.0973
10.600000	82.717	-129.5168
10.750000	82.760	-129.9076
10.900000	82.811	-130.2952
11.060000	82.868	-130.7119
11.200000	82.922	-131.0798
11.380000	82.985	-131.5491
11.500000	83.019	-131.8590
11.720000	83.074	-132.4178
11.800000	83.093	-132.6162
12.060000	83.152	-133.2455
12.200000	83.189	-133.5748
12.410000	83.246	-134.0553
12.500000	83.270	-134.2553
12.650000	83.309	-134.5804
12.800000	83.347	-134.8974
13.150000	83.435	-135.6102
13.200000	83.449	-135.7104
13.400000	83.507	-136.1074
13.600000	83.570	-136.5029
13.800000	83.638	-136.8988
14.000000	83.704	-137.2980
14.300000	83.795	-137.9024
14.500000	83.836	-138.3045
14.750000	83.876	-138.7983
15.000000	83.906	-139.2790
15.250000	83.952	-139.7442
15.500000	84.010	-140.1942
15.750000	84.076	-140.6308
16.000000	84.131	-141.0603
16.250000	84.180	-141.4906
16.500000	84.227	-141.9237
16.750000	84.278	-142.3598
17.000000	84.330	-142.7924
17.250000	84.380	-143.2178
17.500000	84.424	-143.6306
17.750000	84.465	-144.0296
18.000000	84.505	-144.4177
18.250000	84.545	-144.7984
18.500000	84.589	-145.1774
18.750000	84.634	-145.5559
19.000000	84.682	-145.9350
19.250000	84.729	-146.3117
19.500000	84.774	-146.6816
19.750000	84.815	-147.0413
20.000000	84.853	-147.3876
20.299999	84.894	-147.7884
20.600000	84.933	-148.1774
20.900000	84.969	-148.5602
21.200001	85.004	-148.9404
21.400000	85.027	-149.1918
21.799999	85.068	-149.6857
22.000000	85.086	-149.9260
22.400000	85.122	-150.3905
22.700001	85.154	-150.7252
23.000000	85.191	-151.0513
23.299999	85.230	-151.3732
23.600000	85.268	-151.6932
24.000000	85.317	-152.1180
24.299999	85.355	-152.4349
24.700001	85.405	-152.8548
25.000000	85.441	-153.1680
25.400000	85.486	-153.5843
25.799999	85.532	-153.9993
26.200001	85.578	-154.4106
26.500000	85.611	-154.7140
26.900000	85.649	-155.1083
27.200001	85.674	-155.3953
27.600000	85.704	-155.7680
28.000000	85.730	-156.1336
28.500000	85.754	-156.5882
29.000000	85.775	-157.0426
29.500000	85.796	-157.4911
30.000000	85.813	-157.9244
30.400000	85.824	-158.2578
30.700001	85.836	-158.5010
31.100000	85.857	-158.8180
31.500000	85.880	-159.1271
32.000000	85.911	-159.5003
32.500000	85.946	-159.8582
33.000000	85.984	-160.2082
33.500000	86.022	-160.5625
34.000000	86.057	-160.9259
34.500000	86.088	-161.2892
35.000000	86.116	-161.6383
35.500000	86.144	-161.9686
36.000000	86.172	-162.2889
36.500000	86.198	-162.6094
37.000000	86.219	-162.9325
37.500000	86.234	-163.2531
38.200001	86.256	-163.6919
38.700001	86.276	-163.9986
39.500000	86.301	-164.4734
40.000000	86.309	-164.7568
40.599998	86.315	-165.0893
41.200001	86.315	-165.4245
41.799999	86.312	-165.7632
42.500000	86.313	-166.1506
43.099998	86.326	-166.4694
43.700001	86.348	-166.7802
44.400002	86.382	-167.1416
45.000000	86.410	-167.4538
45.500000	86.431	-167.7133
46.200001	86.454	-168.0673
46.799999	86.470	-168.3557
47.500000	86.488	-168.6776
48.200001	86.509	-168.9966
48.700001	86.520	-169.2258
49.400002	86.523	-169.5429
50.000000	86.515	-169.8059
50.799999	86.501	-170.1479
51.500000	86.487	-170.4470
52.200001	86.480	-170.7467
53.000000	86.485	-171.0854
53.799999	86.502	-171.4158
54.500000	86.520	-171.6959
55.200001	86.540	-171.9679
56.000000	86.562	-172.2749
57.000000	86.581	-172.6606
58.000000	86.579	-173.0340
59.000000	86.563	-173.3800
60.000000	86.548	-173.7270
60.799999	86.541	-174.0191
61.500000	86.537	-174.2729
62.200001	86.536	-174.5157
63.000000	86.537	-174.7811
64.000000	86.544	-175.1040
65.000000	86.560	-175.4174
66.000000	86.578	-175.7107
67.000000	86.590	-175.9745
68.000000	86.596	-176.2134
69.000000	86.589	-176.4395
70.000000	86.576	-176.6653
71.000000	86.568	-176.9156
72.000000	86.568	-177.2059
73.000000	86.569	-177.5175
74.000000	86.578	-177.8296
75.000000	86.593	-178.1346
76.199997	86.614	-178.4915
77.500000	86.628	-178.8764
78.800003	86.624	-179.2557
80.000000	86.606	-179.5940
81.199997	86.578	-179.9193
82.500000	86.551	179.7393
83.800003	86.545	179.4053
85.000000	86.554	179.1036
86.199997	86.561	178.8102
87.500000	86.558	178.5006
88.500000	86.547	178.2672
90.000000	86.519	177.9227
91.199997	86.491	177.6545
92.500000	86.466	177.3714
93.800003	86.454	177.0937
95.000000	86.453	176.8436
96.199997	86.454	176.6010
97.500000	86.449	176.3466
98.800003	86.432	176.0995
100.000000	86.405	175.8786
101.500000	86.367	175.6110
103.000000	86.340	175.3504
104.400002	86.328	175.1122
106.000000	86.323	174.8492
107.500000	86.313	174.6130
109.000000	86.290	174.3813
110.599998	86.254	174.1343
112.000000	86.221	173.9139
113.800003	86.191	173.6303
115.000000	86.182	173.4451
117.199997	86.163	173.1143
118.000000	86.149	172.9953
120.599998	86.077	172.6257
122.000000	86.031	172.4480
124.099998	85.971	172.2225
125.000000	85.948	172.1480
126.500000	85.908	172.0660
128.000000	85.858	172.0511
131.500000	85.708	172.3451
132.000000	85.689	172.4253
134.000000	85.627	172.8503
136.000000	85.593	173.5197
138.000000	85.597	174.5358
140.000000	85.685	175.7450
143.000000	86.032	176.6709
145.000000	86.304	176.0942
147.500000	86.521	174.4830
150.000000	86.572	172.7654
152.500000	86.535	171.3745
155.000000	86.488	170.3230
157.500000	86.442	169.5167
160.000000	86.383	168.8758
162.500000	86.320	168.3449
165.000000	86.273	167.8976
167.500000	86.239	167.5201
170.000000	86.198	167.1948
172.500000	86.150	166.8958
175.000000	86.116	166.5975
177.500000	86.086	166.2935
180.000000	86.039	165.9933
182.500000	85.973	165.7119
185.000000	85.901	165.4601
187.500000	85.835	165.2342
190.000000	85.780	165.0097
192.500000	85.743	164.7570
195.000000	85.726	164.4711
197.500000	85.715	164.1720
200.000000	85.691	163.8796
203.000000	85.653	163.5511
206.000000	85.618	163.2503
209.000000	85.579	162.9728
212.000000	85.533	162.7137
214.000000	85.505	162.5497
218.000000	85.453	162.2436
220.000000	85.423	162.0991
224.000000	85.359	161.8228
227.000000	85.318	161.6259
230.000000	85.276	161.4374
233.000000	85.231	161.2551
236.000000	85.190	161.0753
240.000000	85.140	160.8361
243.000000	85.102	160.6591
247.000000	85.060	160.4338
250.000000	85.023	160.2766
254.000000	84.963	160.0796
258.000000	84.905	159.8889
262.000000	84.850	159.6912
265.000000	84.813	159.5341
269.000000	84.764	159.3206
272.000000	84.723	159.1647
276.000000	84.665	158.9680
280.000000	84.608	158.7870
285.000000	84.541	158.5837
290.000000	84.478	158.4045
295.000000	84.411	158.2457
300.000000	84.341	158.0998
304.000000	84.284	157.9867
307.000000	84.244	157.8989
311.000000	84.191	157.7786
315.000000	84.141	157.6596
320.000000	84.081	157.5203
325.000000	84.019	157.3925
330.000000	83.953	157.2752
335.000000	83.888	157.1661
340.000000	83.826	157.0681
345.000000	83.769	156.9815
350.000000	83.710	156.9074
355.000000	83.645	156.8440
360.000000	83.579	156.7887
365.000000	83.514	156.7408
370.000000	83.450	156.7022
375.000000	83.387	156.6735
382.000000	83.299	156.6461
387.000000	83.238	156.6306
395.000000	83.145	156.6142
400.000000	83.089	156.6117
406.000000	83.020	156.6158
412.000000	82.948	156.6274
418.000000	82.876	156.6471
425.000000	82.798	156.6769
431.000000	82.731	156.7093
437.000000	82.663	156.7521
444.000000	82.581	156.8136
450.000000	82.513	156.8756
455.000000	82.460	156.9348
462.000000	82.389	157.0300
468.000000	82.328	157.1205
475.000000	82.259	157.2339
482.000000	82.189	157.3589
487.000000	82.138	157.4558
494.000000	82.066	157.5980
500.000000	82.007	157.7233
508.000000	81.930	157.8981
515.000000	81.861	158.0566
522.000000	81.794	158.2222
530.000000	81.724	158.4208
538.000000	81.657	158.6255
545.000000	81.593	158.8113
552.000000	81.522	159.0025
560.000000	81.445	159.2305
570.000000	81.364	159.5316
580.000000	81.286	159.8508
590.000000	81.198	160.1873
600.000000	81.108	160.5424
608.000000	81.043	160.8386
615.000000	80.993	161.1039
622.000000	80.944	161.3740
630.000000	80.887	161.6894
640.000000	80.819	162.0920
650.000000	80.753	162.5021
660.000000	80.688	162.9181
670.000000	80.626	163.3422
680.000000	80.567	163.7685
690.000000	80.506	164.1979
700.000000	80.445	164.6321
710.000000	80.390	165.0759
720.000000	80.340	165.5287
730.000000	80.295	165.9840
740.000000	80.254	166.4439
750.000000	80.213	166.9126
762.000000	80.167	167.4839
775.000000	80.123	168.1094
788.000000	80.086	168.7404
800.000000	80.059	169.3228
812.000000	80.033	169.8963
825.000000	80.008	170.5034
838.000000	79.992	171.0925
850.000000	79.979	171.6138
862.000000	79.968	172.1031
875.000000	79.965	172.5817
885.000000	79.969	172.9022
900.000000	79.976	173.2878
912.000000	79.975	173.5158
925.000000	79.962	173.7142
938.000000	79.938	173.9449
950.000000	79.915	174.2386
962.000000	79.904	174.5551
975.000000	79.908	174.7831
988.000000	79.910	174.7823
1000.000000	79.885	174.5786
1015.000000	79.782	174.2463
1030.000000	79.587	174.2985
1044.000000	79.373	175.0927
1060.000000	79.198	176.7823
1075.000000	79.154	178.5570
1090.000000	79.197	-179.9318
1106.000000	79.286	-178.7218
1120.000000	79.371	-177.9413
1138.000000	79.471	-177.1985
1150.000000	79.530	-176.8110
1172.000000	79.617	-176.2429
1180.000000	79.643	-176.0677
1206.000000	79.703	-175.5707
1220.000000	79.719	-175.3357
1241.000000	79.729	-175.0106
1250.000000	79.733	-174.8754
1265.000000	79.752	-174.6513
1280.000000	79.796	-174.4291
1315.000000	79.981	-173.9133
1320.000000	80.010	-173.8397
1340.000000	80.115	-173.5457
1360.000000	80.199	-173.2523
1380.000000	80.252	-172.9559
1400.000000	80.277	-172.6539
1430.000000	80.293	-172.2034
1450.000000	80.300	-171.9067
1475.000000	80.314	-171.5416
1500.000000	80.333	-171.1702
1525.000000	80.349	-170.7826
1550.000000	80.364	-170.3835
1575.000000	80.383	-169.9754
1600.000000	80.404	-169.5619
1625.000000	80.427	-169.1315
1650.000000	80.451	-168.6781
1675.000000	80.476	-168.2074
1700.000000	80.505	-167.7303
1725.000000	80.538	-167.2531
1750.000000	80.572	-166.7767
1775.000000	80.602	-166.3007
1800.000000	80.633	-165.8264
1825.000000	80.668	-165.3553
1850.000000	80.704	-164.8925
1875.000000	80.741	-164.4444
1900.000000	80.778	-164.0102
1925.000000	80.817	-163.5819
1950.000000	80.856	-163.1534
1975.000000	80.896	-162.7245
2000.000000	80.937	-162.2965
2030.000000	80.985	-161.7792
2060.000000	81.033	-161.2565
2090.000000	81.078	-160.7203
2120.000000	81.122	-160.1460
2140.000000	81.150	-159.7327
2180.000000	81.203	-158.8197
2200.000000	81.229	-158.3114
2240.000000	81.287	-157.1445
2270.000000	81.347	-156.1068
2300.000000	81.436	-154.9501
2330.000000	81.570	-153.7698
2360.000000	81.755	-152.7328
2400.000000	82.046	-151.8353
2430.000000	82.261	-151.5678
2470.000000	82.510	-151.5742
2500.000000	82.666	-151.6884
2540.000000	82.842	-151.8400
2580.000000	82.994	-151.9376
2620.000000	83.134	-151.9788
2650.000000	83.238	-151.9837
2690.000000	83.378	-151.9645
2720.000000	83.485	-151.9310
2760.000000	83.629	-151.8637
2800.000000	83.775	-151.7854
2850.000000	83.962	-151.7148
2900.000000	84.154	-151.7002
2950.000000	84.349	-151.7512
3000.000000	84.549	-151.8815
3040.000000	84.710	-152.0528
3070.000000	84.830	-152.2278
3110.000000	84.991	-152.5380
3150.000000	85.150	-152.9480
3200.000000	85.348	-153.6004
3250.000000	85.540	-154.4006
3300.000000	85.717	-155.3568
3350.000000	85.868	-156.4614
3400.000000	85.982	-157.6571
3450.000000	86.049	-158.8134
3500.000000	86.069	-159.7294
3550.000000	86.072	-160.2276
3600.000000	86.099	-160.3070
3650.000000	86.176	-160.1681
3700.000000	86.306	-160.0643
3750.000000	86.472	-160.1653
3820.000000	86.725	-160.7444
3870.000000	86.904	-161.4374
3950.000000	87.177	-162.9114
4000.000000	87.333	-164.0167
4060.000000	87.495	-165.5010
4120.000000	87.621	-167.1105
4180.000000	87.708	-168.7897
4250.000000	87.764	-170.7885
4310.000000	87.782	-172.5103
4370.000000	87.785	-174.2283
4440.000000	87.783	-176.2255
4500.000000	87.775	-177.9202
4550.000000	87.761	-179.3005
4620.000000	87.724	178.8463
4680.000000	87.673	177.3340
4750.000000	87.583	175.6682
4820.000000	87.459	174.1773
4870.000000	87.360	173.2716
4940.000000	87.230	172.1665
5000.000000	87.122	171.2196
5080.000000	86.953	169.9613
5150.000000	86.786	168.9809
5220.000000	86.612	168.1161
5300.000000	86.408	167.2419
5380.000000	86.203	166.4910
5450.000000	86.027	165.9289
5520.000000	85.857	165.4457
5600.000000	85.667	164.9817
5700.000000	85.430	164.5192
5800.000000	85.194	164.1758
5900.000000	84.966	163.9687
6000.000000	84.751	163.9235
6080.000000	84.592	163.9799
6150.000000	84.463	164.0871
6220.000000	84.339	164.2542
6300.000000	84.197	164.5309
6400.000000	84.022	165.0234
6500.000000	83.863	165.6939
6600.000000	83.731	166.5446
6700.000000	83.635	167.5573
6800.000000	83.592	168.6802
6900.000000	83.609	169.8365
7000.000000	83.685	170.9402
7100.000000	83.819	171.8976
7200.000000	84.014	172.6027
7300.000000	84.274	172.9498
7400.000000	84.582	172.8580
7500.000000	84.910	172.2603
7620.000000	85.289	170.7634
7750.000000	85.622	168.1125
7880.000000	85.791	164.5501
8000.000000	85.770	160.7261
8120.000000	85.596	156.7012
8250.000000	85.278	152.4390
8380.000000	84.867	148.4813
8500.000000	84.434	145.1648
8620.000000	83.947	142.2175
8750.000000	83.344	139.5394
8850.000000	82.845	137.9203
9000.000000	82.089	136.2891
9120.000000	81.484	135.6667
9250.000000	80.843	135.6217
9380.000000	80.238	136.1603
9500.000000	79.716	137.1008
9620.000000	79.239	138.3755
9750.000000	78.783	140.0438
9880.000000	78.389	141.9617
10000.000000	78.079	143.9008
10150.000000	77.773	146.4179
10300.000000	77.566	148.9145
10440.000000	77.458	151.1564
10600.000000	77.410	153.5310
10750.000000	77.429	155.4777
10900.000000	77.534	157.0307
11060.000000	77.746	158.0811
11200.000000	78.003	158.3250
11380.000000	78.387	157.4549
11500.000000	78.640	155.9878
11720.000000	78.999	151.2475
11800.000000	79.065	148.8878
12060.000000	78.884	139.6213
12200.000000	78.493	134.3582
12410.000000	77.557	127.4401
12500.000000	77.057	125.0861
12650.000000	76.135	122.1077
12800.000000	75.156	120.2632
13150.000000	72.935	119.6892
13200.000000	72.631	119.9550
13400.000000	71.434	121.6819
13600.000000	70.285	124.2802
13800.000000	69.230	127.5217
14000.000000	68.313	131.2288
14300.000000	67.209	137.3817
14500.000000	66.633	141.7492
14750.000000	66.040	147.3790
15000.000000	65.542	153.1144
15250.000000	65.119	158.8779
15500.000000	64.756	164.5503
15750.000000	64.506	170.0404
16000.000000	64.474	175.2342
16250.000000	64.663	-179.9882
16500.000000	65.016	-175.6900
16750.000000	65.522	-172.1047
17000.000000	66.170	-169.6457
17250.000000	66.982	-168.7724
17500.000000	67.961	-170.3824
17750.000000	68.896	-176.2112
18000.000000	69.341	173.0133
18250.000000	68.939	159.9864
18500.000000	67.686	148.9917
18750.000000	65.865	142.3887
19000.000000	63.833	140.1162
19250.000000	61.853	141.1210
19500.000000	59.993	144.4103
19750.000000	58.227	148.8120
20000.000000	57.024	151.8278
