* Measurement data measured by REW V5.20.13
* Source: EXCL: Microphone(High Definition Audio Device), MICROPHONE (마스), R, volume: 1.000
* Format: 256k Log Swept Sine, 1 sweep at -12.0 dBFS with no timing reference
* Dated: 2023. 2. 22 오후 9:18:32
* REW Settings:
*  C-weighting compensation: Off
*  Target level: 75.0 dB
* Note: 
* Measurement: R
* Smoothing: 1/24 octave
* Frequency Step: 1/48 octave
* Start Frequency: 20.300 Hz
*
* Freq(Hz)	SPL(dB)	Phase(degrees)
20.299999	86.680	-116.8556
20.600000	86.706	-117.2584
20.900000	86.757	-117.8710
21.200001	86.802	-118.1702
21.400000	86.840	-118.2234
21.799999	86.958	-118.2095
22.000000	87.041	-118.2601
22.400000	87.233	-118.6614
22.700001	87.374	-119.2637
23.000000	87.487	-120.0597
23.299999	87.566	-120.9050
23.600000	87.617	-121.6751
24.000000	87.666	-122.4564
24.299999	87.712	-122.8594
24.700001	87.805	-123.2744
25.000000	87.897	-123.6072
25.400000	88.034	-124.1713
25.799999	88.168	-124.8585
26.200001	88.292	-125.5865
26.500000	88.378	-126.1248
26.900000	88.486	-126.8318
27.200001	88.561	-127.3651
27.600000	88.648	-128.0736
28.000000	88.719	-128.7247
28.500000	88.796	-129.3610
29.000000	88.883	-129.8135
29.500000	88.991	-130.2519
30.000000	89.107	-130.8446
30.400000	89.189	-131.4236
30.700001	89.239	-131.8705
31.100000	89.294	-132.4203
31.500000	89.344	-132.8975
32.000000	89.412	-133.4319
32.500000	89.490	-133.9762
33.000000	89.577	-134.5853
33.500000	89.668	-135.2728
34.000000	89.754	-136.0303
34.500000	89.827	-136.8183
35.000000	89.885	-137.5662
35.500000	89.938	-138.2168
36.000000	89.995	-138.7815
36.500000	90.057	-139.3020
37.000000	90.122	-139.7897
37.500000	90.192	-140.2357
38.200001	90.310	-140.8750
38.700001	90.404	-141.4707
39.500000	90.514	-142.7297
40.000000	90.538	-143.5213
40.599998	90.537	-144.2437
41.200001	90.542	-144.6808
41.799999	90.576	-144.9891
42.500000	90.646	-145.3831
43.099998	90.722	-145.7604
43.700001	90.822	-146.1832
44.400002	90.969	-146.9953
45.000000	91.074	-148.2007
45.500000	91.096	-149.4291
46.200001	91.005	-150.8097
46.799999	90.882	-151.1384
47.500000	90.829	-150.6903
48.200001	90.922	-150.1874
48.700001	91.045	-150.1500
49.400002	91.231	-150.6451
50.000000	91.369	-151.5087
50.799999	91.480	-153.0463
51.500000	91.493	-154.3845
52.200001	91.452	-155.4332
53.000000	91.382	-156.1682
53.799999	91.335	-156.4258
54.500000	91.347	-156.4368
55.200001	91.413	-156.5380
56.000000	91.513	-156.9632
57.000000	91.612	-157.8581
58.000000	91.659	-158.8959
59.000000	91.657	-159.7393
60.000000	91.660	-160.3033
60.799999	91.689	-160.7889
61.500000	91.717	-161.3225
62.200001	91.734	-161.9052
63.000000	91.743	-162.5434
64.000000	91.755	-163.2606
65.000000	91.766	-163.9158
66.000000	91.781	-164.4745
67.000000	91.812	-165.0191
68.000000	91.836	-165.6271
69.000000	91.853	-166.1681
70.000000	91.879	-166.7623
71.000000	91.888	-167.4814
72.000000	91.879	-168.1524
73.000000	91.867	-168.7780
74.000000	91.854	-169.3223
75.000000	91.857	-169.8114
76.199997	91.876	-170.4496
77.500000	91.901	-171.1668
78.800003	91.913	-171.8852
80.000000	91.916	-172.4340
81.199997	91.925	-172.9886
82.500000	91.925	-173.5954
83.800003	91.920	-174.1633
85.000000	91.916	-174.6781
86.199997	91.914	-175.2205
87.500000	91.906	-175.8538
88.500000	91.900	-176.3476
90.000000	91.883	-177.1182
91.199997	91.861	-177.6354
92.500000	91.852	-178.0942
93.800003	91.852	-178.5217
95.000000	91.856	-178.9062
96.199997	91.850	-179.2814
97.500000	91.845	-179.6277
98.800003	91.840	179.9238
100.000000	91.817	179.4397
101.500000	91.777	178.8806
103.000000	91.742	178.3082
104.400002	91.703	177.7755
106.000000	91.655	177.2542
107.500000	91.614	176.7867
109.000000	91.582	176.2892
110.599998	91.555	175.7282
112.000000	91.537	175.2499
113.800003	91.516	174.7847
115.000000	91.506	174.5385
117.199997	91.450	173.9932
118.000000	91.411	173.8273
120.599998	91.337	173.4357
122.000000	91.338	172.9284
124.099998	91.326	172.0914
125.000000	91.320	171.8051
126.500000	91.304	171.3902
128.000000	91.272	171.0228
131.500000	91.182	170.2130
132.000000	91.170	170.0724
134.000000	91.125	169.5123
136.000000	91.087	169.0546
138.000000	91.062	168.6224
140.000000	91.031	168.1632
143.000000	90.945	167.6768
145.000000	90.883	167.4903
147.500000	90.825	167.0945
150.000000	90.773	166.3896
152.500000	90.717	165.8162
155.000000	90.655	165.5102
157.500000	90.571	165.2730
160.000000	90.476	164.8962
162.500000	90.397	164.4161
165.000000	90.335	163.9910
167.500000	90.262	163.6584
170.000000	90.180	163.3423
172.500000	90.098	162.9740
175.000000	90.014	162.6980
177.500000	89.924	162.5310
180.000000	89.824	162.3389
182.500000	89.712	162.1479
185.000000	89.589	162.0688
187.500000	89.464	162.1484
190.000000	89.345	162.2759
192.500000	89.232	162.5192
195.000000	89.130	162.9296
197.500000	89.028	163.5246
200.000000	88.939	164.3883
203.000000	88.889	165.6961
206.000000	88.929	166.9565
209.000000	89.064	167.8279
212.000000	89.254	168.1130
214.000000	89.369	168.0021
218.000000	89.542	167.2923
220.000000	89.601	166.8192
224.000000	89.665	165.9231
227.000000	89.677	165.2709
230.000000	89.668	164.6075
233.000000	89.641	164.0377
236.000000	89.606	163.5590
240.000000	89.562	162.9420
243.000000	89.525	162.4957
247.000000	89.470	162.0470
250.000000	89.437	161.8420
254.000000	89.381	161.4825
258.000000	89.300	161.1032
262.000000	89.229	160.8170
265.000000	89.172	160.6328
269.000000	89.076	160.3318
272.000000	88.998	160.0742
276.000000	88.916	159.8777
280.000000	88.861	159.9165
285.000000	88.795	159.9826
290.000000	88.721	159.8672
295.000000	88.637	159.7757
300.000000	88.568	159.5970
304.000000	88.515	159.3654
307.000000	88.480	159.2296
311.000000	88.444	159.2266
315.000000	88.405	159.4149
320.000000	88.343	159.5844
325.000000	88.271	159.5440
330.000000	88.179	159.5187
335.000000	88.114	159.5544
340.000000	88.074	159.5875
345.000000	88.029	159.6630
350.000000	87.978	159.7491
355.000000	87.924	159.7671
360.000000	87.832	159.7798
365.000000	87.735	159.8158
370.000000	87.680	159.8331
375.000000	87.647	159.9939
382.000000	87.586	160.1954
387.000000	87.539	160.2359
395.000000	87.457	160.5950
400.000000	87.394	160.8383
406.000000	87.317	160.9656
412.000000	87.249	161.0533
418.000000	87.196	161.2604
425.000000	87.144	161.5580
431.000000	87.084	161.7951
437.000000	87.022	161.9557
444.000000	86.989	162.0272
450.000000	86.961	162.2565
455.000000	86.922	162.6063
462.000000	86.859	163.0985
468.000000	86.802	163.2586
475.000000	86.753	163.3366
482.000000	86.716	163.6943
487.000000	86.696	163.9823
494.000000	86.672	164.2822
500.000000	86.624	164.6080
508.000000	86.541	165.0355
515.000000	86.482	165.3503
522.000000	86.429	165.6814
530.000000	86.390	166.1568
538.000000	86.377	166.5739
545.000000	86.367	166.9231
552.000000	86.350	167.2506
560.000000	86.315	167.6089
570.000000	86.257	168.2294
580.000000	86.171	168.8706
590.000000	86.131	169.5048
600.000000	86.131	170.0374
608.000000	86.120	170.3860
615.000000	86.091	170.7484
622.000000	86.062	171.1673
630.000000	86.036	171.7018
640.000000	86.004	172.3914
650.000000	85.977	173.0487
660.000000	85.950	173.7802
670.000000	85.934	174.4510
680.000000	85.937	175.0094
690.000000	85.935	175.6296
700.000000	85.929	176.3207
710.000000	85.908	177.0413
720.000000	85.894	177.7690
730.000000	85.896	178.4384
740.000000	85.903	179.0550
750.000000	85.922	179.7349
762.000000	85.958	-179.3200
775.000000	86.000	-178.2321
788.000000	86.045	-177.2938
800.000000	86.091	-176.5060
812.000000	86.136	-175.6735
825.000000	86.177	-174.7548
838.000000	86.250	-173.8444
850.000000	86.332	-173.0224
862.000000	86.410	-172.2294
875.000000	86.495	-171.4122
885.000000	86.568	-170.8222
900.000000	86.687	-169.9535
912.000000	86.782	-169.2507
925.000000	86.898	-168.6306
938.000000	87.021	-168.0402
950.000000	87.143	-167.4740
962.000000	87.268	-166.9529
975.000000	87.402	-166.4584
988.000000	87.531	-166.0444
1000.000000	87.654	-165.7119
1015.000000	87.823	-165.4115
1030.000000	87.998	-165.2056
1044.000000	88.157	-165.1161
1060.000000	88.327	-165.1435
1075.000000	88.459	-165.1995
1090.000000	88.578	-165.1248
1106.000000	88.736	-164.9619
1120.000000	88.887	-164.8996
1138.000000	89.066	-164.9768
1150.000000	89.183	-165.1032
1172.000000	89.389	-165.4949
1180.000000	89.461	-165.6588
1206.000000	89.667	-166.2004
1220.000000	89.762	-166.5260
1241.000000	89.901	-166.9439
1250.000000	89.958	-167.1115
1265.000000	90.050	-167.3927
1280.000000	90.134	-167.6792
1315.000000	90.325	-168.3951
1320.000000	90.349	-168.5063
1340.000000	90.432	-168.9268
1360.000000	90.512	-169.3136
1380.000000	90.605	-169.6294
1400.000000	90.692	-169.8904
1430.000000	90.803	-170.2938
1450.000000	90.880	-170.5748
1475.000000	90.965	-170.8530
1500.000000	91.054	-171.1265
1525.000000	91.153	-171.3318
1550.000000	91.245	-171.5316
1575.000000	91.335	-171.7739
1600.000000	91.422	-171.9271
1625.000000	91.506	-172.0311
1650.000000	91.597	-172.1453
1675.000000	91.691	-172.2525
1700.000000	91.785	-172.4035
1725.000000	91.880	-172.5303
1750.000000	91.975	-172.6271
1775.000000	92.069	-172.6974
1800.000000	92.171	-172.7463
1825.000000	92.276	-172.8621
1850.000000	92.378	-172.9917
1875.000000	92.484	-173.1048
1900.000000	92.593	-173.2463
1925.000000	92.701	-173.4301
1950.000000	92.807	-173.6358
1975.000000	92.915	-173.8542
2000.000000	93.024	-174.0764
2030.000000	93.150	-174.3661
2060.000000	93.278	-174.6781
2090.000000	93.403	-175.0001
2120.000000	93.527	-175.3312
2140.000000	93.609	-175.5587
2180.000000	93.774	-176.0451
2200.000000	93.851	-176.3084
2240.000000	93.997	-176.8545
2270.000000	94.107	-177.2504
2300.000000	94.212	-177.6381
2330.000000	94.308	-178.0165
2360.000000	94.402	-178.3629
2400.000000	94.532	-178.7296
2430.000000	94.633	-178.9225
2470.000000	94.785	-179.0682
2500.000000	94.922	-179.1142
2540.000000	95.146	-179.1761
2580.000000	95.428	-179.4225
2620.000000	95.747	179.8944
2650.000000	95.989	179.0060
2690.000000	96.281	177.3855
2720.000000	96.458	175.9505
2760.000000	96.639	173.9161
2800.000000	96.767	171.8911
2850.000000	96.870	169.4879
2900.000000	96.927	167.2260
2950.000000	96.952	165.0981
3000.000000	96.949	163.1229
3040.000000	96.931	161.6475
3070.000000	96.908	160.6093
3110.000000	96.867	159.3393
3150.000000	96.817	158.2025
3200.000000	96.747	156.9626
3250.000000	96.685	155.9319
3300.000000	96.641	155.0538
3350.000000	96.622	154.2205
3400.000000	96.619	153.3159
3450.000000	96.620	152.2895
3500.000000	96.610	151.1797
3550.000000	96.579	150.0585
3600.000000	96.531	149.0143
3650.000000	96.466	148.0957
3700.000000	96.393	147.3226
3750.000000	96.322	146.6862
3820.000000	96.234	145.9534
3870.000000	96.178	145.4854
3950.000000	96.096	144.7850
4000.000000	96.046	144.3552
4060.000000	95.984	143.8470
4120.000000	95.917	143.3784
4180.000000	95.849	142.9665
4250.000000	95.769	142.5778
4310.000000	95.696	142.3010
4370.000000	95.620	142.0855
4440.000000	95.532	141.8989
4500.000000	95.460	141.7784
4550.000000	95.404	141.7079
4620.000000	95.332	141.6398
4680.000000	95.278	141.5839
4750.000000	95.224	141.5132
4820.000000	95.174	141.4394
4870.000000	95.138	141.3796
4940.000000	95.088	141.2871
5000.000000	95.046	141.2124
5080.000000	94.991	141.1044
5150.000000	94.940	141.0152
5220.000000	94.889	140.9380
5300.000000	94.831	140.8553
5380.000000	94.768	140.7851
5450.000000	94.710	140.7477
5520.000000	94.648	140.7410
5600.000000	94.577	140.7848
5700.000000	94.486	140.9261
5800.000000	94.396	141.1844
5900.000000	94.307	141.5974
6000.000000	94.230	142.1842
6080.000000	94.185	142.7731
6150.000000	94.161	143.3665
6220.000000	94.155	144.0224
6300.000000	94.174	144.8376
6400.000000	94.236	145.9102
6500.000000	94.349	146.9625
6600.000000	94.514	147.8817
6700.000000	94.730	148.5782
6800.000000	94.989	148.9790
6900.000000	95.293	149.0878
7000.000000	95.646	148.8973
7100.000000	96.024	148.2825
7200.000000	96.399	147.2427
7300.000000	96.764	145.8462
7400.000000	97.122	144.1064
7500.000000	97.480	141.9850
7620.000000	97.915	138.8299
7750.000000	98.365	134.4772
7880.000000	98.680	128.9478
8000.000000	98.805	122.7746
8120.000000	98.724	115.7774
8250.000000	98.351	107.8179
8380.000000	97.664	100.2737
8500.000000	96.782	94.3740
8620.000000	95.732	89.8647
8750.000000	94.484	86.5846
8850.000000	93.493	85.0988
9000.000000	92.014	84.3432
9120.000000	90.874	84.8072
9250.000000	89.701	86.1355
9380.000000	88.599	88.1481
9500.000000	87.642	90.4839
9620.000000	86.746	93.1851
9750.000000	85.838	96.4678
9880.000000	84.995	100.0666
10000.000000	84.273	103.6266
10150.000000	83.440	108.3321
10300.000000	82.674	113.2543
10440.000000	82.011	118.0370
10600.000000	81.318	123.7220
10750.000000	80.728	129.1880
10900.000000	80.193	134.7645
11060.000000	79.684	140.8429
11200.000000	79.287	146.2457
11380.000000	78.845	153.3214
11500.000000	78.588	158.0884
11720.000000	78.187	166.9301
11800.000000	78.068	170.1824
12060.000000	77.786	-179.2028
12200.000000	77.682	-173.4572
12410.000000	77.571	-164.8090
12500.000000	77.544	-161.1119
12650.000000	77.535	-154.9362
12800.000000	77.579	-148.7529
13150.000000	77.924	-134.4342
13200.000000	77.999	-132.3987
13400.000000	78.367	-124.2997
13600.000000	78.866	-116.3607
13800.000000	79.527	-108.6318
14000.000000	80.368	-101.0964
14300.000000	82.054	-90.3712
14500.000000	83.573	-84.0135
14750.000000	86.121	-78.0140
15000.000000	89.503	-76.8512
15250.000000	92.982	-87.2020
15500.000000	94.814	-114.2176
15750.000000	93.976	-143.5992
16000.000000	91.361	-158.0701
16250.000000	88.698	-160.4709
16500.000000	86.868	-158.1499
16750.000000	85.832	-154.9984
17000.000000	85.345	-153.0595
17250.000000	85.146	-153.8262
17500.000000	84.894	-158.1235
17750.000000	84.203	-164.9940
18000.000000	82.840	-171.5125
18250.000000	80.863	-174.6341
18500.000000	78.538	-173.0703
18750.000000	76.203	-167.3956
19000.000000	74.066	-158.6849
19250.000000	72.257	-147.7979
19500.000000	70.896	-136.6904
19750.000000	69.928	-127.7596
20000.000000	69.400	-123.1912
