* Measurement data measured by REW V5.20.13
* Source: EXCL: Mic in at rear panel (Pink)(Realtek(R) Audio), MICROPHONE (마스), L, volume: 0.500
* Format: 256k Log Swept Sine, 1 sweep at -12.0 dBFS with no timing reference
* Dated: 2022. 9. 30 오후 10:49:52
* REW Settings:
*  C-weighting compensation: Off
*  Target level: 75.0 dB
* Note: 
* Measurement: L_Double
* Smoothing: 1/24 octave
* Frequency Step: 1/48 octave
* Start Frequency: 20.300 Hz
*
* Freq(Hz)	SPL(dB)	Phase(degrees)
20.299999	69.676	-151.9837
20.600000	69.709	-151.8253
20.900000	69.766	-151.6389
21.200001	69.793	-151.6903
21.400000	69.794	-151.7812
21.799999	69.776	-151.9544
22.000000	69.768	-152.0170
22.400000	69.776	-152.2184
22.700001	69.796	-152.5824
23.000000	69.807	-153.1750
23.299999	69.794	-153.8902
23.600000	69.756	-154.5854
24.000000	69.687	-155.2943
24.299999	69.645	-155.6268
24.700001	69.625	-155.9071
25.000000	69.635	-156.0917
25.400000	69.669	-156.3564
25.799999	69.714	-156.6038
26.200001	69.772	-156.8145
26.500000	69.822	-156.9886
26.900000	69.882	-157.2940
27.200001	69.909	-157.5503
27.600000	69.911	-157.7903
28.000000	69.893	-157.7316
28.500000	69.906	-157.2565
29.000000	70.002	-156.8700
29.500000	70.125	-157.1213
30.000000	70.182	-157.9686
30.400000	70.154	-158.7093
30.700001	70.105	-159.1337
31.100000	70.034	-159.4785
31.500000	69.982	-159.6773
32.000000	69.951	-159.9540
32.500000	69.936	-160.3646
33.000000	69.927	-160.8255
33.500000	69.929	-161.2711
34.000000	69.946	-161.7326
34.500000	69.962	-162.2124
35.000000	69.968	-162.6134
35.500000	69.973	-162.8395
36.000000	69.993	-162.9196
36.500000	70.030	-162.9606
37.000000	70.070	-163.0360
37.500000	70.103	-163.1447
38.200001	70.126	-163.3014
38.700001	70.126	-163.3754
39.500000	70.125	-163.3769
40.000000	70.137	-163.3999
40.599998	70.156	-163.6016
41.200001	70.148	-163.9193
41.799999	70.121	-164.0912
42.500000	70.123	-164.0558
43.099998	70.168	-164.1263
43.700001	70.214	-164.4066
44.400002	70.243	-164.7714
45.000000	70.267	-165.0269
45.500000	70.286	-165.2948
46.200001	70.286	-165.7652
46.799999	70.251	-166.0608
47.500000	70.208	-166.1439
48.200001	70.194	-166.1567
48.700001	70.192	-166.2276
49.400002	70.188	-166.3759
50.000000	70.187	-166.4975
50.799999	70.196	-166.7084
51.500000	70.201	-166.9183
52.200001	70.208	-167.0412
53.000000	70.239	-167.1719
53.799999	70.266	-167.4686
54.500000	70.261	-167.7020
55.200001	70.251	-167.7572
56.000000	70.262	-167.7750
57.000000	70.280	-167.9599
58.000000	70.284	-168.1989
59.000000	70.277	-168.4262
60.000000	70.271	-168.5329
60.799999	70.284	-168.6077
61.500000	70.300	-168.7449
62.200001	70.306	-168.9018
63.000000	70.305	-169.0352
64.000000	70.299	-169.1315
65.000000	70.293	-169.1632
66.000000	70.295	-169.1945
67.000000	70.299	-169.2890
68.000000	70.301	-169.4194
69.000000	70.299	-169.5828
70.000000	70.293	-169.7179
71.000000	70.293	-169.8390
72.000000	70.287	-169.9818
73.000000	70.279	-170.0524
74.000000	70.282	-170.1204
75.000000	70.286	-170.2601
76.199997	70.284	-170.4513
77.500000	70.278	-170.6359
78.800003	70.277	-170.7643
80.000000	70.280	-170.8752
81.199997	70.277	-170.9776
82.500000	70.267	-170.9860
83.800003	70.266	-170.9542
85.000000	70.264	-170.9817
86.199997	70.255	-171.0486
87.500000	70.238	-171.1432
88.500000	70.224	-171.1884
90.000000	70.223	-171.2250
91.199997	70.241	-171.3347
92.500000	70.265	-171.5027
93.800003	70.291	-171.7048
95.000000	70.296	-171.9490
96.199997	70.266	-172.0466
97.500000	70.236	-171.9004
98.800003	70.221	-171.7576
100.000000	70.209	-171.6713
101.500000	70.210	-171.6624
103.000000	70.210	-171.7970
104.400002	70.211	-171.8470
106.000000	70.231	-171.8846
107.500000	70.243	-171.9792
109.000000	70.237	-172.0502
110.599998	70.221	-172.0991
112.000000	70.207	-172.1205
113.800003	70.208	-172.1521
115.000000	70.213	-172.1984
117.199997	70.222	-172.1836
118.000000	70.229	-172.1740
120.599998	70.224	-172.3028
122.000000	70.205	-172.2976
124.099998	70.197	-172.2444
125.000000	70.195	-172.2189
126.500000	70.193	-172.1487
128.000000	70.193	-172.0963
131.500000	70.180	-172.1541
132.000000	70.178	-172.1815
134.000000	70.171	-172.2821
136.000000	70.172	-172.2914
138.000000	70.178	-172.2293
140.000000	70.180	-172.1226
143.000000	70.189	-172.0718
145.000000	70.189	-172.1126
147.500000	70.182	-172.1064
150.000000	70.163	-171.9959
152.500000	70.148	-171.8704
155.000000	70.148	-171.8659
157.500000	70.150	-171.9228
160.000000	70.141	-171.9228
162.500000	70.127	-171.8276
165.000000	70.127	-171.7077
167.500000	70.139	-171.6131
170.000000	70.139	-171.5372
172.500000	70.124	-171.5219
175.000000	70.096	-171.5245
177.500000	70.084	-171.4484
180.000000	70.089	-171.3663
182.500000	70.089	-171.3239
185.000000	70.083	-171.2453
187.500000	70.085	-171.1370
190.000000	70.089	-171.0396
192.500000	70.088	-170.9424
195.000000	70.085	-170.8393
197.500000	70.078	-170.6921
200.000000	70.074	-170.5270
203.000000	70.075	-170.4083
206.000000	70.076	-170.3410
209.000000	70.076	-170.2654
212.000000	70.071	-170.2340
214.000000	70.066	-170.2371
218.000000	70.062	-170.1558
220.000000	70.065	-170.0488
224.000000	70.070	-169.8388
227.000000	70.066	-169.7069
230.000000	70.064	-169.5255
233.000000	70.066	-169.3515
236.000000	70.061	-169.2763
240.000000	70.050	-169.2066
243.000000	70.046	-169.0874
247.000000	70.041	-168.9011
250.000000	70.033	-168.7790
254.000000	70.018	-168.5070
258.000000	70.006	-168.2407
262.000000	70.007	-168.0935
265.000000	70.014	-167.9663
269.000000	70.018	-167.7909
272.000000	70.020	-167.6734
276.000000	70.021	-167.4872
280.000000	70.020	-167.2609
285.000000	70.021	-166.9999
290.000000	70.014	-166.8045
295.000000	70.011	-166.7026
300.000000	69.998	-166.4548
304.000000	69.998	-166.1433
307.000000	70.007	-165.9793
311.000000	70.022	-165.8362
315.000000	70.039	-165.7093
320.000000	70.052	-165.4845
325.000000	70.060	-165.1903
330.000000	70.068	-164.9166
335.000000	70.056	-164.6994
340.000000	70.049	-164.5042
345.000000	70.057	-164.2172
350.000000	70.064	-163.9138
355.000000	70.061	-163.6658
360.000000	70.054	-163.4201
365.000000	70.048	-163.1337
370.000000	70.046	-162.8492
375.000000	70.049	-162.5802
382.000000	70.060	-162.2649
387.000000	70.074	-162.0248
395.000000	70.079	-161.6355
400.000000	70.061	-161.3401
406.000000	70.050	-160.9856
412.000000	70.064	-160.6456
418.000000	70.071	-160.3480
425.000000	70.076	-160.0654
431.000000	70.087	-159.7893
437.000000	70.097	-159.4931
444.000000	70.096	-159.1300
450.000000	70.097	-158.8495
455.000000	70.108	-158.5935
462.000000	70.125	-158.2303
468.000000	70.132	-157.9213
475.000000	70.143	-157.5723
482.000000	70.151	-157.2076
487.000000	70.154	-156.9391
494.000000	70.157	-156.6239
500.000000	70.151	-156.3876
508.000000	70.137	-156.0437
515.000000	70.116	-155.6884
522.000000	70.093	-155.2445
530.000000	70.082	-154.6437
538.000000	70.081	-154.0253
545.000000	70.091	-153.4751
552.000000	70.109	-152.9201
560.000000	70.131	-152.3076
570.000000	70.158	-151.6369
580.000000	70.183	-151.0576
590.000000	70.219	-150.3861
600.000000	70.246	-149.7119
608.000000	70.262	-149.2108
615.000000	70.276	-148.7780
622.000000	70.290	-148.3230
630.000000	70.304	-147.7930
640.000000	70.326	-147.1182
650.000000	70.353	-146.5028
660.000000	70.379	-145.8549
670.000000	70.409	-145.1288
680.000000	70.431	-144.3859
690.000000	70.452	-143.6868
700.000000	70.487	-143.0515
710.000000	70.527	-142.3749
720.000000	70.568	-141.6424
730.000000	70.609	-140.9218
740.000000	70.648	-140.2144
750.000000	70.687	-139.4681
762.000000	70.735	-138.6051
775.000000	70.803	-137.7069
788.000000	70.869	-136.7609
800.000000	70.925	-135.8671
812.000000	70.994	-134.9784
825.000000	71.079	-133.9868
838.000000	71.167	-133.0138
850.000000	71.254	-132.1527
862.000000	71.344	-131.2988
875.000000	71.450	-130.3861
885.000000	71.534	-129.6877
900.000000	71.656	-128.6654
912.000000	71.760	-127.8445
925.000000	71.881	-126.9711
938.000000	72.012	-126.1628
950.000000	72.147	-125.4824
962.000000	72.287	-124.8375
975.000000	72.433	-124.1389
988.000000	72.588	-123.4465
1000.000000	72.732	-122.8767
1015.000000	72.898	-122.2822
1030.000000	73.070	-121.6845
1044.000000	73.241	-121.1665
1060.000000	73.438	-120.6534
1075.000000	73.626	-120.2700
1090.000000	73.821	-119.9722
1106.000000	74.038	-119.7253
1120.000000	74.232	-119.5880
1138.000000	74.478	-119.5754
1150.000000	74.632	-119.6992
1172.000000	74.866	-120.1532
1180.000000	74.929	-120.3350
1206.000000	75.079	-120.5351
1220.000000	75.161	-120.3003
1241.000000	75.327	-119.7886
1250.000000	75.413	-119.5946
1265.000000	75.566	-119.3586
1280.000000	75.725	-119.2138
1315.000000	76.098	-119.0963
1320.000000	76.150	-119.0994
1340.000000	76.355	-119.1591
1360.000000	76.553	-119.3118
1380.000000	76.755	-119.6024
1400.000000	76.952	-120.0707
1430.000000	77.164	-121.1162
1450.000000	77.220	-121.6734
1475.000000	77.265	-121.6859
1500.000000	77.370	-121.1470
1525.000000	77.546	-120.6018
1550.000000	77.754	-120.2490
1575.000000	77.972	-120.0539
1600.000000	78.188	-119.9590
1625.000000	78.405	-119.9471
1650.000000	78.622	-119.9770
1675.000000	78.840	-120.0371
1700.000000	79.058	-120.1350
1725.000000	79.275	-120.2626
1750.000000	79.492	-120.4405
1775.000000	79.709	-120.6670
1800.000000	79.928	-120.9368
1825.000000	80.150	-121.2485
1850.000000	80.373	-121.6161
1875.000000	80.598	-122.0395
1900.000000	80.823	-122.5126
1925.000000	81.049	-123.0423
1950.000000	81.273	-123.6358
1975.000000	81.496	-124.2943
2000.000000	81.716	-125.0248
2030.000000	81.979	-125.9886
2060.000000	82.239	-127.0530
2090.000000	82.493	-128.2317
2120.000000	82.738	-129.5163
2140.000000	82.897	-130.4300
2180.000000	83.200	-132.3819
2200.000000	83.341	-133.4217
2240.000000	83.602	-135.6356
2270.000000	83.778	-137.3969
2300.000000	83.935	-139.2242
2330.000000	84.071	-141.1094
2360.000000	84.186	-143.0347
2400.000000	84.306	-145.6281
2430.000000	84.372	-147.5764
2470.000000	84.427	-150.1639
2500.000000	84.445	-152.0621
2540.000000	84.441	-154.5058
2580.000000	84.406	-156.8333
2620.000000	84.344	-159.0225
2650.000000	84.283	-160.5549
2690.000000	84.188	-162.4517
2720.000000	84.111	-163.7700
2760.000000	83.999	-165.3812
2800.000000	83.883	-166.8292
2850.000000	83.738	-168.4288
2900.000000	83.601	-169.8447
2950.000000	83.475	-171.1311
3000.000000	83.357	-172.2909
3040.000000	83.273	-173.1389
3070.000000	83.218	-173.7425
3110.000000	83.155	-174.5279
3150.000000	83.100	-175.3143
3200.000000	83.041	-176.3052
3250.000000	82.989	-177.3152
3300.000000	82.945	-178.3443
3350.000000	82.910	-179.4173
3400.000000	82.884	179.4302
3450.000000	82.871	178.1729
3500.000000	82.861	176.7908
3550.000000	82.848	175.2513
3600.000000	82.825	173.5508
3650.000000	82.783	171.6871
3700.000000	82.714	169.6705
3750.000000	82.609	167.5189
3820.000000	82.387	164.3411
3870.000000	82.163	162.0256
3950.000000	81.678	158.4570
4000.000000	81.295	156.4611
4060.000000	80.762	154.4448
4120.000000	80.162	152.9774
4180.000000	79.515	152.1871
4250.000000	78.735	152.2099
4310.000000	78.076	153.0403
4370.000000	77.454	154.5502
4440.000000	76.806	156.9902
4500.000000	76.335	159.4789
4550.000000	76.003	161.7659
4620.000000	75.627	165.2147
4680.000000	75.400	168.3115
4750.000000	75.248	171.8922
4820.000000	75.206	175.2206
4870.000000	75.225	177.3617
4940.000000	75.300	179.9904
5000.000000	75.394	-178.0652
5080.000000	75.543	-175.8215
5150.000000	75.696	-174.0940
5220.000000	75.877	-172.5827
5300.000000	76.123	-171.1754
5380.000000	76.407	-170.1977
5450.000000	76.675	-169.7399
5520.000000	76.953	-169.6790
5600.000000	77.268	-170.1346
5700.000000	77.626	-171.5184
5800.000000	77.910	-173.7750
5900.000000	78.073	-176.7407
6000.000000	78.073	179.9500
6080.000000	77.952	177.4352
6150.000000	77.785	175.5612
6220.000000	77.593	174.0317
6300.000000	77.371	172.5674
6400.000000	77.100	170.8707
6500.000000	76.802	169.1183
6600.000000	76.444	167.4080
6700.000000	76.017	166.0186
6800.000000	75.545	165.1266
6900.000000	75.072	164.7808
7000.000000	74.629	164.8853
7100.000000	74.213	165.3310
7200.000000	73.817	166.0305
7300.000000	73.431	166.9490
7400.000000	73.052	168.1459
7500.000000	72.688	169.6791
7620.000000	72.302	171.9716
7750.000000	71.978	174.9319
7880.000000	71.714	178.1677
8000.000000	71.524	-178.8690
8120.000000	71.396	-175.9774
8250.000000	71.317	-172.9970
8380.000000	71.289	-170.1687
8500.000000	71.307	-167.7067
8620.000000	71.361	-165.4532
8750.000000	71.449	-163.1925
8850.000000	71.538	-161.5832
9000.000000	71.710	-159.5376
9120.000000	71.875	-158.2409
9250.000000	72.073	-157.1554
9380.000000	72.276	-156.4355
9500.000000	72.461	-156.1190
9620.000000	72.633	-156.1001
9750.000000	72.796	-156.3327
9880.000000	72.929	-156.7439
10000.000000	73.030	-157.1999
10150.000000	73.138	-157.8015
10300.000000	73.243	-158.4813
10440.000000	73.342	-159.2754
10600.000000	73.440	-160.4245
10750.000000	73.496	-161.7288
10900.000000	73.509	-163.1494
11060.000000	73.473	-164.5994
11200.000000	73.413	-165.7143
11380.000000	73.331	-166.8394
11500.000000	73.293	-167.3600
11720.000000	73.305	-167.9495
11800.000000	73.350	-168.1115
12060.000000	73.706	-168.8562
12200.000000	74.048	-169.7485
12410.000000	74.772	-172.7142
12500.000000	75.154	-174.9586
12650.000000	75.829	179.3583
12800.000000	76.402	170.5850
13150.000000	76.072	140.0842
13200.000000	75.756	135.6037
13400.000000	73.888	120.7113
13600.000000	71.411	111.8807
13800.000000	68.814	108.1395
14000.000000	66.391	107.7131
14300.000000	63.260	110.5424
14500.000000	61.474	113.5829
14750.000000	59.466	118.1656
15000.000000	57.674	123.5678
15250.000000	56.070	129.3711
15500.000000	54.668	135.1807
15750.000000	53.498	141.1567
16000.000000	52.467	147.4171
16250.000000	51.505	153.6768
16500.000000	50.608	159.7830
16750.000000	49.768	165.6881
17000.000000	49.053	171.7972
17250.000000	48.457	178.1351
17500.000000	47.906	-175.6943
17750.000000	47.382	-169.6379
18000.000000	46.915	-163.9725
18250.000000	46.502	-158.0258
18500.000000	46.122	-152.2816
18750.000000	45.740	-146.9949
19000.000000	45.332	-141.6722
19250.000000	44.911	-136.0506
19500.000000	44.488	-130.1382
19750.000000	44.170	-124.6335
20000.000000	44.012	-120.6929
