* Measurement data measured by REW V5.20.9
* Source: Mic in at rear panel (Pink)(Realtek(R) Audio), MICROPHONE (마스), L, volume: 0.500
* Format: 256k Log Swept Sine, 1 sweep at -12.0 dBFS with no timing reference
* Dated: 2022. 9. 25 오전 12:50:01
* REW Settings:
*  C-weighting compensation: Off
*  Target level: 75.0 dB
* Note: 
* Measurement: R
* Smoothing: 1/24 octave
* Frequency Step: 1/48 octave
* Start Frequency: 20.300 Hz
*
* Freq(Hz)	SPL(dB)	Phase(degrees)
20.299999	58.290	-140.2202
20.600000	58.296	-140.3941
20.900000	58.312	-140.6818
21.200001	58.337	-140.9111
21.400000	58.359	-141.0754
21.799999	58.410	-141.5272
22.000000	58.433	-141.8402
22.400000	58.461	-142.6133
22.700001	58.462	-143.2492
23.000000	58.448	-143.8612
23.299999	58.427	-144.4105
23.600000	58.406	-144.8908
24.000000	58.390	-145.4458
24.299999	58.391	-145.8306
24.700001	58.407	-146.3389
25.000000	58.429	-146.7334
25.400000	58.468	-147.2887
25.799999	58.510	-147.8793
26.200001	58.550	-148.4861
26.500000	58.574	-148.9253
26.900000	58.598	-149.4520
27.200001	58.613	-149.7877
27.600000	58.635	-150.1656
28.000000	58.662	-150.5093
28.500000	58.698	-150.9581
29.000000	58.720	-151.4271
29.500000	58.727	-151.8469
30.000000	58.727	-152.1787
30.400000	58.730	-152.4105
30.700001	58.735	-152.5894
31.100000	58.741	-152.8504
31.500000	58.743	-153.1293
32.000000	58.744	-153.4733
32.500000	58.747	-153.8004
33.000000	58.760	-154.1387
33.500000	58.782	-154.5210
34.000000	58.806	-154.9499
34.500000	58.826	-155.3922
35.000000	58.841	-155.8036
35.500000	58.858	-156.1535
36.000000	58.881	-156.4515
36.500000	58.912	-156.7398
37.000000	58.944	-157.0565
37.500000	58.971	-157.3988
38.200001	58.991	-157.8641
38.700001	58.994	-158.1661
39.500000	58.984	-158.5893
40.000000	58.969	-158.7777
40.599998	58.959	-158.9111
41.200001	58.970	-159.0561
41.799999	58.994	-159.3600
42.500000	59.005	-159.8975
43.099998	58.995	-160.3271
43.700001	58.988	-160.6432
44.400002	59.000	-160.9749
45.000000	59.017	-161.3073
45.500000	59.027	-161.5836
46.200001	59.039	-161.8968
46.799999	59.056	-162.1111
47.500000	59.080	-162.3692
48.200001	59.099	-162.6401
48.700001	59.106	-162.8151
49.400002	59.112	-163.0122
50.000000	59.117	-163.1461
50.799999	59.130	-163.3325
51.500000	59.148	-163.5756
52.200001	59.161	-163.9321
53.000000	59.157	-164.4195
53.799999	59.130	-164.8092
54.500000	59.112	-164.9762
55.200001	59.120	-165.0861
56.000000	59.149	-165.3195
57.000000	59.173	-165.7163
58.000000	59.181	-166.0395
59.000000	59.180	-166.2646
60.000000	59.178	-166.4383
60.799999	59.175	-166.5896
61.500000	59.175	-166.7077
62.200001	59.184	-166.8445
63.000000	59.197	-167.1049
64.000000	59.198	-167.4627
65.000000	59.205	-167.7005
66.000000	59.226	-167.9886
67.000000	59.230	-168.2818
68.000000	59.223	-168.4517
69.000000	59.214	-168.5385
70.000000	59.209	-168.5854
71.000000	59.212	-168.6769
72.000000	59.218	-168.8845
73.000000	59.217	-169.1751
74.000000	59.211	-169.4781
75.000000	59.205	-169.7352
76.199997	59.207	-169.9357
77.500000	59.226	-170.1437
78.800003	59.238	-170.3868
80.000000	59.241	-170.5852
81.199997	59.239	-170.8062
82.500000	59.228	-171.0724
83.800003	59.212	-171.2874
85.000000	59.210	-171.4124
86.199997	59.223	-171.5475
87.500000	59.241	-171.7240
88.500000	59.249	-171.8692
90.000000	59.249	-171.9970
91.199997	59.252	-172.0246
92.500000	59.258	-172.0918
93.800003	59.256	-172.1675
95.000000	59.255	-172.2456
96.199997	59.249	-172.3970
97.500000	59.233	-172.5296
98.800003	59.231	-172.6479
100.000000	59.237	-172.8167
101.500000	59.252	-173.0402
103.000000	59.273	-173.2727
104.400002	59.282	-173.4833
106.000000	59.277	-173.6269
107.500000	59.260	-173.7199
109.000000	59.235	-173.7622
110.599998	59.224	-173.7840
112.000000	59.231	-173.8995
113.800003	59.241	-174.1396
115.000000	59.244	-174.2674
117.199997	59.250	-174.4039
118.000000	59.251	-174.4528
120.599998	59.244	-174.6366
122.000000	59.239	-174.7368
124.099998	59.237	-174.8949
125.000000	59.236	-174.9635
126.500000	59.232	-175.0693
128.000000	59.225	-175.1407
131.500000	59.219	-175.1752
132.000000	59.220	-175.1786
134.000000	59.224	-175.1945
136.000000	59.225	-175.2690
138.000000	59.212	-175.4425
140.000000	59.195	-175.6054
143.000000	59.193	-175.8170
145.000000	59.203	-175.8729
147.500000	59.206	-175.8907
150.000000	59.195	-175.8612
152.500000	59.194	-175.9277
155.000000	59.198	-176.0796
157.500000	59.210	-176.1127
160.000000	59.217	-176.1258
162.500000	59.203	-176.2018
165.000000	59.180	-176.2895
167.500000	59.173	-176.3368
170.000000	59.179	-176.3776
172.500000	59.183	-176.4243
175.000000	59.184	-176.4514
177.500000	59.185	-176.4785
180.000000	59.176	-176.4960
182.500000	59.160	-176.5125
185.000000	59.144	-176.5856
187.500000	59.132	-176.6652
190.000000	59.132	-176.6746
192.500000	59.137	-176.6710
195.000000	59.134	-176.7079
197.500000	59.135	-176.7536
200.000000	59.148	-176.8179
203.000000	59.157	-176.8828
206.000000	59.159	-176.8720
209.000000	59.164	-176.8540
212.000000	59.157	-176.7656
214.000000	59.147	-176.7080
218.000000	59.126	-176.7180
220.000000	59.124	-176.7291
224.000000	59.127	-176.7583
227.000000	59.126	-176.7661
230.000000	59.124	-176.6938
233.000000	59.115	-176.5787
236.000000	59.109	-176.5327
240.000000	59.116	-176.5402
243.000000	59.120	-176.5306
247.000000	59.119	-176.5446
250.000000	59.121	-176.5520
254.000000	59.117	-176.4985
258.000000	59.100	-176.4329
262.000000	59.084	-176.3559
265.000000	59.078	-176.2494
269.000000	59.083	-176.1152
272.000000	59.088	-176.0537
276.000000	59.085	-176.0446
280.000000	59.085	-176.0533
285.000000	59.088	-175.9384
290.000000	59.095	-175.8908
295.000000	59.095	-175.8831
300.000000	59.094	-175.8339
304.000000	59.103	-175.6919
307.000000	59.107	-175.5839
311.000000	59.107	-175.4694
315.000000	59.118	-175.4116
320.000000	59.143	-175.3506
325.000000	59.153	-175.2285
330.000000	59.143	-175.1157
335.000000	59.136	-175.0012
340.000000	59.148	-174.9571
345.000000	59.152	-174.8942
350.000000	59.149	-174.7280
355.000000	59.154	-174.5684
360.000000	59.156	-174.4654
365.000000	59.146	-174.3488
370.000000	59.140	-174.1849
375.000000	59.149	-174.0141
382.000000	59.156	-173.8031
387.000000	59.154	-173.6979
395.000000	59.155	-173.5060
400.000000	59.155	-173.3069
406.000000	59.157	-173.0988
412.000000	59.162	-172.9983
418.000000	59.164	-172.8475
425.000000	59.163	-172.6639
431.000000	59.165	-172.5045
437.000000	59.169	-172.3448
444.000000	59.169	-172.1400
450.000000	59.173	-171.8927
455.000000	59.182	-171.6664
462.000000	59.195	-171.4449
468.000000	59.210	-171.2715
475.000000	59.213	-170.9781
482.000000	59.211	-170.7064
487.000000	59.218	-170.5501
494.000000	59.228	-170.3666
500.000000	59.230	-170.1766
508.000000	59.234	-169.8414
515.000000	59.244	-169.5617
522.000000	59.258	-169.2927
530.000000	59.281	-169.0290
538.000000	59.297	-168.7091
545.000000	59.304	-168.4182
552.000000	59.316	-168.1590
560.000000	59.333	-167.8460
570.000000	59.355	-167.4851
580.000000	59.374	-167.1302
590.000000	59.394	-166.7027
600.000000	59.414	-166.3061
608.000000	59.421	-166.0298
615.000000	59.424	-165.7842
622.000000	59.431	-165.5336
630.000000	59.435	-165.2000
640.000000	59.437	-164.7318
650.000000	59.440	-164.2581
660.000000	59.446	-163.7380
670.000000	59.461	-163.1784
680.000000	59.477	-162.5765
690.000000	59.498	-161.9659
700.000000	59.525	-161.3396
710.000000	59.554	-160.6918
720.000000	59.587	-160.0627
730.000000	59.630	-159.4614
740.000000	59.678	-158.9017
750.000000	59.724	-158.3398
762.000000	59.773	-157.6118
775.000000	59.833	-156.7852
788.000000	59.896	-155.9631
800.000000	59.969	-155.1796
812.000000	60.046	-154.4424
825.000000	60.126	-153.7296
838.000000	60.210	-152.9697
850.000000	60.293	-152.2570
862.000000	60.381	-151.5129
875.000000	60.492	-150.7711
885.000000	60.582	-150.2645
900.000000	60.721	-149.4605
912.000000	60.833	-148.7939
925.000000	60.963	-148.1454
938.000000	61.097	-147.5679
950.000000	61.224	-147.0335
962.000000	61.351	-146.5100
975.000000	61.495	-146.0127
988.000000	61.643	-145.6296
1000.000000	61.784	-145.3085
1015.000000	61.960	-144.7812
1030.000000	62.135	-144.2924
1044.000000	62.309	-143.9552
1060.000000	62.510	-143.6847
1075.000000	62.698	-143.5211
1090.000000	62.892	-143.4083
1106.000000	63.111	-143.3765
1120.000000	63.309	-143.5036
1138.000000	63.556	-143.9654
1150.000000	63.700	-144.4906
1172.000000	63.818	-145.7675
1180.000000	63.806	-146.0375
1206.000000	63.804	-145.1312
1220.000000	63.936	-144.2627
1241.000000	64.222	-143.5359
1250.000000	64.347	-143.4149
1265.000000	64.547	-143.3811
1280.000000	64.733	-143.4779
1315.000000	65.130	-143.8635
1320.000000	65.183	-143.9283
1340.000000	65.388	-144.2010
1360.000000	65.582	-144.5210
1380.000000	65.772	-144.8767
1400.000000	65.963	-145.2310
1430.000000	66.255	-145.7562
1450.000000	66.451	-146.1830
1475.000000	66.694	-146.8113
1500.000000	66.935	-147.5347
1525.000000	67.168	-148.4372
1550.000000	67.381	-149.5578
1575.000000	67.557	-150.9112
1600.000000	67.658	-152.3920
1625.000000	67.675	-153.7213
1650.000000	67.632	-154.5795
1675.000000	67.574	-154.7972
1700.000000	67.547	-154.4511
1725.000000	67.579	-153.7950
1750.000000	67.677	-153.0602
1775.000000	67.831	-152.3982
1800.000000	68.021	-151.8907
1825.000000	68.235	-151.5450
1850.000000	68.461	-151.3572
1875.000000	68.692	-151.3231
1900.000000	68.927	-151.4236
1925.000000	69.169	-151.6455
1950.000000	69.410	-151.9658
1975.000000	69.649	-152.3726
2000.000000	69.888	-152.8611
2030.000000	70.172	-153.5560
2060.000000	70.452	-154.3803
2090.000000	70.725	-155.3356
2120.000000	70.992	-156.3973
2140.000000	71.166	-157.1570
2180.000000	71.503	-158.8333
2200.000000	71.665	-159.7484
2240.000000	71.971	-161.6896
2270.000000	72.182	-163.2566
2300.000000	72.378	-164.9102
2330.000000	72.557	-166.6408
2360.000000	72.720	-168.4456
2400.000000	72.905	-170.9326
2430.000000	73.020	-172.8359
2470.000000	73.141	-175.3980
2500.000000	73.210	-177.3152
2540.000000	73.269	-179.8350
2580.000000	73.295	177.6957
2620.000000	73.291	175.3157
2650.000000	73.269	173.6063
2690.000000	73.216	171.4437
2720.000000	73.163	169.9209
2760.000000	73.079	168.0135
2800.000000	72.981	166.2487
2850.000000	72.844	164.2450
2900.000000	72.701	162.4566
2950.000000	72.554	160.8744
3000.000000	72.408	159.4663
3040.000000	72.292	158.4372
3070.000000	72.208	157.7147
3110.000000	72.101	156.8249
3150.000000	72.000	156.0031
3200.000000	71.880	155.0369
3250.000000	71.767	154.1093
3300.000000	71.660	153.2076
3350.000000	71.560	152.3150
3400.000000	71.463	151.4135
3450.000000	71.372	150.4954
3500.000000	71.284	149.5437
3550.000000	71.190	148.5572
3600.000000	71.085	147.5304
3650.000000	70.966	146.4816
3700.000000	70.829	145.4259
3750.000000	70.670	144.3768
3820.000000	70.405	142.9948
3870.000000	70.183	142.1288
3950.000000	69.771	141.0247
4000.000000	69.488	140.5587
4060.000000	69.129	140.3003
4120.000000	68.759	140.3835
4180.000000	68.393	140.8205
4250.000000	67.980	141.7733
4310.000000	67.645	142.9033
4370.000000	67.335	144.2827
4440.000000	67.018	146.1490
4500.000000	66.788	147.9132
4550.000000	66.627	149.4677
4620.000000	66.451	151.6949
4680.000000	66.347	153.6105
4750.000000	66.276	155.8210
4820.000000	66.255	157.9245
4870.000000	66.265	159.3321
4940.000000	66.306	161.1641
5000.000000	66.369	162.5898
5080.000000	66.494	164.2494
5150.000000	66.631	165.4777
5220.000000	66.786	166.4411
5300.000000	66.980	167.1920
5380.000000	67.186	167.5667
5450.000000	67.365	167.5678
5520.000000	67.534	167.2481
5600.000000	67.706	166.4979
5700.000000	67.877	165.0460
5800.000000	67.968	163.0781
5900.000000	67.958	160.7438
6000.000000	67.838	158.2397
6080.000000	67.657	156.2713
6150.000000	67.440	154.6750
6220.000000	67.175	153.2513
6300.000000	66.822	151.8883
6400.000000	66.323	150.6555
6500.000000	65.780	150.0078
6600.000000	65.210	149.9362
6700.000000	64.630	150.3920
6800.000000	64.065	151.3313
6900.000000	63.537	152.7191
7000.000000	63.051	154.4860
7100.000000	62.602	156.5401
7200.000000	62.188	158.8730
7300.000000	61.809	161.4309
7400.000000	61.458	164.1446
7500.000000	61.139	166.9862
7620.000000	60.813	170.6206
7750.000000	60.518	174.7672
7880.000000	60.231	179.0209
8000.000000	59.995	-176.9486
8120.000000	59.798	-172.8569
8250.000000	59.629	-168.4534
8380.000000	59.518	-164.0570
8500.000000	59.465	-160.0256
8620.000000	59.453	-156.0960
8750.000000	59.480	-151.9665
8850.000000	59.533	-148.9084
9000.000000	59.666	-144.5708
9120.000000	59.822	-141.3052
9250.000000	60.037	-138.0487
9380.000000	60.291	-135.2323
9500.000000	60.552	-133.0507
9620.000000	60.841	-131.2753
9750.000000	61.181	-129.8499
9880.000000	61.532	-128.9951
10000.000000	61.849	-128.7692
10150.000000	62.218	-129.2842
10300.000000	62.532	-130.7143
10440.000000	62.743	-132.8819
10600.000000	62.846	-136.2989
10750.000000	62.777	-140.2690
10900.000000	62.518	-144.7521
11060.000000	61.997	-149.7488
11200.000000	61.321	-153.9539
11380.000000	60.165	-158.5703
11500.000000	59.227	-160.8344
11720.000000	57.221	-162.7904
11800.000000	56.426	-162.7054
12060.000000	53.726	-159.2522
12200.000000	52.260	-155.5012
12410.000000	50.116	-147.7615
12500.000000	49.235	-143.7156
12650.000000	47.844	-136.0917
12800.000000	46.581	-127.5813
13150.000000	44.259	-105.7731
13200.000000	44.002	-102.5578
13400.000000	43.154	-89.6886
13600.000000	42.528	-76.8978
13800.000000	42.085	-64.4440
14000.000000	41.821	-52.4436
14300.000000	41.657	-35.4024
14500.000000	41.679	-24.5506
14750.000000	41.826	-11.6132
15000.000000	42.120	0.3120
15250.000000	42.573	11.4439
15500.000000	43.226	21.6549
15750.000000	44.032	30.7935
16000.000000	45.034	38.2026
16250.000000	46.154	43.4522
16500.000000	47.237	45.8304
16750.000000	48.120	44.5483
17000.000000	48.548	39.9691
17250.000000	48.311	34.0115
17500.000000	47.407	29.3230
17750.000000	46.003	27.7365
18000.000000	44.375	29.4857
18250.000000	42.744	33.9222
18500.000000	41.147	40.3842
18750.000000	39.597	48.4278
19000.000000	38.150	57.3714
19250.000000	36.791	67.0388
19500.000000	35.418	77.8354
19750.000000	34.058	89.0084
20000.000000	32.698	98.2147
