* Measurement data measured by REW V5.20.13
* Source: EXCL: Microphone(High Definition Audio Device), MICROPHONE (마스), R, volume: 1.000
* Format: 256k Log Swept Sine, 1 sweep at -12.0 dBFS with no timing reference
* Dated: 2023. 2. 22 오후 10:10:48
* REW Settings:
*  C-weighting compensation: Off
*  Target level: 75.0 dB
* Note: 
* Measurement: R
* Smoothing: 1/24 octave
* Frequency Step: 1/48 octave
* Start Frequency: 20.300 Hz
*
* Freq(Hz)	SPL(dB)	Phase(degrees)
20.299999	97.449	-177.9052
20.600000	97.450	-177.9994
20.900000	97.450	-178.1600
21.200001	97.449	-178.2971
21.400000	97.447	-178.3885
21.799999	97.444	-178.6042
22.000000	97.441	-178.7379
22.400000	97.432	-179.0515
22.700001	97.423	-179.3098
23.000000	97.413	-179.5740
23.299999	97.403	-179.8416
23.600000	97.396	179.8828
24.000000	97.391	179.4944
24.299999	97.391	179.1872
24.700001	97.394	178.7675
25.000000	97.396	178.4566
25.400000	97.401	178.0588
25.799999	97.409	177.6838
26.200001	97.419	177.3275
26.500000	97.426	177.0691
26.900000	97.431	176.7373
27.200001	97.433	176.5020
27.600000	97.432	176.2112
28.000000	97.431	175.9441
28.500000	97.428	175.6264
29.000000	97.422	175.3093
29.500000	97.409	174.9881
30.000000	97.394	174.6606
30.400000	97.381	174.3920
30.700001	97.371	174.1884
31.100000	97.357	173.9187
31.500000	97.342	173.6537
32.000000	97.326	173.3254
32.500000	97.314	172.9855
33.000000	97.308	172.6164
33.500000	97.305	172.2202
34.000000	97.303	171.8207
34.500000	97.298	171.4420
35.000000	97.291	171.0949
35.500000	97.286	170.7786
36.000000	97.281	170.4830
36.500000	97.275	170.2010
37.000000	97.269	169.9296
37.500000	97.260	169.6613
38.200001	97.244	169.2761
38.700001	97.228	169.0001
39.500000	97.199	168.5890
40.000000	97.184	168.3366
40.599998	97.173	167.9850
41.200001	97.158	167.5556
41.799999	97.133	167.1107
42.500000	97.097	166.6888
43.099998	97.076	166.4163
43.700001	97.068	166.1467
44.400002	97.058	165.7795
45.000000	97.045	165.4526
45.500000	97.032	165.2043
46.200001	97.018	164.8857
46.799999	97.009	164.6028
47.500000	96.994	164.2438
48.200001	96.971	163.8921
48.700001	96.954	163.6649
49.400002	96.935	163.3546
50.000000	96.921	163.0576
50.799999	96.899	162.6403
51.500000	96.875	162.3144
52.200001	96.854	162.0075
53.000000	96.830	161.6392
53.799999	96.804	161.2800
54.500000	96.782	160.9783
55.200001	96.763	160.6674
56.000000	96.740	160.3004
57.000000	96.705	159.8633
58.000000	96.673	159.4476
59.000000	96.638	159.0059
60.000000	96.593	158.6101
60.799999	96.564	158.3127
61.500000	96.541	158.0290
62.200001	96.513	157.7595
63.000000	96.485	157.4784
64.000000	96.456	157.0731
65.000000	96.412	156.6667
66.000000	96.364	156.3596
67.000000	96.325	156.0978
68.000000	96.295	155.8067
69.000000	96.263	155.4429
70.000000	96.219	155.0746
71.000000	96.175	154.7610
72.000000	96.140	154.4449
73.000000	96.106	154.0741
74.000000	96.064	153.6940
75.000000	96.020	153.3542
76.199997	95.970	152.9904
77.500000	95.921	152.6309
78.800003	95.878	152.2716
80.000000	95.836	151.8817
81.199997	95.786	151.4896
82.500000	95.733	151.1414
83.800003	95.689	150.8394
85.000000	95.653	150.5313
86.199997	95.612	150.1700
87.500000	95.553	149.7674
88.500000	95.503	149.4969
90.000000	95.435	149.1401
91.199997	95.386	148.8502
92.500000	95.339	148.5464
93.800003	95.300	148.2187
95.000000	95.259	147.8830
96.199997	95.211	147.5912
97.500000	95.165	147.3001
98.800003	95.117	146.9837
100.000000	95.066	146.7124
101.500000	95.000	146.4355
103.000000	94.945	146.2055
104.400002	94.898	145.9347
106.000000	94.836	145.6125
107.500000	94.776	145.3209
109.000000	94.718	145.0206
110.599998	94.656	144.6958
112.000000	94.603	144.4216
113.800003	94.540	144.0752
115.000000	94.498	143.8496
117.199997	94.418	143.4362
118.000000	94.386	143.2922
120.599998	94.279	142.8752
122.000000	94.225	142.6606
124.099998	94.150	142.3314
125.000000	94.119	142.2022
126.500000	94.067	142.0129
128.000000	94.017	141.8470
131.500000	93.892	141.3835
132.000000	93.872	141.3163
134.000000	93.798	141.0581
136.000000	93.728	140.7888
138.000000	93.654	140.5182
140.000000	93.584	140.3122
143.000000	93.493	140.0143
145.000000	93.428	139.8069
147.500000	93.341	139.5082
150.000000	93.244	139.1905
152.500000	93.165	138.9884
155.000000	93.093	138.7633
157.500000	93.006	138.5944
160.000000	92.922	138.4478
162.500000	92.840	138.2327
165.000000	92.756	137.9951
167.500000	92.672	137.7484
170.000000	92.590	137.5858
172.500000	92.515	137.4675
175.000000	92.432	137.3157
177.500000	92.348	137.1404
180.000000	92.273	136.9393
182.500000	92.197	136.7662
185.000000	92.115	136.6298
187.500000	92.034	136.4871
190.000000	91.962	136.3242
192.500000	91.890	136.2158
195.000000	91.818	136.1996
197.500000	91.747	136.1446
200.000000	91.676	136.0018
203.000000	91.594	135.7872
206.000000	91.505	135.6176
209.000000	91.411	135.5525
212.000000	91.334	135.5664
214.000000	91.287	135.5485
218.000000	91.179	135.5189
220.000000	91.124	135.5333
224.000000	91.027	135.5112
227.000000	90.948	135.4326
230.000000	90.864	135.3764
233.000000	90.787	135.3690
236.000000	90.716	135.3860
240.000000	90.619	135.4319
243.000000	90.542	135.5002
247.000000	90.433	135.5645
250.000000	90.356	135.5407
254.000000	90.277	135.4664
258.000000	90.193	135.4182
262.000000	90.078	135.5332
265.000000	89.993	135.6590
269.000000	89.903	135.7310
272.000000	89.843	135.7653
276.000000	89.753	135.8322
280.000000	89.660	135.9016
285.000000	89.557	136.1057
290.000000	89.457	136.3281
295.000000	89.367	136.6557
300.000000	89.286	137.1242
304.000000	89.250	137.5708
307.000000	89.241	137.8862
311.000000	89.246	138.1244
315.000000	89.255	138.1313
320.000000	89.235	137.9365
325.000000	89.182	137.6198
330.000000	89.108	137.3579
335.000000	89.024	137.1162
340.000000	88.934	137.0103
345.000000	88.841	137.0132
350.000000	88.737	137.0807
355.000000	88.639	137.1798
360.000000	88.554	137.2625
365.000000	88.480	137.3834
370.000000	88.407	137.5325
375.000000	88.320	137.7031
382.000000	88.198	137.9053
387.000000	88.128	138.0371
395.000000	88.021	138.3053
400.000000	87.952	138.4087
406.000000	87.867	138.5382
412.000000	87.778	138.7704
418.000000	87.703	139.0215
425.000000	87.609	139.2862
431.000000	87.527	139.5992
437.000000	87.452	139.9128
444.000000	87.364	140.1276
450.000000	87.289	140.2828
455.000000	87.225	140.4542
462.000000	87.130	140.8133
468.000000	87.061	141.1637
475.000000	86.997	141.5555
482.000000	86.927	141.8894
487.000000	86.880	142.0778
494.000000	86.819	142.2491
500.000000	86.757	142.4159
508.000000	86.677	142.8087
515.000000	86.610	143.1817
522.000000	86.544	143.5821
530.000000	86.477	143.9369
538.000000	86.405	144.2544
545.000000	86.332	144.6330
552.000000	86.262	145.0213
560.000000	86.204	145.4500
570.000000	86.135	145.9358
580.000000	86.059	146.4992
590.000000	85.991	146.9955
600.000000	85.921	147.5263
608.000000	85.875	148.0187
615.000000	85.841	148.3628
622.000000	85.798	148.6550
630.000000	85.739	149.0312
640.000000	85.667	149.5486
650.000000	85.614	150.1615
660.000000	85.578	150.7617
670.000000	85.528	151.3646
680.000000	85.476	152.0059
690.000000	85.439	152.5674
700.000000	85.403	153.1825
710.000000	85.366	153.7349
720.000000	85.319	154.2584
730.000000	85.268	154.8466
740.000000	85.234	155.5132
750.000000	85.206	156.2408
762.000000	85.196	157.0020
775.000000	85.177	157.7508
788.000000	85.149	158.4464
800.000000	85.127	159.2068
812.000000	85.115	159.9586
825.000000	85.111	160.7543
838.000000	85.112	161.6414
850.000000	85.111	162.4177
862.000000	85.115	163.1342
875.000000	85.122	163.8345
885.000000	85.142	164.3735
900.000000	85.178	165.1953
912.000000	85.191	165.8461
925.000000	85.218	166.5292
938.000000	85.269	167.1082
950.000000	85.308	167.5596
962.000000	85.352	168.0547
975.000000	85.414	168.6786
988.000000	85.489	169.2806
1000.000000	85.547	169.7319
1015.000000	85.607	170.1464
1030.000000	85.679	170.5078
1044.000000	85.754	170.8607
1060.000000	85.825	171.2639
1075.000000	85.887	171.5838
1090.000000	85.963	171.8582
1106.000000	86.050	172.1263
1120.000000	86.118	172.2603
1138.000000	86.194	172.3557
1150.000000	86.242	172.4510
1172.000000	86.340	172.6038
1180.000000	86.379	172.6516
1206.000000	86.486	172.8470
1220.000000	86.538	172.9270
1241.000000	86.606	172.9517
1250.000000	86.633	172.9447
1265.000000	86.684	172.9642
1280.000000	86.732	173.0339
1315.000000	86.823	173.1184
1320.000000	86.836	173.1309
1340.000000	86.892	173.2402
1360.000000	86.950	173.2909
1380.000000	87.006	173.2313
1400.000000	87.061	173.1456
1430.000000	87.135	173.0171
1450.000000	87.176	172.8445
1475.000000	87.169	172.4836
1500.000000	87.106	172.4469
1525.000000	87.066	173.0740
1550.000000	87.093	173.8556
1575.000000	87.174	174.3943
1600.000000	87.260	174.7717
1625.000000	87.333	175.0705
1650.000000	87.404	175.3782
1675.000000	87.474	175.6457
1700.000000	87.540	175.8587
1725.000000	87.602	176.0508
1750.000000	87.662	176.2112
1775.000000	87.728	176.3893
1800.000000	87.794	176.6243
1825.000000	87.857	176.8224
1850.000000	87.927	176.9066
1875.000000	87.996	177.0184
1900.000000	88.062	177.2103
1925.000000	88.126	177.3923
1950.000000	88.190	177.5270
1975.000000	88.252	177.6525
2000.000000	88.316	177.8058
2030.000000	88.396	177.9540
2060.000000	88.477	178.0317
2090.000000	88.562	178.1076
2120.000000	88.649	178.1936
2140.000000	88.709	178.2499
2180.000000	88.822	178.3057
2200.000000	88.874	178.3199
2240.000000	88.976	178.3364
2270.000000	89.056	178.3163
2300.000000	89.134	178.2878
2330.000000	89.212	178.2316
2360.000000	89.284	178.1378
2400.000000	89.383	178.0361
2430.000000	89.457	177.9663
2470.000000	89.547	177.8087
2500.000000	89.618	177.6719
2540.000000	89.712	177.5158
2580.000000	89.800	177.2899
2620.000000	89.875	176.9893
2650.000000	89.925	176.7572
2690.000000	89.997	176.4600
2720.000000	90.053	176.2598
2760.000000	90.114	175.9842
2800.000000	90.169	175.6983
2850.000000	90.231	175.3040
2900.000000	90.284	174.9386
2950.000000	90.326	174.5706
3000.000000	90.356	174.2198
3040.000000	90.375	173.9266
3070.000000	90.386	173.7118
3110.000000	90.397	173.4372
3150.000000	90.405	173.1759
3200.000000	90.412	172.8907
3250.000000	90.409	172.6646
3300.000000	90.394	172.4542
3350.000000	90.378	172.3012
3400.000000	90.360	172.2189
3450.000000	90.344	172.1696
3500.000000	90.325	172.1731
3550.000000	90.303	172.2423
3600.000000	90.282	172.3551
3650.000000	90.259	172.5160
3700.000000	90.233	172.7616
3750.000000	90.207	173.0572
3820.000000	90.168	173.5272
3870.000000	90.137	173.9410
3950.000000	90.085	174.7545
4000.000000	90.056	175.3389
4060.000000	90.023	176.0716
4120.000000	89.998	176.8916
4180.000000	89.978	177.7902
4250.000000	89.960	178.9094
4310.000000	89.951	179.9707
4370.000000	89.946	-178.9206
4440.000000	89.939	-177.5949
4500.000000	89.945	-176.4089
4550.000000	89.956	-175.3854
4620.000000	89.983	-173.8988
4680.000000	90.016	-172.5732
4750.000000	90.068	-170.9960
4820.000000	90.138	-169.3666
4870.000000	90.198	-168.1865
4940.000000	90.300	-166.5442
5000.000000	90.390	-165.1391
5080.000000	90.498	-163.1447
5150.000000	90.631	-161.1301
5220.000000	90.826	-159.1890
5300.000000	91.080	-157.1580
5380.000000	91.353	-155.1793
5450.000000	91.615	-153.4721
5520.000000	91.906	-151.8072
5600.000000	92.272	-150.0090
5700.000000	92.771	-148.0707
5800.000000	93.243	-146.4171
5900.000000	93.777	-144.0462
6000.000000	94.520	-142.0537
6080.000000	95.158	-141.1533
6150.000000	95.738	-140.7042
6220.000000	96.344	-140.5615
6300.000000	97.068	-140.8436
6400.000000	98.010	-142.0035
6500.000000	98.965	-144.2221
6600.000000	99.888	-147.6596
6700.000000	100.726	-152.3485
6800.000000	101.426	-158.1674
6900.000000	101.957	-164.8082
7000.000000	102.296	-171.8289
7100.000000	102.442	-178.7608
7200.000000	102.427	174.7165
7300.000000	102.294	168.7208
7400.000000	102.079	163.2082
7500.000000	101.804	158.0245
7620.000000	101.395	152.0055
7750.000000	100.802	145.7098
7880.000000	99.916	140.1554
8000.000000	98.830	136.5922
8120.000000	97.585	135.3735
8250.000000	96.243	137.0634
8380.000000	95.131	141.3990
8500.000000	94.451	146.7712
8620.000000	94.141	152.4680
8750.000000	94.177	158.0971
8850.000000	94.418	161.5860
9000.000000	95.023	164.8190
9120.000000	95.611	165.2967
9250.000000	96.217	163.4790
9380.000000	96.641	159.3326
9500.000000	96.751	153.9911
9620.000000	96.526	148.1548
9750.000000	95.905	142.5827
9880.000000	94.975	139.1118
10000.000000	94.028	138.3055
10150.000000	93.031	139.0109
10300.000000	92.162	139.8728
10440.000000	91.312	141.5174
10600.000000	90.398	144.7965
10750.000000	89.677	148.8055
10900.000000	89.105	153.3586
11060.000000	88.663	158.5454
11200.000000	88.413	163.1892
11380.000000	88.272	169.1060
11500.000000	88.291	172.9230
11720.000000	88.570	179.4190
11800.000000	88.755	-178.4649
12060.000000	89.678	-173.2224
12200.000000	90.356	-172.0217
12410.000000	91.466	-173.7118
12500.000000	91.900	-176.0994
12650.000000	92.416	177.5378
12800.000000	92.504	168.9102
13150.000000	90.708	150.3386
13200.000000	90.272	148.7258
13400.000000	88.346	145.4268
13600.000000	86.400	146.2892
13800.000000	84.656	149.9313
14000.000000	83.186	155.3290
14300.000000	81.494	165.4085
14500.000000	80.705	172.7971
14750.000000	80.094	-177.7391
15000.000000	79.927	-168.5078
15250.000000	80.303	-160.2444
15500.000000	81.409	-154.4158
15750.000000	83.206	-154.5399
16000.000000	84.827	-166.3392
16250.000000	84.857	170.6000
16500.000000	82.673	150.9896
16750.000000	78.997	145.3898
17000.000000	75.167	149.8520
17250.000000	72.002	158.1506
17500.000000	69.454	167.8344
17750.000000	67.261	178.8003
18000.000000	65.366	-169.1837
18250.000000	63.729	-156.4573
18500.000000	62.294	-143.2832
18750.000000	61.036	-130.0624
19000.000000	59.935	-116.5546
19250.000000	58.982	-102.7276
19500.000000	58.152	-88.7295
19750.000000	57.509	-75.0817
20000.000000	57.142	-66.4679
