* Measurement data measured by REW V5.20.13
* Source: EXCL: Microphone(High Definition Audio Device), MICROPHONE (마스), R, volume: 1.000
* Format: 256k Log Swept Sine, 1 sweep at -12.0 dBFS with no timing reference
* Dated: 2023. 2. 22 오후 9:59:31
* REW Settings:
*  C-weighting compensation: Off
*  Target level: 75.0 dB
* Note: 
* Measurement: L
* Smoothing: 1/24 octave
* Frequency Step: 1/48 octave
* Start Frequency: 20.300 Hz
*
* Freq(Hz)	SPL(dB)	Phase(degrees)
20.299999	97.094	5.3261
20.600000	97.097	5.1932
20.900000	97.101	4.9621
21.200001	97.099	4.7584
21.400000	97.094	4.6335
21.799999	97.082	4.3824
22.000000	97.076	4.2452
22.400000	97.066	3.9372
22.700001	97.060	3.6737
23.000000	97.054	3.3818
23.299999	97.048	3.0659
23.600000	97.041	2.7328
24.000000	97.034	2.2770
24.299999	97.031	1.9398
24.700001	97.032	1.5076
25.000000	97.037	1.1969
25.400000	97.047	0.7954
25.799999	97.061	0.4075
26.200001	97.076	0.0399
26.500000	97.087	-0.2180
26.900000	97.100	-0.5385
27.200001	97.107	-0.7654
27.600000	97.116	-1.0565
28.000000	97.120	-1.3374
28.500000	97.120	-1.6638
29.000000	97.112	-1.9475
29.500000	97.102	-2.2029
30.000000	97.093	-2.4780
30.400000	97.086	-2.7324
30.700001	97.079	-2.9381
31.100000	97.066	-3.2159
31.500000	97.050	-3.4883
32.000000	97.033	-3.8304
32.500000	97.019	-4.1982
33.000000	97.007	-4.5969
33.500000	96.997	-4.9995
34.000000	96.990	-5.3756
34.500000	96.985	-5.7233
35.000000	96.984	-6.0528
35.500000	96.984	-6.3654
36.000000	96.984	-6.6581
36.500000	96.984	-6.9323
37.000000	96.983	-7.1935
37.500000	96.981	-7.4482
38.200001	96.974	-7.8042
38.700001	96.967	-8.0687
39.500000	96.950	-8.5387
40.000000	96.932	-8.8581
40.599998	96.904	-9.2352
41.200001	96.873	-9.5690
41.799999	96.849	-9.8606
42.500000	96.838	-10.2108
43.099998	96.836	-10.5706
43.700001	96.828	-10.9622
44.400002	96.810	-11.3812
45.000000	96.794	-11.6848
45.500000	96.787	-11.9245
46.200001	96.779	-12.2672
46.799999	96.771	-12.5534
47.500000	96.761	-12.8716
48.200001	96.750	-13.2088
48.700001	96.739	-13.4604
49.400002	96.718	-13.7867
50.000000	96.703	-14.0338
50.799999	96.692	-14.3679
51.500000	96.683	-14.6891
52.200001	96.668	-15.0190
53.000000	96.649	-15.3846
53.799999	96.629	-15.7388
54.500000	96.609	-16.0453
55.200001	96.588	-16.3355
56.000000	96.566	-16.6370
57.000000	96.542	-17.0094
58.000000	96.519	-17.4140
59.000000	96.494	-17.8419
60.000000	96.462	-18.2868
60.799999	96.435	-18.6308
61.500000	96.414	-18.9081
62.200001	96.396	-19.1785
63.000000	96.377	-19.5070
64.000000	96.347	-19.9172
65.000000	96.312	-20.2649
66.000000	96.280	-20.5884
67.000000	96.248	-20.9143
68.000000	96.217	-21.2362
69.000000	96.189	-21.5765
70.000000	96.160	-21.9529
71.000000	96.129	-22.3253
72.000000	96.099	-22.6644
73.000000	96.074	-22.9977
74.000000	96.047	-23.3331
75.000000	96.018	-23.6657
76.199997	95.976	-24.0466
77.500000	95.927	-24.4183
78.800003	95.881	-24.7954
80.000000	95.838	-25.1884
81.199997	95.797	-25.6056
82.500000	95.756	-26.0454
83.800003	95.718	-26.4330
85.000000	95.685	-26.7557
86.199997	95.652	-27.0676
87.500000	95.609	-27.4247
88.500000	95.571	-27.6832
90.000000	95.521	-28.0572
91.199997	95.484	-28.3814
92.500000	95.446	-28.7524
93.800003	95.409	-29.1256
95.000000	95.371	-29.4632
96.199997	95.329	-29.7767
97.500000	95.285	-30.1029
98.800003	95.240	-30.4457
100.000000	95.193	-30.7608
101.500000	95.136	-31.1105
103.000000	95.089	-31.4451
104.400002	95.047	-31.7591
106.000000	94.999	-32.0739
107.500000	94.958	-32.3837
109.000000	94.910	-32.7259
110.599998	94.851	-33.0723
112.000000	94.798	-33.3615
113.800003	94.735	-33.7210
115.000000	94.697	-33.9663
117.199997	94.630	-34.3862
118.000000	94.607	-34.5212
120.599998	94.533	-34.9185
122.000000	94.494	-35.1485
124.099998	94.433	-35.5331
125.000000	94.406	-35.7023
126.500000	94.361	-35.9778
128.000000	94.314	-36.2366
131.500000	94.195	-36.8883
132.000000	94.175	-36.9806
134.000000	94.102	-37.3135
136.000000	94.040	-37.6360
138.000000	93.979	-37.9653
140.000000	93.917	-38.2201
143.000000	93.831	-38.6021
145.000000	93.769	-38.8942
147.500000	93.684	-39.2464
150.000000	93.604	-39.5445
152.500000	93.527	-39.8448
155.000000	93.452	-40.1707
157.500000	93.375	-40.4739
160.000000	93.300	-40.7529
162.500000	93.222	-41.0949
165.000000	93.136	-41.4642
167.500000	93.048	-41.7503
170.000000	92.974	-41.9536
172.500000	92.900	-42.1929
175.000000	92.819	-42.4056
177.500000	92.746	-42.5791
180.000000	92.684	-42.7750
182.500000	92.619	-43.0020
185.000000	92.544	-43.2584
187.500000	92.461	-43.5009
190.000000	92.382	-43.7064
192.500000	92.308	-43.8719
195.000000	92.242	-44.0199
197.500000	92.174	-44.2242
200.000000	92.096	-44.3884
203.000000	92.008	-44.5232
206.000000	91.925	-44.7112
209.000000	91.848	-44.9384
212.000000	91.777	-45.1055
214.000000	91.725	-45.1583
218.000000	91.611	-45.2529
220.000000	91.558	-45.3644
224.000000	91.457	-45.6353
227.000000	91.374	-45.8183
230.000000	91.287	-45.9999
233.000000	91.201	-46.1339
236.000000	91.122	-46.1979
240.000000	91.015	-46.2542
243.000000	90.929	-46.3339
247.000000	90.821	-46.4886
250.000000	90.746	-46.5909
254.000000	90.636	-46.6437
258.000000	90.527	-46.6465
262.000000	90.417	-46.7122
265.000000	90.323	-46.7257
269.000000	90.193	-46.6682
272.000000	90.102	-46.6219
276.000000	89.993	-46.5173
280.000000	89.891	-46.2892
285.000000	89.771	-45.8294
290.000000	89.701	-45.1843
295.000000	89.687	-44.5737
300.000000	89.696	-44.1824
304.000000	89.716	-44.2594
307.000000	89.732	-44.4901
311.000000	89.731	-44.8657
315.000000	89.692	-45.2698
320.000000	89.607	-45.7602
325.000000	89.498	-46.1113
330.000000	89.389	-46.3993
335.000000	89.297	-46.5997
340.000000	89.195	-46.7089
345.000000	89.079	-46.8046
350.000000	88.969	-46.8288
355.000000	88.868	-46.7236
360.000000	88.768	-46.6690
365.000000	88.660	-46.6553
370.000000	88.551	-46.5749
375.000000	88.458	-46.4665
382.000000	88.332	-46.4147
387.000000	88.234	-46.4065
395.000000	88.087	-46.1486
400.000000	88.012	-45.9729
406.000000	87.915	-45.7987
412.000000	87.802	-45.6088
418.000000	87.694	-45.4811
425.000000	87.580	-45.3324
431.000000	87.505	-45.2777
437.000000	87.430	-45.1613
444.000000	87.316	-44.8834
450.000000	87.215	-44.5596
455.000000	87.134	-44.3376
462.000000	87.025	-44.1140
468.000000	86.942	-43.8386
475.000000	86.844	-43.4942
482.000000	86.753	-43.1928
487.000000	86.700	-42.9704
494.000000	86.613	-42.7013
500.000000	86.530	-42.4822
508.000000	86.420	-42.1626
515.000000	86.343	-41.8568
522.000000	86.290	-41.5210
530.000000	86.208	-41.0166
538.000000	86.100	-40.7049
545.000000	86.016	-40.4340
552.000000	85.951	-40.0285
560.000000	85.882	-39.5853
570.000000	85.778	-39.0748
580.000000	85.662	-38.4681
590.000000	85.570	-37.8919
600.000000	85.506	-37.2519
608.000000	85.430	-36.7658
615.000000	85.352	-36.3348
622.000000	85.287	-35.8611
630.000000	85.216	-35.3929
640.000000	85.152	-34.8665
650.000000	85.089	-34.1735
660.000000	84.995	-33.4423
670.000000	84.916	-32.8968
680.000000	84.854	-32.3238
690.000000	84.812	-31.6988
700.000000	84.767	-31.0428
710.000000	84.709	-30.2914
720.000000	84.639	-29.5592
730.000000	84.578	-28.9027
740.000000	84.536	-28.3139
750.000000	84.516	-27.6492
762.000000	84.460	-26.7494
775.000000	84.405	-25.8811
788.000000	84.376	-24.9869
800.000000	84.326	-24.2054
812.000000	84.284	-23.3289
825.000000	84.263	-22.3240
838.000000	84.266	-21.4686
850.000000	84.266	-20.7096
862.000000	84.276	-19.8614
875.000000	84.289	-18.9108
885.000000	84.284	-18.2785
900.000000	84.273	-17.3724
912.000000	84.300	-16.6700
925.000000	84.345	-15.9557
938.000000	84.390	-15.1768
950.000000	84.414	-14.5127
962.000000	84.441	-13.9589
975.000000	84.496	-13.3154
988.000000	84.546	-12.7160
1000.000000	84.590	-12.2060
1015.000000	84.655	-11.5893
1030.000000	84.733	-11.0502
1044.000000	84.810	-10.5556
1060.000000	84.894	-10.0083
1075.000000	84.953	-9.6315
1090.000000	84.998	-9.3183
1106.000000	85.063	-8.9846
1120.000000	85.130	-8.7411
1138.000000	85.212	-8.4865
1150.000000	85.266	-8.2925
1172.000000	85.354	-7.9849
1180.000000	85.386	-7.8889
1206.000000	85.497	-7.4826
1220.000000	85.551	-7.3181
1241.000000	85.627	-7.0540
1250.000000	85.658	-6.9605
1265.000000	85.706	-6.8542
1280.000000	85.751	-6.7282
1315.000000	85.847	-6.3670
1320.000000	85.861	-6.3046
1340.000000	85.915	-6.0432
1360.000000	85.966	-5.8937
1380.000000	86.020	-5.7698
1400.000000	86.064	-5.6158
1430.000000	86.135	-5.4662
1450.000000	86.205	-5.3759
1475.000000	86.278	-5.1465
1500.000000	86.354	-5.0107
1525.000000	86.400	-4.9120
1550.000000	86.430	-4.7278
1575.000000	86.482	-4.4473
1600.000000	86.546	-4.1831
1625.000000	86.604	-4.0848
1650.000000	86.652	-4.0305
1675.000000	86.701	-3.9922
1700.000000	86.751	-4.0131
1725.000000	86.772	-4.1023
1750.000000	86.751	-4.1990
1775.000000	86.694	-4.2069
1800.000000	86.611	-3.8857
1825.000000	86.537	-3.1408
1850.000000	86.505	-1.9749
1875.000000	86.539	-0.6661
1900.000000	86.633	0.5649
1925.000000	86.753	1.5770
1950.000000	86.884	2.3402
1975.000000	87.024	2.9250
2000.000000	87.163	3.3550
2030.000000	87.322	3.6700
2060.000000	87.475	3.9550
2090.000000	87.618	4.2024
2120.000000	87.749	4.3589
2140.000000	87.834	4.4380
2180.000000	88.006	4.5845
2200.000000	88.087	4.6620
2240.000000	88.239	4.7928
2270.000000	88.350	4.8406
2300.000000	88.464	4.8711
2330.000000	88.580	4.8915
2360.000000	88.688	4.8773
2400.000000	88.823	4.8176
2430.000000	88.922	4.7860
2470.000000	89.053	4.6567
2500.000000	89.154	4.5050
2540.000000	89.289	4.3452
2580.000000	89.417	4.1737
2620.000000	89.533	3.9581
2650.000000	89.613	3.7794
2690.000000	89.723	3.5113
2720.000000	89.804	3.2821
2760.000000	89.906	2.9490
2800.000000	90.001	2.6280
2850.000000	90.107	2.2045
2900.000000	90.206	1.7419
2950.000000	90.297	1.2667
3000.000000	90.371	0.8145
3040.000000	90.422	0.4476
3070.000000	90.455	0.1584
3110.000000	90.493	-0.2203
3150.000000	90.527	-0.5939
3200.000000	90.561	-1.0269
3250.000000	90.591	-1.4130
3300.000000	90.611	-1.7747
3350.000000	90.616	-2.1035
3400.000000	90.616	-2.3865
3450.000000	90.614	-2.6137
3500.000000	90.613	-2.7872
3550.000000	90.608	-2.9021
3600.000000	90.596	-2.9231
3650.000000	90.582	-2.8751
3700.000000	90.568	-2.8155
3750.000000	90.549	-2.6792
3820.000000	90.521	-2.3304
3870.000000	90.497	-2.0213
3950.000000	90.454	-1.3930
4000.000000	90.429	-0.9016
4060.000000	90.404	-0.2372
4120.000000	90.383	0.4762
4180.000000	90.365	1.2827
4250.000000	90.353	2.3601
4310.000000	90.345	3.3408
4370.000000	90.339	4.3852
4440.000000	90.339	5.6884
4500.000000	90.351	6.8804
4550.000000	90.368	7.9262
4620.000000	90.408	9.4396
4680.000000	90.458	10.7593
4750.000000	90.534	12.3650
4820.000000	90.627	14.0339
4870.000000	90.705	15.2169
4940.000000	90.834	16.8644
5000.000000	90.961	18.2776
5080.000000	91.152	20.1391
5150.000000	91.325	21.7279
5220.000000	91.497	23.4932
5300.000000	91.762	25.7612
5380.000000	92.100	27.8149
5450.000000	92.420	29.4280
5520.000000	92.763	30.9381
5600.000000	93.191	32.5459
5700.000000	93.779	34.2337
5800.000000	94.378	35.4055
5900.000000	94.964	36.7432
6000.000000	95.730	38.2522
6080.000000	96.424	38.6941
6150.000000	97.042	38.5846
6220.000000	97.671	38.1188
6300.000000	98.408	37.1687
6400.000000	99.363	35.2532
6500.000000	100.344	32.2714
6600.000000	101.300	27.9106
6700.000000	102.151	22.0298
6800.000000	102.814	14.8226
6900.000000	103.243	6.8579
7000.000000	103.440	-1.1148
7100.000000	103.451	-8.5638
7200.000000	103.342	-15.3557
7300.000000	103.169	-21.6235
7400.000000	102.965	-27.6853
7500.000000	102.723	-33.9422
7620.000000	102.311	-42.0847
7750.000000	101.555	-51.3944
7880.000000	100.283	-59.6810
8000.000000	98.684	-64.6678
8120.000000	96.866	-66.1423
8250.000000	94.904	-63.7789
8380.000000	93.187	-57.9930
8500.000000	91.977	-50.4961
8620.000000	91.221	-41.9214
8750.000000	90.937	-32.6156
8850.000000	91.061	-26.2214
9000.000000	91.661	-18.8457
9120.000000	92.351	-15.4066
9250.000000	93.132	-14.4953
9380.000000	93.768	-16.4076
9500.000000	94.092	-20.1073
9620.000000	94.096	-24.6907
9750.000000	93.736	-29.3828
9880.000000	93.078	-32.7227
10000.000000	92.319	-34.1237
10150.000000	91.353	-33.8270
10300.000000	90.465	-32.2509
10440.000000	89.671	-29.7644
10600.000000	88.867	-25.6965
10750.000000	88.262	-21.0824
10900.000000	87.805	-16.0278
11060.000000	87.473	-10.3653
11200.000000	87.308	-5.2856
11380.000000	87.278	1.2356
11500.000000	87.374	5.4811
11720.000000	87.800	12.8563
11800.000000	88.041	15.3280
12060.000000	89.169	21.9624
12200.000000	89.985	24.1349
12410.000000	91.396	24.2926
12500.000000	92.015	22.7753
12650.000000	92.920	17.6275
12800.000000	93.465	9.3311
13150.000000	92.572	-12.7160
13200.000000	92.219	-14.9841
13400.000000	90.531	-20.4253
13600.000000	88.778	-20.8759
13800.000000	87.288	-18.0920
14000.000000	86.187	-13.4854
14300.000000	85.341	-5.2139
14500.000000	85.382	-0.0616
14750.000000	86.225	3.7375
15000.000000	87.763	-0.1150
15250.000000	88.802	-17.9396
15500.000000	87.798	-43.8109
15750.000000	84.597	-59.7557
16000.000000	80.420	-61.7699
16250.000000	76.496	-55.9631
16500.000000	73.255	-46.6034
16750.000000	70.612	-36.0678
17000.000000	68.346	-24.8876
17250.000000	66.343	-12.4259
17500.000000	64.653	0.5801
17750.000000	63.234	13.2813
18000.000000	61.933	26.0717
18250.000000	60.726	39.4226
18500.000000	59.659	52.9889
18750.000000	58.756	66.7039
19000.000000	57.998	80.9759
19250.000000	57.314	96.1274
19500.000000	56.712	111.5476
19750.000000	56.269	125.8082
20000.000000	56.119	134.5358
