* Measurement data measured by REW V5.20.7
* Source: Mic in at rear panel (Pink)(Realtek(R) Audio), MICROPHONE (마스), L, volume: 1.000
* Format: 128k Log Swept Sine, 1 sweep at -12.0 dBFS with no timing reference
* Dated: 2022. 5. 8 오전 12:07:25
* REW Settings:
*  C-weighting compensation: Off
*  Target level: 75.0 dB
* Note: 
* Measurement: R
* Smoothing: 1/24 octave
* Frequency Step: 1/48 octave
* Start Frequency: 20.300 Hz
*
* Freq(Hz)	SPL(dB)	Phase(degrees)
20.299999	83.027	-140.6630
20.600000	83.043	-141.0540
20.900000	83.072	-141.7345
21.200001	83.095	-142.3363
21.400000	83.108	-142.7040
21.799999	83.136	-143.4367
22.000000	83.151	-143.8327
22.400000	83.181	-144.7111
22.700001	83.205	-145.4482
23.000000	83.228	-146.2372
23.299999	83.242	-147.0404
23.600000	83.249	-147.8223
24.000000	83.255	-148.7896
24.299999	83.266	-149.4543
24.700001	83.296	-150.2970
25.000000	83.330	-150.9423
25.400000	83.384	-151.8730
25.799999	83.437	-152.8923
26.200001	83.475	-153.9333
26.500000	83.491	-154.6593
26.900000	83.499	-155.4827
27.200001	83.506	-155.9820
27.600000	83.528	-156.5482
28.000000	83.564	-157.1288
28.500000	83.607	-158.0185
29.000000	83.612	-159.0090
29.500000	83.580	-159.8346
30.000000	83.547	-160.3570
30.400000	83.546	-160.6807
30.700001	83.562	-160.9755
31.100000	83.593	-161.5091
31.500000	83.611	-162.1537
32.000000	83.608	-162.9204
32.500000	83.606	-163.5233
33.000000	83.631	-164.0921
33.500000	83.667	-164.8088
34.000000	83.684	-165.6561
34.500000	83.679	-166.4637
35.000000	83.668	-167.1534
35.500000	83.663	-167.7817
36.000000	83.658	-168.3884
36.500000	83.650	-168.9393
37.000000	83.648	-169.4505
37.500000	83.653	-170.0266
38.200001	83.643	-170.9834
38.700001	83.623	-171.6129
39.500000	83.608	-172.5394
40.000000	83.593	-173.3379
40.599998	83.508	-174.3935
41.200001	83.364	-174.9058
41.799999	83.283	-174.7594
42.500000	83.360	-174.7978
43.099998	83.461	-175.6591
43.700001	83.491	-176.8084
44.400002	83.474	-177.7814
45.000000	83.478	-178.3465
45.500000	83.493	-178.8283
46.200001	83.504	-179.5161
46.799999	83.510	179.9411
47.500000	83.512	179.2757
48.200001	83.493	178.6237
48.700001	83.470	178.2615
49.400002	83.442	177.8316
50.000000	83.420	177.3611
50.799999	83.363	176.6116
51.500000	83.296	176.0502
52.200001	83.245	175.5715
53.000000	83.216	174.9755
53.799999	83.194	174.3499
54.500000	83.176	173.8519
55.200001	83.164	173.3993
56.000000	83.154	172.9010
57.000000	83.136	172.2921
58.000000	83.105	171.6974
59.000000	83.058	170.9970
60.000000	82.985	170.2747
60.799999	82.929	169.8023
61.500000	82.894	169.3950
62.200001	82.860	168.9595
63.000000	82.819	168.5048
64.000000	82.785	168.0125
65.000000	82.767	167.4688
66.000000	82.743	166.9402
67.000000	82.717	166.4955
68.000000	82.687	166.0332
69.000000	82.638	165.5854
70.000000	82.583	165.1578
71.000000	82.527	164.6577
72.000000	82.458	164.1703
73.000000	82.388	163.8126
74.000000	82.339	163.5500
75.000000	82.319	163.2595
76.199997	82.308	162.7388
77.500000	82.267	162.0255
78.800003	82.196	161.4156
80.000000	82.122	160.9496
81.199997	82.055	160.5428
82.500000	81.995	159.9963
83.800003	81.937	159.4648
85.000000	81.900	159.0892
86.199997	81.870	158.7350
87.500000	81.827	158.2927
88.500000	81.774	157.9525
90.000000	81.682	157.5823
91.199997	81.619	157.2539
92.500000	81.560	156.8690
93.800003	81.521	156.4402
95.000000	81.478	156.0534
96.199997	81.429	155.8426
97.500000	81.389	155.6807
98.800003	81.336	155.3091
100.000000	81.253	154.8985
101.500000	81.148	154.4412
103.000000	81.072	154.0051
104.400002	81.025	153.6992
106.000000	80.986	153.4488
107.500000	80.934	153.1651
109.000000	80.854	152.7874
110.599998	80.769	152.3516
112.000000	80.723	151.9717
113.800003	80.669	151.6425
115.000000	80.608	151.7061
117.199997	80.391	152.1931
118.000000	80.269	152.5358
120.599998	80.121	153.7424
122.000000	80.187	152.5416
124.099998	80.162	150.3641
125.000000	80.148	149.8713
126.500000	80.140	149.5311
128.000000	80.123	149.4025
131.500000	79.922	148.8540
132.000000	79.885	148.7946
134.000000	79.785	148.7465
136.000000	79.759	148.6879
138.000000	79.706	148.5030
140.000000	79.610	148.4397
143.000000	79.498	148.3261
145.000000	79.439	148.0934
147.500000	79.342	147.8013
150.000000	79.248	147.5728
152.500000	79.180	147.3605
155.000000	79.122	147.1916
157.500000	79.042	147.0977
160.000000	78.954	146.9594
162.500000	78.879	146.7519
165.000000	78.812	146.5406
167.500000	78.732	146.3910
170.000000	78.654	146.3059
172.500000	78.586	146.2913
175.000000	78.526	146.3616
177.500000	78.430	146.4046
180.000000	78.313	146.4428
182.500000	78.211	146.3221
185.000000	78.114	146.1496
187.500000	78.012	146.0408
190.000000	77.902	146.0472
192.500000	77.811	146.1874
195.000000	77.753	146.3102
197.500000	77.694	146.3473
200.000000	77.607	146.3467
203.000000	77.498	146.2719
206.000000	77.406	146.2910
209.000000	77.346	146.7419
212.000000	77.321	147.0839
214.000000	77.321	146.9438
218.000000	77.262	146.2659
220.000000	77.198	146.1975
224.000000	77.115	146.3828
227.000000	77.111	146.6173
230.000000	77.094	146.9313
233.000000	77.026	147.0097
236.000000	76.934	146.8822
240.000000	76.841	146.8542
243.000000	76.788	146.9296
247.000000	76.750	146.9216
250.000000	76.704	146.8823
254.000000	76.589	146.9635
258.000000	76.464	147.1470
262.000000	76.381	147.3993
265.000000	76.339	147.5417
269.000000	76.271	147.6618
272.000000	76.199	147.7479
276.000000	76.107	147.8923
280.000000	76.037	148.0770
285.000000	75.971	148.2724
290.000000	75.905	148.4393
295.000000	75.811	148.6735
300.000000	75.733	148.9416
304.000000	75.674	149.1697
307.000000	75.613	149.3536
311.000000	75.537	149.5947
315.000000	75.492	149.7938
320.000000	75.436	150.0554
325.000000	75.376	150.3680
330.000000	75.314	150.6125
335.000000	75.240	150.8743
340.000000	75.164	151.3271
345.000000	75.100	151.7209
350.000000	75.049	151.8649
355.000000	74.995	151.9925
360.000000	74.927	152.2158
365.000000	74.854	152.5225
370.000000	74.786	152.8824
375.000000	74.731	153.2335
382.000000	74.655	153.6104
387.000000	74.589	153.8719
395.000000	74.525	154.5530
400.000000	74.505	154.9760
406.000000	74.463	155.3233
412.000000	74.420	155.6803
418.000000	74.379	156.0719
425.000000	74.325	156.5326
431.000000	74.274	156.9247
437.000000	74.226	157.2908
444.000000	74.171	157.6842
450.000000	74.126	158.0625
455.000000	74.095	158.3894
462.000000	74.050	158.8528
468.000000	74.025	159.3185
475.000000	73.988	159.8454
482.000000	73.940	160.3108
487.000000	73.908	160.6324
494.000000	73.863	161.0242
500.000000	73.826	161.4580
508.000000	73.794	162.0679
515.000000	73.776	162.4995
522.000000	73.752	162.9777
530.000000	73.706	163.4675
538.000000	73.678	163.9780
545.000000	73.665	164.5637
552.000000	73.641	165.1272
560.000000	73.623	165.6534
570.000000	73.609	166.2802
580.000000	73.584	166.9625
590.000000	73.554	167.7239
600.000000	73.546	168.3787
608.000000	73.543	168.8464
615.000000	73.537	169.2407
622.000000	73.537	169.6910
630.000000	73.533	170.2752
640.000000	73.517	170.9838
650.000000	73.506	171.6596
660.000000	73.499	172.4235
670.000000	73.511	173.1744
680.000000	73.521	173.8802
690.000000	73.510	174.4447
700.000000	73.506	175.0178
710.000000	73.521	175.6744
720.000000	73.542	176.4015
730.000000	73.566	177.1655
740.000000	73.594	177.9468
750.000000	73.628	178.6118
762.000000	73.668	179.4277
775.000000	73.709	-179.6210
788.000000	73.750	-178.7693
800.000000	73.795	-178.0667
812.000000	73.845	-177.3887
825.000000	73.915	-176.6017
838.000000	73.995	-175.8482
850.000000	74.065	-175.1529
862.000000	74.112	-174.3202
875.000000	74.182	-173.5376
885.000000	74.259	-173.0485
900.000000	74.378	-172.2987
912.000000	74.475	-171.7708
925.000000	74.596	-171.2721
938.000000	74.730	-170.9307
950.000000	74.831	-170.9417
962.000000	74.886	-171.2444
975.000000	74.854	-171.6528
988.000000	74.748	-171.6512
1000.000000	74.672	-170.8431
1015.000000	74.704	-168.8785
1030.000000	74.835	-167.3550
1044.000000	74.970	-166.5481
1060.000000	75.120	-165.8689
1075.000000	75.239	-165.1611
1090.000000	75.354	-164.5032
1106.000000	75.487	-164.0226
1120.000000	75.614	-163.6232
1138.000000	75.773	-163.0100
1150.000000	75.864	-162.6515
1172.000000	76.031	-161.9978
1180.000000	76.091	-161.7544
1206.000000	76.257	-161.0958
1220.000000	76.338	-160.8074
1241.000000	76.451	-160.3940
1250.000000	76.503	-160.2128
1265.000000	76.607	-159.9232
1280.000000	76.739	-159.6603
1315.000000	77.124	-158.9330
1320.000000	77.183	-158.8280
1340.000000	77.415	-158.4297
1360.000000	77.622	-157.9939
1380.000000	77.806	-157.5325
1400.000000	77.970	-157.1211
1430.000000	78.188	-156.6066
1450.000000	78.334	-156.2883
1475.000000	78.536	-155.8309
1500.000000	78.737	-155.3112
1525.000000	78.939	-154.8360
1550.000000	79.154	-154.4209
1575.000000	79.372	-153.9769
1600.000000	79.590	-153.5699
1625.000000	79.823	-153.1737
1650.000000	80.064	-152.7794
1675.000000	80.302	-152.4263
1700.000000	80.548	-152.0800
1725.000000	80.810	-151.7947
1750.000000	81.076	-151.5875
1775.000000	81.336	-151.4010
1800.000000	81.607	-151.2230
1825.000000	81.892	-151.1039
1850.000000	82.185	-151.0664
1875.000000	82.483	-151.0905
1900.000000	82.778	-151.1640
1925.000000	83.076	-151.3094
1950.000000	83.384	-151.5311
1975.000000	83.698	-151.8197
2000.000000	84.014	-152.2097
2030.000000	84.400	-152.8088
2060.000000	84.789	-153.5622
2090.000000	85.177	-154.5065
2120.000000	85.564	-155.6078
2140.000000	85.820	-156.4350
2180.000000	86.321	-158.3316
2200.000000	86.562	-159.4122
2240.000000	87.026	-161.8572
2270.000000	87.352	-163.9376
2300.000000	87.651	-166.2010
2330.000000	87.917	-168.6203
2360.000000	88.154	-171.1736
2400.000000	88.415	-174.7425
2430.000000	88.561	-177.5039
2470.000000	88.690	178.7998
2500.000000	88.738	176.0693
2540.000000	88.739	172.5327
2580.000000	88.676	169.2050
2620.000000	88.562	166.1783
2650.000000	88.448	164.0993
2690.000000	88.272	161.6057
2720.000000	88.121	159.9577
2760.000000	87.901	158.0447
2800.000000	87.675	156.4272
2850.000000	87.393	154.8333
2900.000000	87.119	153.6534
2950.000000	86.864	152.8146
3000.000000	86.628	152.2536
3040.000000	86.454	152.0150
3070.000000	86.334	151.9321
3110.000000	86.188	151.9114
3150.000000	86.059	151.9957
3200.000000	85.922	152.2409
3250.000000	85.811	152.6068
3300.000000	85.729	153.0721
3350.000000	85.680	153.5908
3400.000000	85.663	154.1396
3450.000000	85.676	154.7042
3500.000000	85.715	155.2968
3550.000000	85.779	155.9051
3600.000000	85.871	156.4802
3650.000000	85.989	156.9824
3700.000000	86.135	157.4263
3750.000000	86.312	157.8102
3820.000000	86.603	158.1693
3870.000000	86.848	158.2519
3950.000000	87.318	157.9739
4000.000000	87.658	157.4320
4060.000000	88.106	156.3159
4120.000000	88.573	154.5727
4180.000000	89.029	152.0497
4250.000000	89.512	148.0058
4310.000000	89.845	143.5953
4370.000000	90.074	138.3969
4440.000000	90.175	131.5881
4500.000000	90.090	125.4507
4550.000000	89.887	120.4026
4620.000000	89.418	113.8355
4680.000000	88.878	108.9401
4750.000000	88.131	104.2766
4820.000000	87.308	100.7612
4870.000000	86.699	98.9019
4940.000000	85.849	97.1114
5000.000000	85.136	96.2354
5080.000000	84.218	95.8134
5150.000000	83.456	96.0093
5220.000000	82.741	96.6363
5300.000000	81.969	97.8238
5380.000000	81.241	99.5626
5450.000000	80.665	101.6235
5520.000000	80.195	103.8518
5600.000000	79.744	105.9755
5700.000000	79.155	108.5501
5800.000000	78.581	111.6556
5900.000000	78.088	115.1669
6000.000000	77.678	118.8939
6080.000000	77.409	121.8981
6150.000000	77.216	124.5773
6220.000000	77.055	127.3433
6300.000000	76.900	130.5907
6400.000000	76.766	134.8389
6500.000000	76.699	139.2932
6600.000000	76.702	143.7640
6700.000000	76.796	148.2574
6800.000000	76.990	152.7857
6900.000000	77.268	157.1855
7000.000000	77.632	161.4871
7100.000000	78.095	165.6547
7200.000000	78.678	169.4859
7300.000000	79.402	172.8976
7400.000000	80.269	175.7531
7500.000000	81.280	177.7338
7620.000000	82.673	178.4714
7750.000000	84.300	176.0101
7880.000000	85.738	168.3725
8000.000000	86.471	156.2934
8120.000000	86.309	141.8956
8250.000000	85.135	128.7158
8380.000000	83.330	121.0990
8500.000000	81.544	118.6782
8620.000000	79.890	119.3770
8750.000000	78.327	122.3027
8850.000000	77.300	125.4588
9000.000000	76.026	131.1880
9120.000000	75.196	136.3763
9250.000000	74.473	142.2723
9380.000000	73.897	148.3917
9500.000000	73.462	154.1290
9620.000000	73.121	159.9237
9750.000000	72.872	166.3513
9880.000000	72.739	172.7899
10000.000000	72.714	178.6062
10150.000000	72.830	-174.2072
10300.000000	73.133	-167.1731
10440.000000	73.600	-160.8579
10600.000000	74.338	-154.0266
10750.000000	75.274	-148.2672
10900.000000	76.555	-143.4847
11060.000000	78.403	-140.3876
11200.000000	80.391	-141.1891
11380.000000	82.864	-151.1723
11500.000000	83.859	-164.8726
11720.000000	83.303	165.1479
11800.000000	82.382	157.1675
12060.000000	78.292	148.0775
12200.000000	76.207	150.1667
12410.000000	73.772	157.1553
12500.000000	72.960	160.9439
12650.000000	71.850	167.8533
12800.000000	71.001	175.1479
13150.000000	69.851	-167.1785
13200.000000	69.744	-164.6194
13400.000000	69.415	-154.3231
13600.000000	69.258	-143.8954
13800.000000	69.322	-133.4906
14000.000000	69.715	-123.2951
14300.000000	70.993	-108.8988
14500.000000	72.414	-100.8041
14750.000000	74.882	-94.5908
15000.000000	77.540	-98.0642
15250.000000	78.684	-114.3468
15500.000000	77.544	-121.8750
15750.000000	77.931	-118.3926
16000.000000	78.605	-129.9446
16250.000000	78.003	-141.2487
16500.000000	77.595	-147.8579
16750.000000	77.727	-158.0385
17000.000000	77.344	-175.6014
17250.000000	75.514	166.6264
17500.000000	72.322	158.2276
17750.000000	68.587	160.0146
18000.000000	65.097	168.1951
18250.000000	62.199	-179.8126
18500.000000	59.881	-165.1533
18750.000000	58.064	-148.9429
19000.000000	56.732	-131.7289
19250.000000	55.951	-112.8608
19500.000000	55.786	-91.8339
19750.000000	55.996	-72.7075
20000.000000	56.177	-62.7020
