* Measurement data measured by REW V5.20.7
* Source: Mic in at rear panel (Pink)(Realtek(R) Audio), MICROPHONE (마스), L, volume: 1.000
* Format: 128k Log Swept Sine, 1 sweep at -12.0 dBFS with no timing reference
* Dated: 2022. 5. 8 오전 12:05:34
* REW Settings:
*  C-weighting compensation: Off
*  Target level: 75.0 dB
* Note: 
* Measurement: L
* Smoothing: 1/24 octave
* Frequency Step: 1/48 octave
* Start Frequency: 20.300 Hz
*
* Freq(Hz)	SPL(dB)	Phase(degrees)
20.299999	82.327	-132.0108
20.600000	82.355	-132.4667
20.900000	82.407	-133.2876
21.200001	82.447	-134.0838
21.400000	82.467	-134.5952
21.799999	82.495	-135.5978
22.000000	82.508	-136.0954
22.400000	82.536	-137.0790
22.700001	82.568	-137.8247
23.000000	82.610	-138.6037
23.299999	82.654	-139.4214
23.600000	82.695	-140.2634
24.000000	82.743	-141.3805
24.299999	82.777	-142.1768
24.700001	82.825	-143.1628
25.000000	82.866	-143.8606
25.400000	82.925	-144.7752
25.799999	82.985	-145.6980
26.200001	83.039	-146.6021
26.500000	83.071	-147.2309
26.900000	83.106	-147.9750
27.200001	83.132	-148.4746
27.600000	83.170	-149.1168
28.000000	83.206	-149.7993
28.500000	83.231	-150.7215
29.000000	83.229	-151.6023
29.500000	83.224	-152.3428
30.000000	83.233	-153.0176
30.400000	83.252	-153.6270
30.700001	83.269	-154.1550
31.100000	83.287	-154.9161
31.500000	83.295	-155.6607
32.000000	83.301	-156.4746
32.500000	83.328	-157.2040
33.000000	83.375	-157.9964
33.500000	83.414	-158.8968
34.000000	83.432	-159.7862
34.500000	83.438	-160.5321
35.000000	83.455	-161.1438
35.500000	83.488	-161.7406
36.000000	83.523	-162.4016
36.500000	83.547	-163.1075
37.000000	83.557	-163.8082
37.500000	83.554	-164.4842
38.200001	83.540	-165.3561
38.700001	83.536	-165.8890
39.500000	83.556	-166.7105
40.000000	83.575	-167.3762
40.599998	83.574	-168.3522
41.200001	83.532	-169.2934
41.799999	83.479	-170.0303
42.500000	83.451	-170.7592
43.099998	83.452	-171.4590
43.700001	83.452	-172.1916
44.400002	83.448	-172.9312
45.000000	83.455	-173.4646
45.500000	83.469	-173.9165
46.200001	83.486	-174.6189
46.799999	83.489	-175.2446
47.500000	83.485	-175.9239
48.200001	83.482	-176.5585
48.700001	83.479	-177.0163
49.400002	83.458	-177.6632
50.000000	83.425	-178.1862
50.799999	83.376	-178.8244
51.500000	83.334	-179.3584
52.200001	83.300	-179.8864
53.000000	83.277	179.4841
53.799999	83.255	178.8238
54.500000	83.231	178.3061
55.200001	83.215	177.8532
56.000000	83.211	177.2809
57.000000	83.189	176.4731
58.000000	83.146	175.7353
59.000000	83.097	174.9979
60.000000	83.042	174.3018
60.799999	83.008	173.8089
61.500000	82.989	173.3751
62.200001	82.972	172.9077
63.000000	82.944	172.3606
64.000000	82.902	171.7761
65.000000	82.882	171.2647
66.000000	82.874	170.6420
67.000000	82.848	169.9657
68.000000	82.811	169.3625
69.000000	82.772	168.7540
70.000000	82.716	168.0939
71.000000	82.651	167.5160
72.000000	82.599	167.0504
73.000000	82.564	166.6044
74.000000	82.544	166.1095
75.000000	82.528	165.5729
76.199997	82.503	164.9408
77.500000	82.462	164.3089
78.800003	82.408	163.7551
80.000000	82.345	163.2881
81.199997	82.271	162.8795
82.500000	82.199	162.4357
83.800003	82.143	161.9374
85.000000	82.101	161.4590
86.199997	82.058	160.9647
87.500000	82.001	160.4634
88.500000	81.957	160.1323
90.000000	81.890	159.6066
91.199997	81.820	159.1797
92.500000	81.741	158.7798
93.800003	81.674	158.3972
95.000000	81.627	158.0538
96.199997	81.595	157.6777
97.500000	81.561	157.2256
98.800003	81.516	156.7742
100.000000	81.454	156.4149
101.500000	81.374	156.1063
103.000000	81.307	155.7072
104.400002	81.241	155.3033
106.000000	81.185	154.8795
107.500000	81.140	154.4389
109.000000	81.085	154.0538
110.599998	81.011	153.7114
112.000000	80.936	153.4457
113.800003	80.847	153.0464
115.000000	80.801	152.7129
117.199997	80.749	151.8679
118.000000	80.726	151.4757
120.599998	80.574	150.7018
122.000000	80.516	150.7869
124.099998	80.471	150.8138
125.000000	80.446	150.7796
126.500000	80.392	150.7029
128.000000	80.325	150.5811
131.500000	80.135	150.1959
132.000000	80.113	150.1234
134.000000	80.051	149.7676
136.000000	80.016	149.2867
138.000000	79.967	148.8744
140.000000	79.911	148.5643
143.000000	79.797	148.2178
145.000000	79.716	148.0912
147.500000	79.589	147.9437
150.000000	79.468	147.7993
152.500000	79.393	147.4783
155.000000	79.333	147.2384
157.500000	79.261	147.0952
160.000000	79.165	146.7953
162.500000	79.064	146.4225
165.000000	78.978	146.3706
167.500000	78.913	146.4424
170.000000	78.848	146.2536
172.500000	78.783	145.8763
175.000000	78.724	145.6382
177.500000	78.651	145.5706
180.000000	78.544	145.5442
182.500000	78.433	145.5610
185.000000	78.336	145.4937
187.500000	78.240	145.3818
190.000000	78.147	145.2704
192.500000	78.061	145.2670
195.000000	78.002	145.3461
197.500000	77.960	145.2965
200.000000	77.901	145.1254
203.000000	77.811	144.9507
206.000000	77.732	144.8127
209.000000	77.668	144.6872
212.000000	77.600	144.6804
214.000000	77.550	144.7427
218.000000	77.443	144.9595
220.000000	77.397	144.9981
224.000000	77.316	144.7252
227.000000	77.245	144.5786
230.000000	77.156	144.7230
233.000000	77.074	144.8873
236.000000	77.018	144.9063
240.000000	76.947	144.9162
243.000000	76.872	145.0052
247.000000	76.775	145.1525
250.000000	76.700	145.1962
254.000000	76.597	145.2988
258.000000	76.518	145.3679
262.000000	76.443	145.2831
265.000000	76.383	145.3312
269.000000	76.299	145.5336
272.000000	76.233	145.6501
276.000000	76.153	145.8157
280.000000	76.071	146.0329
285.000000	75.980	146.2559
290.000000	75.903	146.3940
295.000000	75.824	146.5109
300.000000	75.733	146.6247
304.000000	75.641	146.7906
307.000000	75.578	146.9557
311.000000	75.514	147.2451
315.000000	75.457	147.5908
320.000000	75.380	147.8260
325.000000	75.318	147.8784
330.000000	75.266	147.9414
335.000000	75.180	148.0833
340.000000	75.108	148.3849
345.000000	75.057	148.7483
350.000000	75.000	149.0464
355.000000	74.937	149.3819
360.000000	74.877	149.7007
365.000000	74.812	150.0127
370.000000	74.748	150.3343
375.000000	74.704	150.6118
382.000000	74.619	151.0132
387.000000	74.551	151.2830
395.000000	74.451	151.6676
400.000000	74.401	152.0238
406.000000	74.355	152.3760
412.000000	74.315	152.7188
418.000000	74.268	153.0461
425.000000	74.204	153.3213
431.000000	74.137	153.6340
437.000000	74.076	154.0400
444.000000	74.016	154.5901
450.000000	73.969	155.0373
455.000000	73.924	155.3646
462.000000	73.850	155.7610
468.000000	73.783	156.0940
475.000000	73.727	156.4801
482.000000	73.687	156.9490
487.000000	73.662	157.2502
494.000000	73.627	157.6303
500.000000	73.606	158.0364
508.000000	73.556	158.6395
515.000000	73.500	159.1288
522.000000	73.479	159.6398
530.000000	73.461	160.2224
538.000000	73.435	160.7730
545.000000	73.409	161.2438
552.000000	73.361	161.6772
560.000000	73.313	162.1963
570.000000	73.276	162.9906
580.000000	73.239	163.7747
590.000000	73.212	164.4095
600.000000	73.173	165.0076
608.000000	73.149	165.5571
615.000000	73.130	166.1114
622.000000	73.108	166.5921
630.000000	73.095	167.0443
640.000000	73.068	167.6525
650.000000	73.046	168.3973
660.000000	73.057	169.1558
670.000000	73.058	169.8665
680.000000	73.046	170.4972
690.000000	73.038	171.1292
700.000000	73.041	171.9029
710.000000	73.046	172.7186
720.000000	73.059	173.4159
730.000000	73.081	174.1345
740.000000	73.101	174.7736
750.000000	73.117	175.4767
762.000000	73.143	176.3873
775.000000	73.183	177.2579
788.000000	73.239	177.9783
800.000000	73.289	178.6262
812.000000	73.358	179.3754
825.000000	73.435	-179.8596
838.000000	73.532	-179.5302
850.000000	73.619	-179.6219
862.000000	73.593	179.8399
875.000000	73.369	179.8773
885.000000	73.180	-178.7453
900.000000	73.149	-176.0122
912.000000	73.269	-174.4799
925.000000	73.415	-173.3801
938.000000	73.547	-172.5497
950.000000	73.652	-171.8361
962.000000	73.743	-171.0644
975.000000	73.830	-170.2522
988.000000	73.933	-169.4485
1000.000000	74.026	-168.8362
1015.000000	74.084	-168.4830
1030.000000	74.133	-167.9006
1044.000000	74.209	-166.9241
1060.000000	74.359	-165.7337
1075.000000	74.541	-164.8696
1090.000000	74.722	-164.2817
1106.000000	74.895	-163.8158
1120.000000	75.032	-163.5440
1138.000000	75.173	-163.2073
1150.000000	75.266	-162.9303
1172.000000	75.444	-162.4495
1180.000000	75.504	-162.3006
1206.000000	75.684	-161.7830
1220.000000	75.762	-161.4044
1241.000000	75.875	-160.9345
1250.000000	75.925	-160.7511
1265.000000	76.026	-160.4270
1280.000000	76.161	-160.0859
1315.000000	76.561	-159.3494
1320.000000	76.619	-159.2361
1340.000000	76.850	-158.7839
1360.000000	77.064	-158.3645
1380.000000	77.240	-158.0005
1400.000000	77.391	-157.6324
1430.000000	77.614	-157.0452
1450.000000	77.764	-156.6486
1475.000000	77.955	-156.2229
1500.000000	78.160	-155.7816
1525.000000	78.368	-155.2471
1550.000000	78.575	-154.7881
1575.000000	78.788	-154.3616
1600.000000	79.011	-153.9531
1625.000000	79.243	-153.5885
1650.000000	79.480	-153.2544
1675.000000	79.722	-152.9153
1700.000000	79.971	-152.5759
1725.000000	80.229	-152.2899
1750.000000	80.495	-152.0799
1775.000000	80.763	-151.8605
1800.000000	81.038	-151.6812
1825.000000	81.326	-151.6293
1850.000000	81.616	-151.6174
1875.000000	81.901	-151.6179
1900.000000	82.196	-151.6758
1925.000000	82.503	-151.8190
1950.000000	82.814	-152.0358
1975.000000	83.127	-152.3520
2000.000000	83.444	-152.7921
2030.000000	83.825	-153.4307
2060.000000	84.209	-154.2069
2090.000000	84.595	-155.1744
2120.000000	84.974	-156.2980
2140.000000	85.222	-157.1256
2180.000000	85.705	-159.0310
2200.000000	85.942	-160.1208
2240.000000	86.395	-162.5771
2270.000000	86.707	-164.6385
2300.000000	86.991	-166.8389
2330.000000	87.245	-169.1899
2360.000000	87.468	-171.6912
2400.000000	87.709	-175.1981
2430.000000	87.844	-177.8984
2470.000000	87.966	178.5089
2500.000000	88.010	175.8776
2540.000000	88.011	172.4885
2580.000000	87.955	169.3064
2620.000000	87.851	166.3896
2650.000000	87.750	164.3861
2690.000000	87.590	161.9799
2720.000000	87.453	160.3778
2760.000000	87.262	158.4979
2800.000000	87.060	156.9160
2850.000000	86.798	155.3444
2900.000000	86.542	154.1171
2950.000000	86.302	153.2367
3000.000000	86.087	152.6641
3040.000000	85.929	152.3574
3070.000000	85.817	152.2127
3110.000000	85.679	152.1290
3150.000000	85.556	152.1502
3200.000000	85.430	152.3036
3250.000000	85.334	152.5916
3300.000000	85.263	152.9323
3350.000000	85.218	153.3143
3400.000000	85.199	153.7408
3450.000000	85.207	154.1784
3500.000000	85.239	154.6224
3550.000000	85.297	155.0440
3600.000000	85.388	155.4419
3650.000000	85.500	155.7756
3700.000000	85.633	156.0148
3750.000000	85.794	156.1440
3820.000000	86.064	156.0486
3870.000000	86.286	155.7817
3950.000000	86.701	154.9059
4000.000000	86.991	153.9887
4060.000000	87.347	152.4321
4120.000000	87.695	150.3257
4180.000000	88.014	147.5859
4250.000000	88.317	143.5499
4310.000000	88.491	139.4212
4370.000000	88.563	134.8088
4440.000000	88.501	129.0508
4500.000000	88.315	124.0868
4550.000000	88.067	120.1445
4620.000000	87.592	115.1801
4680.000000	87.094	111.5599
4750.000000	86.439	108.1503
4820.000000	85.739	105.5688
4870.000000	85.232	104.1850
4940.000000	84.523	102.7985
5000.000000	83.921	102.0511
5080.000000	83.135	101.6253
5150.000000	82.473	101.7430
5220.000000	81.838	102.2443
5300.000000	81.146	103.2260
5380.000000	80.492	104.6398
5450.000000	79.951	106.1842
5520.000000	79.447	108.0404
5600.000000	78.957	110.4255
5700.000000	78.424	113.3563
5800.000000	77.913	116.4881
5900.000000	77.471	119.9608
6000.000000	77.121	123.5853
6080.000000	76.894	126.4949
6150.000000	76.733	129.0654
6220.000000	76.610	131.6226
6300.000000	76.497	134.5822
6400.000000	76.385	138.3358
6500.000000	76.317	142.2223
6600.000000	76.301	146.2832
6700.000000	76.350	150.5430
6800.000000	76.487	154.9055
6900.000000	76.721	159.3649
7000.000000	77.064	163.7898
7100.000000	77.518	167.9904
7200.000000	78.096	171.8502
7300.000000	78.820	175.2782
7400.000000	79.690	178.1223
7500.000000	80.698	-179.9226
7620.000000	82.079	-179.3204
7750.000000	83.666	178.0116
7880.000000	85.022	170.3276
8000.000000	85.671	158.5678
8120.000000	85.465	144.9012
8250.000000	84.311	132.5493
8380.000000	82.579	125.3911
8500.000000	80.869	123.0984
8620.000000	79.283	123.7438
8750.000000	77.776	126.5649
8850.000000	76.775	129.6542
9000.000000	75.526	135.2261
9120.000000	74.716	140.2897
9250.000000	73.999	146.2459
9380.000000	73.445	152.5154
9500.000000	73.060	158.4039
9620.000000	72.785	164.2786
9750.000000	72.615	170.4632
9880.000000	72.550	176.5471
10000.000000	72.572	-177.8760
10150.000000	72.753	-171.1585
10300.000000	73.115	-164.7306
10440.000000	73.620	-159.0051
10600.000000	74.420	-153.0877
10750.000000	75.439	-148.3709
10900.000000	76.799	-145.0933
11060.000000	78.601	-144.8591
11200.000000	80.239	-149.2686
11380.000000	81.753	-163.2272
11500.000000	81.988	-176.4486
11720.000000	80.554	162.0890
11800.000000	79.592	157.4761
12060.000000	76.085	153.9117
12200.000000	74.413	156.5652
12410.000000	72.412	163.3810
12500.000000	71.727	166.9453
12650.000000	70.767	173.4479
12800.000000	70.005	-179.5974
13150.000000	68.940	-162.3700
13200.000000	68.850	-159.8754
13400.000000	68.586	-149.9285
13600.000000	68.458	-139.9552
13800.000000	68.550	-130.0722
14000.000000	68.977	-120.3148
14300.000000	70.390	-106.8738
14500.000000	71.921	-100.6220
14750.000000	74.003	-100.1060
15000.000000	74.801	-108.0810
15250.000000	74.627	-104.1021
15500.000000	77.375	-95.4842
15750.000000	79.289	-112.1555
16000.000000	78.964	-133.9918
16250.000000	77.967	-147.9531
16500.000000	77.248	-160.9589
16750.000000	76.244	-178.0400
17000.000000	74.140	165.0023
17250.000000	70.854	154.9870
17500.000000	66.834	154.4044
17750.000000	62.519	163.5140
18000.000000	58.249	-177.1059
18250.000000	54.839	-147.8323
18500.000000	54.182	-114.2259
18750.000000	56.065	-88.7666
19000.000000	57.810	-79.3252
19250.000000	58.285	-77.3894
19500.000000	58.040	-69.5972
19750.000000	58.496	-55.3205
20000.000000	59.276	-46.2651
