* Measurement data measured by REW V5.20.7
* Source: 마이크(Realtek High Definition Audi, MICROPHONE (마스), L, volume: 0.050
* Format: 128k Log Swept Sine, 1 sweep at -12.0 dBFS with no timing reference
* Dated: May 5, 2023 12:25:07 PM
* REW Settings:
*  C-weighting compensation: Off
*  Target level: 75.0 dB
* Note: ; 
* Measurement: Customart Music 1 (custom) L
* Smoothing: 1/48 octave
* Frequency Step: 1/96 octave
* Start Frequency: 20.145 Hz
*
* Freq(Hz)	SPL(dB)	Phase(degrees)
20.144928	76.919	57.5245
20.290907	76.929	57.2770
20.437943	76.939	56.9325
20.586044	76.949	56.6072
20.735220	76.957	56.2807
20.885475	76.964	55.9509
21.036821	76.970	55.6219
21.189262	76.976	55.2897
21.342808	76.983	54.9516
21.497467	76.991	54.6082
21.653246	76.999	54.2579
21.810154	77.006	53.9004
21.968201	77.013	53.5361
22.127390	77.020	53.1649
22.287735	77.026	52.7869
22.449242	77.033	52.4030
22.611917	77.040	52.0130
22.775772	77.047	51.6182
22.940815	77.055	51.2183
23.107054	77.063	50.8155
23.274498	77.071	50.4096
23.443153	77.081	50.0032
23.613033	77.091	49.5973
23.784142	77.103	49.1933
23.956491	77.117	48.7935
24.130091	77.133	48.3979
24.304947	77.150	48.0084
24.481071	77.169	47.6245
24.658470	77.190	47.2461
24.837156	77.212	46.8731
25.017136	77.236	46.5039
25.198421	77.261	46.1389
25.381020	77.286	45.7776
25.564941	77.312	45.4203
25.750195	77.338	45.0692
25.936790	77.364	44.7248
26.124741	77.389	44.3912
26.314051	77.413	44.0687
26.504732	77.436	43.7609
26.696796	77.458	43.4675
26.890253	77.478	43.1893
27.085112	77.497	42.9248
27.281382	77.515	42.6719
27.479073	77.533	42.4283
27.678198	77.551	42.1914
27.878765	77.568	41.9588
28.080786	77.584	41.7293
28.284271	77.598	41.5024
28.489231	77.611	41.2779
28.695675	77.622	41.0566
28.903616	77.632	40.8383
29.113064	77.640	40.6229
29.324028	77.647	40.4088
29.536524	77.653	40.1948
29.750557	77.658	39.9775
29.966141	77.662	39.7558
30.183289	77.666	39.5274
30.402010	77.669	39.2927
30.622314	77.671	39.0517
30.844217	77.672	38.8070
31.067726	77.671	38.5593
31.292856	77.670	38.3109
31.519617	77.670	38.0612
31.748020	77.669	37.8099
31.978081	77.670	37.5535
32.209808	77.672	37.2906
32.443211	77.675	37.0180
32.678310	77.679	36.7358
32.915108	77.683	36.4443
33.153625	77.687	36.1474
33.393871	77.692	35.8489
33.635857	77.699	35.5525
33.879597	77.706	35.2628
34.125103	77.715	34.9803
34.372387	77.725	34.7060
34.621464	77.737	34.4375
34.872345	77.750	34.1733
35.125042	77.764	33.9121
35.379574	77.778	33.6532
35.635948	77.793	33.3980
35.894180	77.808	33.1476
36.154285	77.822	32.9041
36.416275	77.835	32.6679
36.680161	77.849	32.4388
36.945961	77.862	32.2159
37.213688	77.874	31.9977
37.483353	77.885	31.7840
37.754974	77.895	31.5752
38.028561	77.903	31.3722
38.304131	77.909	31.1765
38.581699	77.914	30.9869
38.861279	77.919	30.8014
39.142883	77.924	30.6159
39.426529	77.929	30.4245
39.712231	77.934	30.2240
40.000000	77.938	30.0139
40.289856	77.940	29.7961
40.581814	77.941	29.5758
40.875885	77.941	29.3590
41.172089	77.941	29.1482
41.470440	77.941	28.9426
41.770950	77.943	28.7382
42.073643	77.947	28.5288
42.378525	77.952	28.3093
42.685616	77.958	28.0806
42.994934	77.963	27.8476
43.306492	77.967	27.6178
43.620308	77.970	27.3982
43.936401	77.975	27.1919
44.254780	77.981	26.9953
44.575470	77.990	26.7996
44.898483	78.000	26.5974
45.223835	78.009	26.3860
45.551544	78.016	26.1700
45.881630	78.021	25.9588
46.214108	78.024	25.7626
46.548996	78.027	25.5860
46.886307	78.030	25.4245
47.226067	78.036	25.2660
47.568283	78.043	25.0978
47.912983	78.050	24.9144
48.260181	78.055	24.7206
48.609894	78.057	24.5282
48.962143	78.058	24.3479
49.316940	78.059	24.1825
49.674313	78.062	24.0244
50.034271	78.068	23.8598
50.396843	78.075	23.6781
50.762039	78.082	23.4782
51.129883	78.086	23.2695
51.500389	78.089	23.0648
51.873581	78.091	22.8725
52.249481	78.094	22.6908
52.628101	78.099	22.5112
53.009464	78.106	22.3259
53.393593	78.112	22.1349
53.780506	78.115	21.9467
54.170223	78.116	21.7719
54.562763	78.118	21.6151
54.958145	78.120	21.4710
55.356396	78.125	21.3280
55.757530	78.130	21.1765
56.161572	78.135	21.0142
56.568542	78.138	20.8467
56.978462	78.139	20.6813
57.391350	78.140	20.5212
57.807232	78.140	20.3656
58.226128	78.140	20.2127
58.648056	78.140	20.0633
59.073048	78.140	19.9182
59.501114	78.143	19.7745
59.932281	78.147	19.6242
60.366577	78.152	19.4613
60.804020	78.157	19.2880
61.244629	78.159	19.1149
61.688435	78.160	18.9529
62.135452	78.162	18.8034
62.585712	78.165	18.6576
63.039234	78.169	18.5065
63.496040	78.172	18.3503
63.956161	78.173	18.1979
64.419617	78.173	18.0585
64.886421	78.174	17.9317
65.356621	78.176	17.8089
65.830215	78.179	17.6798
66.307251	78.182	17.5411
66.787743	78.184	17.3971
67.271713	78.185	17.2547
67.759193	78.186	17.1168
68.250206	78.188	16.9803
68.744774	78.190	16.8400
69.242928	78.192	16.6956
69.744690	78.193	16.5530
70.250084	78.194	16.4186
70.759148	78.196	16.2916
71.271896	78.199	16.1648
71.788361	78.203	16.0323
72.308571	78.206	15.8952
72.832550	78.207	15.7603
73.360321	78.208	15.6332
73.891922	78.209	15.5136
74.427376	78.211	15.3957
74.966705	78.214	15.2729
75.509949	78.216	15.1424
76.057121	78.217	15.0077
76.608261	78.217	14.8761
77.163399	78.216	14.7518
77.722557	78.216	14.6325
78.285767	78.217	14.5127
78.853058	78.218	14.3886
79.424461	78.219	14.2626
80.000000	78.219	14.1417
80.579712	78.219	14.0294
81.163628	78.221	13.9199
81.751770	78.223	13.8024
82.344177	78.225	13.6762
82.940880	78.225	13.5528
83.541901	78.224	13.4392
84.147285	78.224	13.3294
84.757050	78.224	13.2169
85.371231	78.223	13.1071
85.989868	78.223	13.0051
86.612984	78.225	12.9012
87.240616	78.227	12.7851
87.872803	78.227	12.6623
88.509560	78.226	12.5458
89.150940	78.224	12.4396
89.796967	78.223	12.3425
90.447670	78.223	12.2525
91.103088	78.225	12.1611
91.763260	78.227	12.0572
92.428215	78.228	11.9455
93.097992	78.228	11.8402
93.772614	78.228	11.7429
94.452133	78.230	11.6397
95.136566	78.231	11.5261
95.825966	78.231	11.4139
96.520363	78.230	11.3116
97.219788	78.230	11.2140
97.924286	78.230	11.1154
98.633881	78.230	11.0198
99.348625	78.230	10.9306
100.068542	78.231	10.8413
100.793686	78.231	10.7469
101.524078	78.231	10.6532
102.259766	78.230	10.5679
103.000778	78.230	10.4860
103.747162	78.231	10.3945
104.498962	78.230	10.2945
105.256203	78.228	10.2009
106.018929	78.227	10.1161
106.787186	78.228	10.0286
107.561012	78.228	9.9355
108.340446	78.228	9.8414
109.125526	78.228	9.7497
109.916290	78.228	9.6649
110.712791	78.229	9.5823
111.515060	78.230	9.4909
112.323143	78.231	9.3928
113.137085	78.230	9.2942
113.956924	78.227	9.1998
114.782700	78.223	9.1203
115.614464	78.222	9.0495
116.452255	78.222	8.9699
117.296112	78.220	8.8886
118.146095	78.219	8.8128
119.002228	78.219	8.7359
119.864563	78.219	8.6590
120.733154	78.218	8.5819
121.608040	78.218	8.5065
122.489258	78.217	8.4364
123.376869	78.218	8.3620
124.270905	78.217	8.2802
125.171425	78.217	8.1979
126.078468	78.216	8.1187
126.992081	78.216	8.0426
127.912323	78.216	7.9663
128.839233	78.216	7.8925
129.772842	78.217	7.8208
130.713242	78.218	7.7472
131.660431	78.218	7.6727
132.614502	78.218	7.5957
133.575485	78.217	7.5194
134.543427	78.214	7.4537
135.518387	78.213	7.3964
136.500412	78.213	7.3330
137.489548	78.211	7.2644
138.485855	78.210	7.1981
139.489380	78.208	7.1301
140.500168	78.206	7.0652
141.518295	78.205	7.0010
142.543793	78.204	6.9332
143.576721	78.203	6.8688
144.617142	78.203	6.8024
145.665100	78.202	6.7329
146.720642	78.201	6.6632
147.783844	78.198	6.5978
148.854752	78.196	6.5364
149.933411	78.193	6.4758
151.019897	78.191	6.4221
152.114243	78.190	6.3708
153.216522	78.189	6.3145
154.326797	78.188	6.2564
155.445114	78.186	6.2000
156.571533	78.183	6.1435
157.706116	78.179	6.0855
158.848923	78.175	6.0305
160.000000	78.170	5.9784
161.159424	78.168	5.9287
162.327255	78.167	5.8779
163.503540	78.167	5.8196
164.688354	78.167	5.7600
165.881760	78.165	5.7054
167.083801	78.161	5.6585
168.294571	78.156	5.6189
169.514099	78.152	5.5787
170.742462	78.150	5.5333
171.979736	78.149	5.4806
173.225967	78.150	5.4156
174.481232	78.150	5.3447
175.745605	78.148	5.2869
177.019119	78.147	5.2471
178.301880	78.148	5.2115
179.593933	78.149	5.1694
180.895340	78.149	5.1246
182.206177	78.147	5.0788
183.526520	78.144	5.0281
184.856430	78.141	4.9782
186.195984	78.138	4.9333
187.545227	78.137	4.8894
188.904266	78.137	4.8501
190.273132	78.137	4.8187
191.651932	78.137	4.7927
193.040726	78.136	4.7613
194.439575	78.133	4.7248
195.848572	78.128	4.6851
197.267761	78.124	4.6425
198.697250	78.121	4.5922
200.137085	78.118	4.5390
201.587372	78.116	4.4929
203.048157	78.114	4.4526
204.519531	78.111	4.4213
206.001556	78.108	4.3933
207.494324	78.104	4.3619
208.997925	78.100	4.3357
210.512405	78.096	4.3067
212.037857	78.092	4.2728
213.574371	78.088	4.2353
215.122025	78.084	4.1945
216.680893	78.082	4.1599
218.251053	78.080	4.1269
219.832581	78.076	4.0968
221.425583	78.071	4.0740
223.030121	78.064	4.0539
224.646286	78.057	4.0282
226.274170	78.051	3.9969
227.913849	78.047	3.9667
229.565399	78.042	3.9392
231.228928	78.037	3.9141
232.904510	78.029	3.8893
234.592224	78.022	3.8678
236.292191	78.018	3.8496
238.004456	78.014	3.8264
239.729126	78.011	3.8033
241.466309	78.006	3.7812
243.216080	78.000	3.7590
244.978516	77.994	3.7352
246.753738	77.990	3.7106
248.541809	77.985	3.6920
250.342850	77.982	3.6769
252.156937	77.978	3.6574
253.984161	77.975	3.6346
255.824646	77.971	3.6151
257.678467	77.968	3.6017
259.545685	77.964	3.5865
261.426483	77.959	3.5673
263.320862	77.954	3.5467
265.229004	77.950	3.5272
267.150970	77.947	3.5116
269.086853	77.944	3.5002
271.036774	77.939	3.4858
273.000824	77.934	3.4644
274.979095	77.929	3.4438
276.971710	77.926	3.4294
278.978760	77.923	3.4186
281.000336	77.919	3.4148
283.036591	77.914	3.4170
285.087585	77.911	3.4138
287.153442	77.907	3.4009
289.234283	77.904	3.3896
291.330200	77.899	3.3880
293.441284	77.895	3.3950
295.567688	77.891	3.3962
297.709503	77.887	3.3813
299.866821	77.882	3.3660
302.039795	77.877	3.3599
304.228485	77.873	3.3605
306.433044	77.869	3.3678
308.653595	77.864	3.3776
310.890228	77.860	3.3760
313.143066	77.854	3.3657
315.412231	77.849	3.3639
317.697845	77.845	3.3736
320.000000	77.841	3.3826
322.318848	77.836	3.3920
324.654510	77.832	3.4054
327.007080	77.828	3.4149
329.376709	77.822	3.4200
331.763519	77.814	3.4224
334.167603	77.807	3.4176
336.589142	77.801	3.4132
339.028198	77.795	3.4244
341.484924	77.788	3.4461
343.959473	77.782	3.4632
346.451935	77.776	3.4776
348.962463	77.770	3.4982
351.491211	77.763	3.5184
354.038239	77.757	3.5265
356.603760	77.750	3.5317
359.187866	77.743	3.5475
361.790680	77.735	3.5685
364.412354	77.728	3.5930
367.053040	77.721	3.6275
369.712860	77.714	3.6590
372.391968	77.707	3.6717
375.090454	77.698	3.6769
377.808533	77.688	3.7018
380.546265	77.680	3.7387
383.303864	77.674	3.7695
386.081451	77.669	3.7986
388.879150	77.662	3.8322
391.697144	77.653	3.8681
394.535522	77.646	3.8994
397.394501	77.639	3.9314
400.274170	77.630	3.9667
403.174744	77.621	4.0039
406.096313	77.613	4.0469
409.039062	77.607	4.0897
412.003113	77.601	4.1255
414.988647	77.594	4.1615
417.995850	77.587	4.1984
421.024811	77.578	4.2344
424.075714	77.569	4.2752
427.148743	77.560	4.3219
430.244049	77.553	4.3679
433.361786	77.546	4.4214
436.502106	77.539	4.4884
439.665161	77.531	4.5505
442.851166	77.524	4.5984
446.060242	77.518	4.6471
449.292572	77.510	4.7003
452.548340	77.502	4.7550
455.827698	77.494	4.8121
459.130798	77.486	4.8736
462.457855	77.479	4.9373
465.809021	77.472	5.0007
469.184448	77.464	5.0699
472.584381	77.455	5.1369
476.008911	77.446	5.2003
479.458252	77.437	5.2715
482.932617	77.429	5.3461
486.432159	77.422	5.4216
489.957031	77.415	5.5109
493.507477	77.409	5.6058
497.083618	77.401	5.6838
500.685699	77.393	5.7493
504.313873	77.384	5.8201
507.968323	77.376	5.9102
511.649292	77.369	6.0021
515.356934	77.363	6.0821
519.091370	77.356	6.1657
522.852966	77.348	6.2618
526.641724	77.339	6.3662
530.458008	77.330	6.4769
534.301941	77.323	6.5852
538.173706	77.315	6.6817
542.073547	77.304	6.7743
546.001648	77.292	6.8780
549.958191	77.283	6.9931
553.943420	77.275	7.1114
557.957520	77.265	7.2301
562.000671	77.255	7.3522
566.073181	77.246	7.4722
570.175171	77.238	7.5891
574.306885	77.230	7.7153
578.468567	77.220	7.8456
582.660400	77.209	7.9699
586.882568	77.197	8.0920
591.135376	77.187	8.2254
595.419006	77.178	8.3706
599.733643	77.169	8.5123
604.079590	77.160	8.6489
608.456970	77.151	8.7908
612.866089	77.141	8.9468
617.307190	77.132	9.1120
621.780457	77.124	9.2739
626.286133	77.117	9.4363
630.824463	77.112	9.6052
635.395691	77.104	9.7764
640.000000	77.095	9.9426
644.637695	77.087	10.1103
649.309021	77.079	10.2794
654.014160	77.070	10.4454
658.753418	77.063	10.6226
663.527039	77.057	10.8191
668.335205	77.050	11.0220
673.178284	77.043	11.2217
678.056396	77.038	11.4171
682.969849	77.032	11.6100
687.918945	77.026	11.8091
692.903870	77.019	12.0207
697.924927	77.014	12.2446
702.982422	77.011	12.4667
708.076477	77.007	12.6790
713.207520	77.003	12.8954
718.375732	76.998	13.1251
723.581360	76.994	13.3663
728.824707	76.991	13.6063
734.106079	76.990	13.8453
739.425720	76.989	14.0824
744.783936	76.988	14.3170
750.180908	76.987	14.5578
755.617065	76.986	14.8096
761.092529	76.984	15.0676
766.607727	76.983	15.3241
772.162903	76.982	15.5781
777.758301	76.982	15.8359
783.394287	76.985	16.1021
789.071045	76.989	16.3779
794.789001	76.992	16.6603
800.548340	76.995	16.9521
806.349487	76.999	17.2468
812.192627	77.004	17.5383
818.078125	77.010	17.8289
824.006226	77.016	18.1141
829.977295	77.023	18.4015
835.991699	77.032	18.6985
842.049622	77.043	19.0044
848.151428	77.053	19.3157
854.297485	77.064	19.6203
860.488098	77.076	19.9204
866.723572	77.088	20.2294
873.004211	77.099	20.5381
879.330322	77.112	20.8401
885.702332	77.126	21.1467
892.120483	77.140	21.4576
898.585144	77.156	21.7673
905.096680	77.175	22.0809
911.655396	77.197	22.4009
918.261597	77.218	22.7149
924.915710	77.239	23.0132
931.618042	77.261	23.3094
938.368896	77.286	23.6133
945.168762	77.312	23.9155
952.017822	77.338	24.2123
958.916504	77.364	24.5030
965.865234	77.391	24.7961
972.864319	77.418	25.0940
979.914062	77.448	25.3823
987.014954	77.478	25.6645
994.167236	77.508	25.9397
1001.371399	77.540	26.2073
1008.627747	77.573	26.4752
1015.936646	77.606	26.7341
1023.298584	77.641	26.9803
1030.713867	77.676	27.2253
1038.182739	77.713	27.4703
1045.705933	77.752	27.7040
1053.283447	77.789	27.9321
1060.916016	77.827	28.1524
1068.603882	77.864	28.3616
1076.347412	77.898	28.5719
1084.147095	77.930	28.7709
1092.003296	77.962	28.9548
1099.916382	77.995	29.1250
1107.886841	78.030	29.2871
1115.915039	78.066	29.4495
1124.001343	78.099	29.6148
1132.146362	78.133	29.7629
1140.350342	78.169	29.8957
1148.613770	78.204	30.0282
1156.937134	78.239	30.1482
1165.320801	78.272	30.2617
1173.765137	78.304	30.3712
1182.270752	78.335	30.4686
1190.838013	78.365	30.5636
1199.467285	78.395	30.6588
1208.159180	78.427	30.7560
1216.913940	78.462	30.8527
1225.732178	78.500	30.9457
1234.614380	78.539	31.0372
1243.560913	78.577	31.1321
1252.572266	78.614	31.2343
1261.648926	78.649	31.3338
1270.791382	78.685	31.4392
1280.000000	78.720	31.5542
1289.275391	78.756	31.6748
1298.618042	78.792	31.7947
1308.028320	78.829	31.9067
1317.506836	78.865	32.0231
1327.054077	78.901	32.1399
1336.670410	78.936	32.2500
1346.356567	78.973	32.3671
1356.112793	79.010	32.4940
1365.939697	79.050	32.6277
1375.837891	79.092	32.7648
1385.807739	79.136	32.9011
1395.849854	79.181	33.0337
1405.964844	79.225	33.1668
1416.152954	79.268	33.3068
1426.415039	79.311	33.4487
1436.751465	79.354	33.5920
1447.162720	79.398	33.7405
1457.649414	79.442	33.8954
1468.212158	79.486	34.0578
1478.851440	79.530	34.2266
1489.567871	79.575	34.4027
1500.361816	79.620	34.5773
1511.234131	79.666	34.7374
1522.185059	79.712	34.8982
1533.215454	79.755	35.0714
1544.325806	79.796	35.2612
1555.516602	79.836	35.4620
1566.788574	79.877	35.6608
1578.142090	79.919	35.8547
1589.578003	79.963	36.0486
1601.096680	80.007	36.2496
1612.698975	80.054	36.4553
1624.385254	80.101	36.6633
1636.156250	80.148	36.8700
1648.012451	80.196	37.0805
1659.954590	80.246	37.3004
1671.983398	80.298	37.5159
1684.099243	80.351	37.7265
1696.302856	80.405	37.9491
1708.594971	80.462	38.1813
1720.976196	80.521	38.4040
1733.447144	80.583	38.6217
1746.008423	80.646	38.8508
1758.660645	80.710	39.0830
1771.404663	80.777	39.3009
1784.240967	80.845	39.5106
1797.170288	80.917	39.7306
1810.193359	80.990	39.9541
1823.310791	81.065	40.1701
1836.523193	81.142	40.3863
1849.831421	81.222	40.6045
1863.236084	81.304	40.8190
1876.737793	81.387	41.0271
1890.337524	81.472	41.2285
1904.035645	81.559	41.4185
1917.833008	81.649	41.6028
1931.730469	81.741	41.7827
1945.728638	81.838	41.9515
1959.828125	81.936	42.1149
1974.029907	82.035	42.2742
1988.334473	82.137	42.4224
2002.742798	82.241	42.5607
2017.255493	82.349	42.6878
2031.873291	82.459	42.8002
2046.597168	82.574	42.9015
2061.427734	82.690	42.9864
2076.365479	82.808	43.0516
2091.411865	82.929	43.1026
2106.566895	83.055	43.1404
2121.832031	83.183	43.1572
2137.207764	83.313	43.1486
2152.694824	83.447	43.1201
2168.294189	83.583	43.0631
2184.006592	83.723	42.9736
2199.832764	83.864	42.8578
2215.773682	84.009	42.7168
2231.830078	84.156	42.5446
2248.002686	84.308	42.3365
2264.292725	84.462	42.0876
2280.700684	84.619	41.7892
2297.227539	84.778	41.4402
2313.874268	84.939	41.0436
2330.641602	85.102	40.5864
2347.530273	85.265	40.0685
2364.541504	85.428	39.4946
2381.676025	85.591	38.8579
2398.934570	85.753	38.1555
2416.318359	85.914	37.3857
2433.827881	86.073	36.5470
2451.464355	86.229	35.6370
2469.228760	86.382	34.6545
2487.121826	86.531	33.6019
2505.144531	86.674	32.4816
2523.297852	86.812	31.2909
2541.582764	86.943	30.0286
2560.000000	87.067	28.6970
2578.550781	87.183	27.2949
2597.236084	87.289	25.8210
2616.056641	87.386	24.2819
2635.013672	87.470	22.6829
2654.108154	87.542	21.0299
2673.340820	87.600	19.3258
2692.713135	87.644	17.5807
2712.225586	87.672	15.8052
2731.879395	87.687	14.0046
2751.675781	87.688	12.1883
2771.615479	87.672	10.3636
2791.699707	87.639	8.5364
2811.929688	87.592	6.7207
2832.305908	87.529	4.9304
2852.830078	87.450	3.1768
2873.502930	87.356	1.4675
2894.325439	87.247	-0.1877
2915.298828	87.125	-1.7785
2936.424316	86.990	-3.2969
2957.702881	86.843	-4.7414
2979.135742	86.687	-6.1047
3000.723633	86.521	-7.3766
3022.468262	86.345	-8.5542
3044.370117	86.163	-9.6337
3066.430908	85.975	-10.6135
3088.651611	85.783	-11.4888
3111.033203	85.587	-12.2660
3133.577148	85.389	-12.9470
3156.284180	85.191	-13.5274
3179.156006	84.992	-14.0131
3202.193359	84.795	-14.4103
3225.397949	84.600	-14.7243
3248.770508	84.407	-14.9653
3272.312500	84.217	-15.1380
3296.024902	84.030	-15.2420
3319.909180	83.848	-15.2822
3343.966797	83.670	-15.2649
3368.198486	83.495	-15.1904
3392.605713	83.322	-15.0577
3417.189941	83.152	-14.8699
3441.952393	82.986	-14.6274
3466.894287	82.825	-14.3337
3492.016846	82.668	-13.9988
3517.321289	82.516	-13.6208
3542.809326	82.370	-13.1962
3568.481934	82.228	-12.7234
3594.340576	82.090	-12.2094
3620.386719	81.958	-11.6575
3646.621582	81.833	-11.0717
3673.046387	81.713	-10.4520
3699.662842	81.599	-9.7985
3726.472168	81.490	-9.1092
3753.475586	81.388	-8.3878
3780.675049	81.293	-7.6439
3808.071289	81.204	-6.8802
3835.666016	81.122	-6.0949
3863.460938	81.048	-5.2872
3891.457275	80.981	-4.4630
3919.656250	80.923	-3.6173
3948.059814	80.871	-2.7514
3976.668945	80.826	-1.8692
4005.485596	80.787	-0.9718
4034.510986	80.755	-0.0571
4063.746582	80.729	0.8751
4093.194336	80.711	1.8241
4122.855469	80.700	2.7833
4152.730957	80.697	3.7443
4182.823730	80.702	4.7158
4213.133789	80.714	5.7058
4243.664062	80.734	6.7044
4274.415527	80.764	7.7037
4305.389648	80.803	8.7063
4336.588379	80.851	9.7181
4368.013184	80.907	10.7264
4399.665527	80.975	11.7264
4431.547363	81.053	12.7241
4463.660156	81.142	13.7144
4496.005371	81.242	14.6938
4528.585449	81.353	15.6722
4561.401367	81.475	16.6300
4594.455078	81.610	17.5530
4627.748535	81.759	18.4520
4661.283203	81.922	19.3244
4695.060547	82.100	20.1576
4729.083008	82.292	20.9471
4763.352051	82.501	21.6900
4797.869141	82.725	22.3682
