* Measurement data measured by REW V5.20.13
* Source: Input device not selected, no input selected, R, volume: no control. Timing signal peak level -28.3 dBFS, measurement signal peak level -20.1 dBFS
* Format: 128k Log Swept Sine, 1 sweep at -12.0 dBFS using an acoustic timing reference
* Dated: 2022. 10. 25 ¿ÀÀü 10:23:54
* REW Settings:
*  C-weighting compensation: Off
*  Target level: 75.0 dB
* Note: Delay -0.0415 ms (-14 mm, -0.56 in) using estimated IR delay relative to Acoustic reference played from  R with no timing offset
* Measurement: MX400 R -¼Ø
* Smoothing: 1/24 octave
* Frequency Step: 1/48 octave
* Start Frequency: 20.300 Hz
*
* Freq(Hz)	SPL(dB)	Phase(degrees)
20.299999	55.153	-30.3586
20.600000	54.221	-37.1456
20.900000	51.815	-46.2437
21.200001	48.490	-44.9812
21.400000	46.114	-36.5856
21.799999	44.090	-13.6767
22.000000	44.914	-6.5237
22.400000	47.949	-14.5329
22.700001	49.551	-36.9101
23.000000	50.564	-64.6952
23.299999	51.077	-93.9869
23.600000	51.094	-124.6656
24.000000	50.400	-170.0999
24.299999	49.716	150.5506
24.700001	49.717	92.9476
25.000000	50.825	51.3935
25.400000	52.863	5.9580
25.799999	54.395	-25.5120
26.200001	55.333	-46.0009
26.500000	55.883	-56.6178
26.900000	56.719	-67.4498
27.200001	57.482	-75.4585
27.600000	58.498	-88.6282
28.000000	59.182	-105.9585
28.500000	59.222	-132.9662
29.000000	58.110	-165.2725
29.500000	55.639	152.2502
30.000000	52.123	90.3434
30.400000	50.763	32.4609
30.700001	51.761	-6.1959
31.100000	53.771	-42.6861
31.500000	55.403	-63.5175
32.000000	56.805	-77.4287
32.500000	57.718	-86.0766
33.000000	58.186	-92.8704
33.500000	58.260	-97.8724
34.000000	58.194	-101.0890
34.500000	58.223	-104.7828
35.000000	58.183	-111.6401
35.500000	57.677	-121.2204
36.000000	56.609	-129.3140
36.500000	55.659	-132.9663
37.000000	56.020	-135.6921
37.500000	57.302	-143.7039
38.200001	58.325	-163.1837
38.700001	58.033	-173.5757
39.500000	57.661	-171.5015
40.000000	58.529	-166.8331
40.599998	59.354	-166.5630
41.200001	59.156	-164.3301
41.799999	59.353	-153.5823
42.500000	61.169	-144.0376
43.099998	62.094	-148.3069
43.700001	61.624	-155.1836
44.400002	59.986	-153.9104
45.000000	59.234	-147.5112
45.500000	59.416	-145.3447
46.200001	59.779	-147.9003
46.799999	60.116	-150.3221
47.500000	61.026	-152.9879
48.200001	61.885	-157.3030
48.700001	62.313	-158.6587
49.400002	63.466	-155.3572
50.000000	65.068	-153.1165
50.799999	66.425	-159.0640
51.500000	66.070	-164.8967
52.200001	64.958	-160.0786
53.000000	64.972	-148.7261
53.799999	65.596	-147.0815
54.500000	65.320	-149.5988
55.200001	64.818	-149.7788
56.000000	64.914	-151.2290
57.000000	65.416	-161.0941
58.000000	65.407	-174.7050
59.000000	64.785	178.4673
60.000000	65.023	-177.0013
60.799999	66.142	-173.8259
61.500000	66.910	-174.3453
62.200001	67.280	-175.3065
63.000000	67.488	-174.9131
64.000000	67.717	-173.6340
65.000000	67.777	-173.0076
66.000000	67.662	-171.6899
67.000000	67.727	-169.6614
68.000000	68.047	-168.8799
69.000000	68.485	-169.9590
70.000000	68.897	-173.2557
71.000000	69.022	-177.8914
72.000000	68.882	179.0078
73.000000	68.851	178.2455
74.000000	69.023	178.3538
75.000000	69.305	179.1543
76.199997	69.841	-179.5054
77.500000	70.522	-179.9744
78.800003	70.747	176.7720
80.000000	70.566	175.2692
81.199997	70.645	175.3644
82.500000	71.180	174.9202
83.800003	71.864	172.7026
85.000000	72.305	169.7769
86.199997	72.341	167.8296
87.500000	72.293	169.1368
88.500000	72.493	170.1453
90.000000	72.742	169.2263
91.199997	72.876	168.2798
92.500000	73.149	167.4998
93.800003	73.535	166.9757
95.000000	73.930	166.7107
96.199997	74.281	166.4023
97.500000	74.527	166.0013
98.800003	74.715	165.6357
100.000000	74.891	164.7886
101.500000	75.118	163.1860
103.000000	75.385	161.3579
104.400002	75.620	159.7645
106.000000	75.839	158.4543
107.500000	76.023	157.6833
109.000000	76.243	156.9429
110.599998	76.533	155.9258
112.000000	76.795	154.9200
113.800003	77.132	153.9554
115.000000	77.337	153.2772
117.199997	77.622	151.8757
118.000000	77.722	151.2549
120.599998	78.080	148.8672
122.000000	78.303	147.5095
124.099998	78.599	145.8787
125.000000	78.723	145.4780
126.500000	78.975	144.9810
128.000000	79.260	144.2090
131.500000	79.869	141.3989
132.000000	79.935	140.8766
134.000000	80.118	138.9055
136.000000	80.294	137.2340
138.000000	80.505	135.5264
140.000000	80.740	134.1335
143.000000	81.145	132.2582
145.000000	81.368	130.7188
147.500000	81.617	128.8206
150.000000	81.906	127.0691
152.500000	82.172	125.1680
155.000000	82.400	123.2058
157.500000	82.623	121.0508
160.000000	82.814	119.0322
162.500000	82.994	117.3206
165.000000	83.154	115.5621
167.500000	83.332	113.7123
170.000000	83.534	111.4568
172.500000	83.681	109.1460
175.000000	83.783	107.3835
177.500000	83.914	105.8650
180.000000	84.041	104.0245
182.500000	84.141	102.1266
185.000000	84.231	100.3833
187.500000	84.326	98.7490
190.000000	84.420	96.9978
192.500000	84.488	95.2015
195.000000	84.541	93.5327
197.500000	84.597	91.9180
200.000000	84.658	90.3015
203.000000	84.727	88.4900
206.000000	84.786	86.8309
209.000000	84.826	85.1478
212.000000	84.852	83.4968
214.000000	84.870	82.3888
218.000000	84.903	80.0439
220.000000	84.912	78.9432
224.000000	84.909	77.1161
227.000000	84.886	75.7346
230.000000	84.872	74.2273
233.000000	84.877	72.7944
236.000000	84.877	71.5022
240.000000	84.870	69.8638
243.000000	84.848	68.6373
247.000000	84.781	67.1349
250.000000	84.739	66.0781
254.000000	84.682	64.7893
258.000000	84.627	63.6875
262.000000	84.616	62.6656
265.000000	84.608	61.9088
269.000000	84.584	60.8826
272.000000	84.562	60.1001
276.000000	84.517	59.0997
280.000000	84.467	58.0972
285.000000	84.427	56.8873
290.000000	84.381	55.7451
295.000000	84.305	54.5546
300.000000	84.247	53.2914
304.000000	84.210	52.3839
307.000000	84.185	51.6578
311.000000	84.160	50.6309
315.000000	84.122	49.5564
320.000000	84.006	47.9607
325.000000	83.774	46.0465
330.000000	83.404	44.9304
335.000000	83.013	45.5803
340.000000	82.787	46.9860
345.000000	82.718	47.9899
350.000000	82.683	48.3013
355.000000	82.593	48.2583
360.000000	82.445	48.4574
365.000000	82.262	49.2764
370.000000	82.091	50.8601
375.000000	82.030	53.1299
382.000000	82.214	56.4716
387.000000	82.515	58.2970
395.000000	83.109	59.2913
400.000000	83.436	58.8033
406.000000	83.734	57.5685
412.000000	83.939	56.1921
418.000000	84.067	54.9828
425.000000	84.136	53.5906
431.000000	84.173	52.4617
437.000000	84.198	51.5054
444.000000	84.204	50.6838
450.000000	84.196	50.1846
455.000000	84.180	49.8196
462.000000	84.162	49.2764
468.000000	84.164	48.7975
475.000000	84.172	48.3409
482.000000	84.185	47.9064
487.000000	84.191	47.5873
494.000000	84.191	47.1592
500.000000	84.185	46.8923
508.000000	84.177	46.7097
515.000000	84.180	46.4637
522.000000	84.186	46.0967
530.000000	84.197	45.8062
538.000000	84.188	45.6320
545.000000	84.171	45.4774
552.000000	84.168	45.3466
560.000000	84.183	45.2424
570.000000	84.194	45.1012
580.000000	84.195	44.9564
590.000000	84.212	44.8916
600.000000	84.225	44.8472
608.000000	84.248	44.7340
615.000000	84.277	44.5767
622.000000	84.298	44.4193
630.000000	84.304	44.2535
640.000000	84.303	44.0800
650.000000	84.293	43.9446
660.000000	84.288	43.9026
670.000000	84.292	43.9119
680.000000	84.296	43.9326
690.000000	84.310	43.8770
700.000000	84.322	43.7928
710.000000	84.324	43.7538
720.000000	84.331	43.7150
730.000000	84.324	43.6882
740.000000	84.300	43.7030
750.000000	84.282	43.7952
762.000000	84.283	44.0164
775.000000	84.298	44.3051
788.000000	84.300	44.5072
800.000000	84.305	44.6823
812.000000	84.316	44.9733
825.000000	84.333	45.3055
838.000000	84.366	45.6648
850.000000	84.404	46.0574
862.000000	84.451	46.4521
875.000000	84.502	46.8314
885.000000	84.544	47.0094
900.000000	84.627	47.0536
912.000000	84.694	47.0111
925.000000	84.754	46.9874
938.000000	84.791	46.8469
950.000000	84.812	46.6802
962.000000	84.826	46.5570
975.000000	84.829	46.4409
988.000000	84.827	46.3962
1000.000000	84.816	46.4360
1015.000000	84.793	46.5406
1030.000000	84.768	46.7046
1044.000000	84.751	46.9080
1060.000000	84.731	47.1959
1075.000000	84.708	47.4905
1090.000000	84.683	47.8645
1106.000000	84.659	48.3920
1120.000000	84.641	48.9138
1138.000000	84.635	49.6223
1150.000000	84.643	50.0963
1172.000000	84.654	50.9685
1180.000000	84.660	51.2742
1206.000000	84.696	52.2306
1220.000000	84.722	52.7632
1241.000000	84.766	53.5411
1250.000000	84.787	53.8706
1265.000000	84.824	54.4165
1280.000000	84.859	54.9447
1315.000000	84.929	56.0986
1320.000000	84.937	56.2700
1340.000000	84.961	56.9667
1360.000000	84.982	57.7139
1380.000000	85.005	58.5392
1400.000000	85.033	59.3973
1430.000000	85.092	60.7264
1450.000000	85.131	61.6528
1475.000000	85.179	62.8455
1500.000000	85.233	64.0969
1525.000000	85.295	65.4160
1550.000000	85.357	66.7157
1575.000000	85.406	68.1655
1600.000000	85.463	69.8435
1625.000000	85.545	71.6475
1650.000000	85.653	73.5469
1675.000000	85.779	75.5996
1700.000000	85.935	77.7952
1725.000000	86.139	80.0369
1750.000000	86.390	82.2485
1775.000000	86.680	84.3788
1800.000000	87.000	86.3983
1825.000000	87.359	88.3116
1850.000000	87.756	89.9973
1875.000000	88.171	91.4009
1900.000000	88.586	92.5986
1925.000000	89.007	93.6829
1950.000000	89.444	94.6378
1975.000000	89.893	95.3801
2000.000000	90.339	95.9071
2030.000000	90.870	96.4233
2060.000000	91.419	96.7894
2090.000000	91.976	96.8755
2120.000000	92.523	96.6949
2140.000000	92.881	96.4834
2180.000000	93.601	95.8521
2200.000000	93.959	95.3937
2240.000000	94.655	94.2629
2270.000000	95.172	93.3257
2300.000000	95.702	92.2825
2330.000000	96.243	91.0461
2360.000000	96.795	89.6022
2400.000000	97.562	87.1594
2430.000000	98.117	84.7689
2470.000000	98.804	81.1343
2500.000000	99.295	78.0872
2540.000000	99.902	73.5012
2580.000000	100.436	68.3491
2620.000000	100.873	62.6344
2650.000000	101.120	58.0795
2690.000000	101.334	51.7839
2720.000000	101.402	46.9991
2760.000000	101.368	40.7274
2800.000000	101.200	34.8060
2850.000000	100.837	28.1741
2900.000000	100.363	22.5637
2950.000000	99.823	17.9342
3000.000000	99.256	14.2087
3040.000000	98.801	11.8048
3070.000000	98.465	10.2913
3110.000000	98.028	8.6167
3150.000000	97.614	7.2667
3200.000000	97.125	5.9199
3250.000000	96.664	4.9038
3300.000000	96.233	4.1699
3350.000000	95.828	3.6730
3400.000000	95.449	3.3777
3450.000000	95.093	3.2731
3500.000000	94.761	3.3810
3550.000000	94.467	3.6412
3600.000000	94.207	3.9644
3650.000000	93.972	4.3425
3700.000000	93.766	4.7443
3750.000000	93.584	5.1321
3820.000000	93.365	5.6116
3870.000000	93.225	5.8727
3950.000000	93.013	6.1167
4000.000000	92.871	6.1521
4060.000000	92.663	6.2142
4120.000000	92.429	6.6606
4180.000000	92.234	7.4734
4250.000000	92.070	8.4777
4310.000000	91.953	9.3073
4370.000000	91.847	10.1229
4440.000000	91.742	11.2114
4500.000000	91.687	12.2965
4550.000000	91.684	13.2333
4620.000000	91.741	14.3337
4680.000000	91.818	14.9557
4750.000000	91.908	15.4316
4820.000000	92.002	15.7952
4870.000000	92.087	15.9779
4940.000000	92.218	16.0176
5000.000000	92.345	15.9067
5080.000000	92.549	15.4182
5150.000000	92.726	14.4260
5220.000000	92.859	12.9951
5300.000000	92.939	11.1638
5380.000000	92.971	9.3230
5450.000000	92.982	7.8055
5520.000000	93.017	6.2744
5600.000000	93.087	3.9606
5700.000000	93.075	0.0452
5800.000000	92.890	-4.3353
5900.000000	92.522	-8.7599
6000.000000	91.989	-12.6339
6080.000000	91.498	-15.2972
6150.000000	91.023	-17.4520
6220.000000	90.491	-19.3367
6300.000000	89.823	-20.9740
6400.000000	88.946	-22.2103
6500.000000	88.056	-22.8672
6600.000000	87.120	-23.0042
6700.000000	86.129	-22.6691
6800.000000	84.992	-21.4017
6900.000000	83.724	-18.1409
7000.000000	82.424	-11.9741
7100.000000	81.359	-2.6541
7200.000000	80.859	8.4473
7300.000000	81.009	19.1725
7400.000000	81.602	27.9686
7500.000000	82.414	34.6096
7620.000000	83.538	39.8132
7750.000000	84.696	41.9327
7880.000000	85.599	41.7974
8000.000000	86.286	41.0569
8120.000000	86.926	39.9495
8250.000000	87.656	37.9503
8380.000000	88.311	33.8499
8500.000000	88.600	28.7083
8620.000000	88.626	24.2174
8750.000000	88.626	20.3163
8850.000000	88.654	17.1552
9000.000000	88.629	11.7886
9120.000000	88.577	6.8757
9250.000000	88.397	0.0879
9380.000000	87.893	-7.7371
9500.000000	87.067	-14.7882
9620.000000	85.883	-20.4829
9750.000000	84.277	-23.8547
9880.000000	82.533	-23.9958
10000.000000	80.948	-21.6497
10150.000000	79.123	-15.6871
10300.000000	77.653	-7.0239
10440.000000	76.693	2.5842
10600.000000	76.234	15.0105
10750.000000	76.625	25.4895
10900.000000	77.388	32.0223
11060.000000	78.050	35.5564
11200.000000	78.508	38.1625
11380.000000	79.309	41.3353
11500.000000	79.995	41.9542
11720.000000	81.031	38.3918
11800.000000	81.245	36.1161
12060.000000	81.322	28.5317
12200.000000	81.084	25.5288
12410.000000	80.584	23.4868
12500.000000	80.420	23.4858
12650.000000	80.322	23.7909
12800.000000	80.380	23.6465
13150.000000	80.738	22.0547
13200.000000	80.842	21.7548
13400.000000	81.466	19.4806
13600.000000	82.263	13.7358
13800.000000	82.820	3.5239
14000.000000	82.803	-9.7795
14300.000000	81.434	-29.3743
14500.000000	79.810	-38.2634
14750.000000	77.443	-43.0056
15000.000000	75.321	-40.1744
15250.000000	74.546	-35.1964
15500.000000	74.801	-36.1481
15750.000000	74.859	-43.4323
16000.000000	74.323	-52.1982
16250.000000	73.539	-58.8754
16500.000000	73.076	-65.8269
16750.000000	72.662	-76.4763
17000.000000	71.839	-89.9460
17250.000000	70.489	-104.3474
17500.000000	68.611	-118.8346
17750.000000	66.000	-130.9723
18000.000000	62.372	-131.7078
18250.000000	58.941	-115.6621
18500.000000	59.301	-102.9447
18750.000000	60.864	-113.0634
19000.000000	61.128	-139.8293
19250.000000	59.969	-173.8132
19500.000000	57.394	150.6459
19750.000000	53.386	121.2834
20000.000000	49.221	106.4161
