* Measurement data measured by REW V5.20.13
* Source: Input device not selected, no input selected, R, volume: no control. Timing signal peak level -27.8 dBFS, measurement signal peak level -25.4 dBFS
* Format: 128k Log Swept Sine, 1 sweep at -12.0 dBFS using an acoustic timing reference
* Dated: 2022. 10. 25 ¿ÀÀü 10:23:12
* REW Settings:
*  C-weighting compensation: Off
*  Target level: 75.0 dB
* Note: Delay -0.0486 ms (-17 mm, -0.66 in) using estimated IR delay relative to Acoustic reference played from  R with no timing offset
* Measurement: MX400 R +¼Ø
* Smoothing: 1/24 octave
* Frequency Step: 1/48 octave
* Start Frequency: 20.300 Hz
*
* Freq(Hz)	SPL(dB)	Phase(degrees)
20.299999	62.407	-99.9389
20.600000	62.289	-98.6535
20.900000	62.203	-95.9062
21.200001	62.562	-92.3859
21.400000	63.072	-90.4062
21.799999	64.476	-88.7970
22.000000	65.222	-89.6495
22.400000	66.529	-94.6263
22.700001	67.248	-100.3312
23.000000	67.706	-106.7458
23.299999	67.915	-113.0881
23.600000	67.908	-118.7340
24.000000	67.653	-124.3543
24.299999	67.386	-126.7851
24.700001	67.101	-127.7543
25.000000	67.046	-127.2635
25.400000	67.247	-125.8699
25.799999	67.734	-124.5556
26.200001	68.425	-123.9873
26.500000	69.018	-124.3321
26.900000	69.818	-126.0428
27.200001	70.354	-128.2592
27.600000	70.898	-132.1487
28.000000	71.199	-136.3522
28.500000	71.267	-140.6337
29.000000	71.182	-142.7760
29.500000	71.189	-143.1093
30.000000	71.382	-143.1450
30.400000	71.595	-143.5975
30.700001	71.743	-144.1990
31.100000	71.911	-145.1005
31.500000	72.070	-145.9378
32.000000	72.315	-146.9948
32.500000	72.629	-148.5358
33.000000	72.956	-150.9641
33.500000	73.219	-154.2466
34.000000	73.360	-157.9234
34.500000	73.375	-161.2338
35.000000	73.336	-163.4728
35.500000	73.389	-164.4435
36.000000	73.647	-164.7534
36.500000	74.090	-165.2823
37.000000	74.597	-166.4738
37.500000	75.083	-168.1704
38.200001	75.677	-170.9599
38.700001	75.999	-173.1843
39.500000	76.215	-176.4223
40.000000	76.187	-177.3150
40.599998	76.163	-176.7871
41.200001	76.334	-175.4888
41.799999	76.673	-174.9610
42.500000	77.036	-176.1639
43.099998	77.177	-178.0647
43.700001	77.194	-179.8063
44.400002	77.194	178.6804
45.000000	77.239	177.4916
45.500000	77.294	176.5587
46.200001	77.449	175.7542
46.799999	77.767	175.2744
47.500000	78.284	173.5215
48.200001	78.637	170.3837
48.700001	78.720	168.5201
49.400002	78.817	167.7325
50.000000	79.090	167.7421
50.799999	79.520	166.2378
51.500000	79.627	164.1699
52.200001	79.561	163.4936
53.000000	79.633	164.1620
53.799999	79.888	164.2867
54.500000	80.112	163.7166
55.200001	80.330	162.9506
56.000000	80.593	161.9160
57.000000	80.956	160.4792
58.000000	81.324	158.6514
59.000000	81.565	156.8786
60.000000	81.744	156.1670
60.799999	81.927	156.1432
61.500000	82.130	156.1646
62.200001	82.348	155.8529
63.000000	82.532	155.0260
64.000000	82.651	154.2055
65.000000	82.828	153.7545
66.000000	83.063	152.6678
67.000000	83.242	151.1333
68.000000	83.384	149.8780
69.000000	83.561	149.0253
70.000000	83.784	148.3189
71.000000	84.032	147.6740
72.000000	84.303	146.9615
73.000000	84.554	145.9389
74.000000	84.741	144.8829
75.000000	84.923	144.0507
76.199997	85.165	142.8277
77.500000	85.395	141.4002
78.800003	85.662	139.9358
80.000000	85.859	138.3760
81.199997	86.026	137.3679
82.500000	86.256	136.6409
83.800003	86.505	135.9870
85.000000	86.759	135.3448
86.199997	87.003	134.2692
87.500000	87.170	132.9023
88.500000	87.272	132.1471
90.000000	87.469	131.2044
91.199997	87.657	130.3795
92.500000	87.873	129.3461
93.800003	88.082	128.2136
95.000000	88.266	127.1628
96.199997	88.450	126.1064
97.500000	88.639	124.9021
98.800003	88.818	123.7968
100.000000	88.990	122.8135
101.500000	89.192	121.5776
103.000000	89.378	120.4460
104.400002	89.547	119.4205
106.000000	89.745	118.2075
107.500000	89.943	116.9458
109.000000	90.149	115.5967
110.599998	90.368	114.1214
112.000000	90.538	112.8952
113.800003	90.721	111.5494
115.000000	90.838	110.7411
117.199997	91.050	108.9859
118.000000	91.116	108.2615
120.599998	91.328	106.0450
122.000000	91.454	104.9933
124.099998	91.654	103.5275
125.000000	91.741	102.9039
126.500000	91.886	101.8037
128.000000	92.026	100.6123
131.500000	92.319	97.8311
132.000000	92.356	97.4553
134.000000	92.492	95.9858
136.000000	92.612	94.4905
138.000000	92.732	92.9351
140.000000	92.852	91.4247
143.000000	93.040	89.3584
145.000000	93.145	88.0470
147.500000	93.268	86.3534
150.000000	93.391	84.5714
152.500000	93.522	82.8361
155.000000	93.630	81.1343
157.500000	93.704	79.5778
160.000000	93.778	78.0116
162.500000	93.850	76.3449
165.000000	93.920	74.7672
167.500000	93.999	73.3316
170.000000	94.075	71.9183
172.500000	94.138	70.5164
175.000000	94.190	69.1148
177.500000	94.226	67.7170
180.000000	94.252	66.3654
182.500000	94.276	65.0791
185.000000	94.308	63.8642
187.500000	94.344	62.6652
190.000000	94.373	61.4680
192.500000	94.399	60.2800
195.000000	94.425	59.1189
197.500000	94.447	58.0283
200.000000	94.464	57.0130
203.000000	94.483	55.7996
206.000000	94.495	54.5287
209.000000	94.503	53.2959
212.000000	94.520	52.1450
214.000000	94.525	51.4056
218.000000	94.511	50.0147
220.000000	94.501	49.3174
224.000000	94.488	47.9325
227.000000	94.482	46.9465
230.000000	94.471	45.9576
233.000000	94.460	44.9824
236.000000	94.454	44.0519
240.000000	94.441	42.9183
243.000000	94.431	42.0815
247.000000	94.412	40.9405
250.000000	94.397	40.1042
254.000000	94.369	39.0014
258.000000	94.335	37.9568
262.000000	94.291	36.9942
265.000000	94.253	36.3245
269.000000	94.209	35.5006
272.000000	94.182	34.8952
276.000000	94.148	34.0771
280.000000	94.115	33.3092
285.000000	94.081	32.4036
290.000000	94.057	31.4665
295.000000	94.026	30.5250
300.000000	93.981	29.6035
304.000000	93.943	28.8914
307.000000	93.916	28.3421
311.000000	93.881	27.5454
315.000000	93.849	26.6844
320.000000	93.794	25.4905
325.000000	93.682	24.2004
330.000000	93.492	23.1565
335.000000	93.277	22.7737
340.000000	93.124	22.7766
345.000000	93.027	22.6539
350.000000	92.929	22.3450
355.000000	92.800	22.0176
360.000000	92.631	21.7904
365.000000	92.429	21.8701
370.000000	92.215	22.4752
375.000000	92.033	23.6887
382.000000	91.945	26.0747
387.000000	92.032	27.7535
395.000000	92.320	29.3288
400.000000	92.504	29.5296
406.000000	92.677	29.3469
412.000000	92.805	29.0067
418.000000	92.906	28.6785
425.000000	93.005	28.2621
431.000000	93.076	27.8394
437.000000	93.139	27.3713
444.000000	93.202	26.8107
450.000000	93.249	26.3466
455.000000	93.280	25.9701
462.000000	93.311	25.4449
468.000000	93.333	25.0341
475.000000	93.350	24.5921
482.000000	93.363	24.1880
487.000000	93.375	23.9316
494.000000	93.395	23.5992
500.000000	93.411	23.3252
508.000000	93.428	22.9431
515.000000	93.439	22.6027
522.000000	93.453	22.2646
530.000000	93.474	21.8875
538.000000	93.491	21.5380
545.000000	93.504	21.2365
552.000000	93.514	20.9189
560.000000	93.522	20.5654
570.000000	93.532	20.1712
580.000000	93.542	19.7842
590.000000	93.548	19.4021
600.000000	93.554	19.0498
608.000000	93.563	18.7762
615.000000	93.573	18.5478
622.000000	93.584	18.3201
630.000000	93.596	18.0310
640.000000	93.610	17.6294
650.000000	93.619	17.2255
660.000000	93.621	16.7957
670.000000	93.621	16.3712
680.000000	93.618	15.9411
690.000000	93.610	15.5216
700.000000	93.594	15.1125
710.000000	93.569	14.7200
720.000000	93.539	14.4025
730.000000	93.507	14.1643
740.000000	93.477	13.9907
750.000000	93.455	13.8673
762.000000	93.443	13.7119
775.000000	93.440	13.4719
788.000000	93.433	13.1905
800.000000	93.419	12.8978
812.000000	93.397	12.5895
825.000000	93.366	12.3291
838.000000	93.335	12.1456
850.000000	93.307	11.9839
862.000000	93.276	11.8057
875.000000	93.238	11.6506
885.000000	93.208	11.5952
900.000000	93.174	11.5798
912.000000	93.160	11.6000
925.000000	93.154	11.6036
938.000000	93.150	11.5514
950.000000	93.147	11.4517
962.000000	93.141	11.3047
975.000000	93.126	11.1293
988.000000	93.106	10.9846
1000.000000	93.086	10.8865
1015.000000	93.059	10.7845
1030.000000	93.030	10.6900
1044.000000	93.003	10.6055
1060.000000	92.964	10.4977
1075.000000	92.917	10.4311
1090.000000	92.865	10.4855
1106.000000	92.812	10.6852
1120.000000	92.775	10.9717
1138.000000	92.752	11.4177
1150.000000	92.752	11.6960
1172.000000	92.784	12.1121
1180.000000	92.803	12.2236
1206.000000	92.868	12.4166
1220.000000	92.899	12.3949
1241.000000	92.932	12.2451
1250.000000	92.942	12.1658
1265.000000	92.951	12.0391
1280.000000	92.948	11.9254
1315.000000	92.921	11.8643
1320.000000	92.917	11.8839
1340.000000	92.912	11.9941
1360.000000	92.925	12.1226
1380.000000	92.953	12.1934
1400.000000	92.982	12.1425
1430.000000	93.007	11.9231
1450.000000	93.011	11.7997
1475.000000	93.015	11.7420
1500.000000	93.034	11.7047
1525.000000	93.065	11.5567
1550.000000	93.095	11.2640
1575.000000	93.112	10.8718
1600.000000	93.115	10.3953
1625.000000	93.099	9.8425
1650.000000	93.057	9.2913
1675.000000	92.994	8.8044
1700.000000	92.917	8.3993
1725.000000	92.826	8.0554
1750.000000	92.722	7.8005
1775.000000	92.612	7.6348
1800.000000	92.498	7.5292
1825.000000	92.375	7.4972
1850.000000	92.243	7.5640
1875.000000	92.104	7.7418
1900.000000	91.962	8.0213
1925.000000	91.816	8.4116
1950.000000	91.665	8.9531
1975.000000	91.514	9.6804
2000.000000	91.375	10.5771
2030.000000	91.222	11.8127
2060.000000	91.083	13.2433
2090.000000	90.973	14.9266
2120.000000	90.909	16.7682
2140.000000	90.889	18.0133
2180.000000	90.889	20.5823
2200.000000	90.916	21.9062
2240.000000	91.034	24.4852
2270.000000	91.157	26.2773
2300.000000	91.299	28.0603
2330.000000	91.481	29.8539
2360.000000	91.706	31.5547
2400.000000	92.080	33.6404
2430.000000	92.414	34.8091
2470.000000	92.871	35.7662
2500.000000	93.221	36.1779
2540.000000	93.694	36.2736
2580.000000	94.154	35.8607
2620.000000	94.587	34.9410
2650.000000	94.884	33.9725
2690.000000	95.242	32.4084
2720.000000	95.480	31.0409
2760.000000	95.752	28.9698
2800.000000	95.960	26.6854
2850.000000	96.119	23.7380
2900.000000	96.189	20.9355
2950.000000	96.191	18.3268
3000.000000	96.138	15.9421
3040.000000	96.058	14.2124
3070.000000	95.982	13.0443
3110.000000	95.864	11.6835
3150.000000	95.741	10.5248
3200.000000	95.582	9.2598
3250.000000	95.413	8.1795
3300.000000	95.236	7.3300
3350.000000	95.059	6.7178
3400.000000	94.892	6.3010
3450.000000	94.738	6.0500
3500.000000	94.601	5.9250
3550.000000	94.483	5.8933
3600.000000	94.382	5.9110
3650.000000	94.296	5.9661
3700.000000	94.229	6.0315
3750.000000	94.176	6.0588
3820.000000	94.120	5.9779
3870.000000	94.082	5.8174
3950.000000	94.010	5.3856
4000.000000	93.940	5.0283
4060.000000	93.805	4.7042
4120.000000	93.640	4.9019
4180.000000	93.527	5.6456
4250.000000	93.504	6.5715
4310.000000	93.537	7.1517
4370.000000	93.597	7.5518
4440.000000	93.694	7.8114
4500.000000	93.792	7.8718
4550.000000	93.891	7.8375
4620.000000	94.064	7.5320
4680.000000	94.225	6.8607
4750.000000	94.392	5.6847
4820.000000	94.541	4.2371
4870.000000	94.642	2.9740
4940.000000	94.746	0.8341
5000.000000	94.794	-1.2165
5080.000000	94.800	-4.1942
5150.000000	94.737	-6.9868
5220.000000	94.607	-9.8428
5300.000000	94.370	-13.0233
5380.000000	94.060	-15.9180
5450.000000	93.759	-18.2197
5520.000000	93.436	-20.4102
5600.000000	93.022	-22.8712
5700.000000	92.410	-25.5193
5800.000000	91.751	-27.4887
5900.000000	91.084	-28.9596
6000.000000	90.419	-29.9896
6080.000000	89.902	-30.6498
6150.000000	89.448	-31.2258
6220.000000	88.982	-31.7386
6300.000000	88.435	-32.2053
6400.000000	87.734	-32.7557
6500.000000	86.974	-33.3408
6600.000000	86.111	-33.4304
6700.000000	85.227	-33.1716
6800.000000	84.222	-32.8470
6900.000000	83.002	-31.3438
7000.000000	81.604	-27.4537
7100.000000	80.191	-20.1259
7200.000000	79.119	-9.6707
7300.000000	78.683	1.7526
7400.000000	78.788	11.9553
7500.000000	79.164	20.3632
7620.000000	79.779	28.5052
7750.000000	80.516	35.4913
7880.000000	81.352	41.4585
8000.000000	82.307	45.8654
8120.000000	83.348	48.3383
8250.000000	84.465	48.9640
8380.000000	85.522	47.3236
8500.000000	86.271	43.7471
8620.000000	86.736	39.4425
8750.000000	87.049	34.8977
8850.000000	87.198	31.3991
9000.000000	87.298	26.3112
9120.000000	87.345	22.0634
9250.000000	87.308	16.4856
9380.000000	87.018	9.9569
9500.000000	86.409	4.2540
9620.000000	85.521	0.2864
9750.000000	84.446	-1.5768
9880.000000	83.439	-1.5991
10000.000000	82.606	-0.6239
10150.000000	81.685	1.9470
10300.000000	81.033	5.9578
10440.000000	80.809	9.6609
10600.000000	80.870	11.9777
10750.000000	80.952	12.1481
10900.000000	80.950	11.1982
11060.000000	80.878	9.3665
11200.000000	80.750	6.9620
11380.000000	80.386	3.0442
11500.000000	80.002	0.4812
11720.000000	79.116	-3.9463
11800.000000	78.729	-5.5013
12060.000000	77.157	-9.4750
12200.000000	76.125	-10.2808
12410.000000	74.451	-8.9983
12500.000000	73.715	-7.4047
12650.000000	72.526	-3.0776
12800.000000	71.544	3.0102
13150.000000	70.495	20.1709
13200.000000	70.516	22.6748
13400.000000	71.110	31.8910
13600.000000	72.362	37.4245
13800.000000	73.666	36.9179
14000.000000	74.590	31.7570
14300.000000	75.212	20.2509
14500.000000	75.174	11.4023
14750.000000	74.572	0.4401
15000.000000	73.488	-8.0552
15250.000000	72.260	-13.5640
15500.000000	71.165	-16.7990
15750.000000	70.565	-19.5579
16000.000000	70.287	-26.2125
16250.000000	69.550	-35.3909
16500.000000	68.539	-41.7490
16750.000000	68.269	-48.9897
17000.000000	68.284	-66.6361
17250.000000	67.273	-100.8231
17500.000000	64.586	158.4294
17750.000000	59.921	101.4015
18000.000000	54.281	-38.4076
18250.000000	52.525	91.0691
18500.000000	52.268	-85.9568
18750.000000	50.114	-161.0759
19000.000000	46.875	119.7349
19250.000000	46.180	43.0432
19500.000000	47.108	-13.6011
19750.000000	47.132	-52.7698
20000.000000	46.627	-73.0449
