* Measurement data measured by REW V5.20.13
* Source: Input device not selected, no input selected, R, volume: no control. Timing signal peak level -24.4 dBFS, measurement signal peak level -20.0 dBFS
* Format: 128k Log Swept Sine, 1 sweep at -12.0 dBFS using an acoustic timing reference
* Dated: 2022. 10. 25 ¿ÀÀü 10:18:40
* REW Settings:
*  C-weighting compensation: Off
*  Target level: 75.0 dB
* Note: Delay -0.0487 ms (-17 mm, -0.66 in) using estimated IR delay relative to Acoustic reference played from  L with no timing offset
* Measurement: MX400 L +¼Ø
* Smoothing: 1/24 octave
* Frequency Step: 1/48 octave
* Start Frequency: 20.300 Hz
*
* Freq(Hz)	SPL(dB)	Phase(degrees)
20.299999	65.126	-78.2449
20.600000	65.541	-78.8464
20.900000	66.323	-80.2696
21.200001	66.986	-82.4854
21.400000	67.351	-84.1741
21.799999	67.933	-87.3965
22.000000	68.182	-88.6645
22.400000	68.689	-90.3393
22.700001	69.131	-91.2206
23.000000	69.619	-92.3175
23.299999	70.085	-93.8929
23.600000	70.476	-95.8258
24.000000	70.846	-98.3736
24.299999	71.058	-99.7419
24.700001	71.387	-100.6974
25.000000	71.745	-101.2465
25.400000	72.353	-102.7854
25.799999	72.934	-106.0090
26.200001	73.306	-110.5317
26.500000	73.407	-113.9524
26.900000	73.368	-117.4635
27.200001	73.328	-118.9270
27.600000	73.439	-119.6738
28.000000	73.819	-120.3526
28.500000	74.465	-122.8485
29.000000	74.957	-126.9659
29.500000	75.211	-130.8411
30.000000	75.413	-133.2122
30.400000	75.671	-134.3993
30.700001	75.923	-135.3428
31.100000	76.262	-137.0317
31.500000	76.527	-139.0785
32.000000	76.724	-141.4090
32.500000	76.860	-142.8871
33.000000	77.056	-143.7881
33.500000	77.330	-144.8774
34.000000	77.603	-146.6145
34.500000	77.802	-148.8461
35.000000	77.913	-151.1487
35.500000	77.973	-153.1351
36.000000	78.050	-154.6900
36.500000	78.200	-156.0457
37.000000	78.418	-157.6371
37.500000	78.637	-159.6329
38.200001	78.846	-162.3578
38.700001	78.976	-163.5790
39.500000	79.350	-164.7010
40.000000	79.645	-165.6921
40.599998	79.931	-167.1570
41.200001	80.156	-168.1378
41.799999	80.444	-168.6282
42.500000	80.879	-169.7893
43.099998	81.185	-171.7730
43.700001	81.352	-173.9641
44.400002	81.460	-175.9239
45.000000	81.584	-177.1248
45.500000	81.735	-178.0723
46.200001	82.001	-179.5560
46.799999	82.257	178.9285
47.500000	82.533	176.8615
48.200001	82.726	174.9048
48.700001	82.833	173.9866
49.400002	83.051	173.4592
50.000000	83.349	173.0246
50.799999	83.761	171.3801
51.500000	83.961	169.3462
52.200001	84.033	167.8807
53.000000	84.146	167.1080
53.799999	84.363	166.2774
54.500000	84.559	165.0683
55.200001	84.708	163.7402
56.000000	84.868	162.5931
57.000000	85.179	161.3934
58.000000	85.508	159.3980
59.000000	85.690	157.4417
60.000000	85.864	156.3343
60.799999	86.043	155.5156
61.500000	86.203	154.7530
62.200001	86.376	153.9708
63.000000	86.590	152.8562
64.000000	86.823	151.0955
65.000000	87.003	149.4174
66.000000	87.184	148.0881
67.000000	87.395	146.8781
68.000000	87.601	145.6917
69.000000	87.821	144.6818
70.000000	88.069	143.4445
71.000000	88.273	141.8790
72.000000	88.437	140.3579
73.000000	88.584	138.8822
74.000000	88.715	137.5734
75.000000	88.866	136.4849
76.199997	89.077	135.2377
77.500000	89.325	133.8834
78.800003	89.572	132.4125
80.000000	89.788	130.9331
81.199997	89.970	129.3569
82.500000	90.158	127.8260
83.800003	90.358	126.2187
85.000000	90.523	124.8044
86.199997	90.701	123.5341
87.500000	90.895	122.1466
88.500000	91.037	121.0896
90.000000	91.243	119.5113
91.199997	91.398	118.1673
92.500000	91.543	116.6885
93.800003	91.677	115.3087
95.000000	91.809	114.1394
96.199997	91.956	113.0016
97.500000	92.124	111.6769
98.800003	92.269	110.2357
100.000000	92.377	108.9894
101.500000	92.515	107.5077
103.000000	92.644	105.9811
104.400002	92.767	104.6185
106.000000	92.918	103.0385
107.500000	93.061	101.5791
109.000000	93.204	100.1069
110.599998	93.337	98.4850
112.000000	93.428	97.1216
113.800003	93.551	95.5489
115.000000	93.647	94.4630
117.199997	93.815	92.3844
118.000000	93.872	91.6349
120.599998	94.034	89.2853
122.000000	94.111	88.0812
124.099998	94.214	86.2528
125.000000	94.252	85.4700
126.500000	94.313	84.2015
128.000000	94.379	82.9558
131.500000	94.519	80.0073
132.000000	94.534	79.6026
134.000000	94.597	78.0709
136.000000	94.673	76.5438
138.000000	94.749	74.9905
140.000000	94.813	73.4531
143.000000	94.875	71.2350
145.000000	94.902	69.7745
147.500000	94.930	67.9702
150.000000	94.962	66.2643
152.500000	95.006	64.6108
155.000000	95.043	62.9610
157.500000	95.063	61.3937
160.000000	95.073	59.8491
162.500000	95.064	58.2611
165.000000	95.043	56.7129
167.500000	95.020	55.2390
170.000000	94.994	53.8942
172.500000	94.964	52.6859
175.000000	94.929	51.5719
177.500000	94.888	50.5103
180.000000	94.848	49.4975
182.500000	94.822	48.5626
185.000000	94.809	47.6936
187.500000	94.801	46.8401
190.000000	94.796	45.9394
192.500000	94.788	44.9475
195.000000	94.768	43.8829
197.500000	94.735	42.7827
200.000000	94.692	41.7188
203.000000	94.636	40.5851
206.000000	94.570	39.5634
209.000000	94.490	38.5623
212.000000	94.404	37.6173
214.000000	94.350	37.0943
218.000000	94.269	36.1952
220.000000	94.233	35.7446
224.000000	94.146	34.8919
227.000000	94.066	34.2838
230.000000	93.978	33.6693
233.000000	93.885	33.1489
236.000000	93.791	32.7899
240.000000	93.675	32.5252
243.000000	93.608	32.4658
247.000000	93.529	32.5684
250.000000	93.464	32.7781
254.000000	93.396	33.3423
258.000000	93.445	34.3404
262.000000	93.706	35.0249
265.000000	93.974	34.4341
269.000000	94.190	32.2043
272.000000	94.198	30.3423
276.000000	94.093	28.4351
280.000000	93.943	27.1882
285.000000	93.771	26.1512
290.000000	93.622	25.4078
295.000000	93.480	24.8513
300.000000	93.345	24.4701
304.000000	93.242	24.2546
307.000000	93.161	24.1263
311.000000	93.045	24.0419
315.000000	92.928	24.0732
320.000000	92.795	24.2826
325.000000	92.687	24.7791
330.000000	92.602	25.5510
335.000000	92.560	26.3972
340.000000	92.583	27.2119
345.000000	92.655	27.8811
350.000000	92.753	28.3131
355.000000	92.859	28.4793
360.000000	92.958	28.4085
365.000000	93.039	28.1801
370.000000	93.104	27.8834
375.000000	93.156	27.5391
382.000000	93.210	26.9990
387.000000	93.232	26.6200
395.000000	93.245	26.0918
400.000000	93.250	25.7665
406.000000	93.251	25.4181
412.000000	93.247	25.1312
418.000000	93.236	24.8944
425.000000	93.223	24.6061
431.000000	93.219	24.3627
437.000000	93.212	24.1406
444.000000	93.200	23.9034
450.000000	93.190	23.7284
455.000000	93.186	23.6010
462.000000	93.181	23.4655
468.000000	93.177	23.3675
475.000000	93.170	23.2070
482.000000	93.164	23.0479
487.000000	93.160	22.9543
494.000000	93.154	22.8369
500.000000	93.148	22.7333
508.000000	93.137	22.6136
515.000000	93.129	22.5197
522.000000	93.119	22.4232
530.000000	93.104	22.3335
538.000000	93.085	22.2789
545.000000	93.068	22.2330
552.000000	93.055	22.2120
560.000000	93.047	22.2364
570.000000	93.040	22.2869
580.000000	93.044	22.3285
590.000000	93.053	22.3606
600.000000	93.062	22.3572
608.000000	93.069	22.3483
615.000000	93.075	22.3431
622.000000	93.082	22.3413
630.000000	93.094	22.3168
640.000000	93.107	22.2205
650.000000	93.114	22.0698
660.000000	93.117	21.9073
670.000000	93.111	21.7490
680.000000	93.099	21.6276
690.000000	93.079	21.5137
700.000000	93.046	21.4051
710.000000	93.003	21.3788
720.000000	92.963	21.4853
730.000000	92.935	21.7083
740.000000	92.924	21.9681
750.000000	92.926	22.1893
762.000000	92.935	22.3474
775.000000	92.938	22.3973
788.000000	92.929	22.4108
800.000000	92.907	22.4509
812.000000	92.883	22.6041
825.000000	92.864	22.8292
838.000000	92.850	23.0536
850.000000	92.838	23.2599
862.000000	92.824	23.4630
875.000000	92.810	23.7211
885.000000	92.799	23.9601
900.000000	92.787	24.3641
912.000000	92.788	24.7042
925.000000	92.797	25.0549
938.000000	92.808	25.3437
950.000000	92.820	25.5615
962.000000	92.827	25.7523
975.000000	92.830	25.9562
988.000000	92.824	26.1780
1000.000000	92.812	26.4161
1015.000000	92.794	26.7800
1030.000000	92.777	27.2187
1044.000000	92.767	27.6948
1060.000000	92.770	28.3137
1075.000000	92.783	28.9208
1090.000000	92.807	29.5207
1106.000000	92.844	30.1229
1120.000000	92.882	30.6195
1138.000000	92.936	31.2237
1150.000000	92.976	31.6084
1172.000000	93.050	32.2671
1180.000000	93.078	32.4789
1206.000000	93.169	33.0943
1220.000000	93.215	33.4116
1241.000000	93.281	33.8823
1250.000000	93.309	34.0893
1265.000000	93.356	34.4411
1280.000000	93.405	34.7911
1315.000000	93.528	35.5985
1320.000000	93.547	35.7144
1340.000000	93.622	36.1640
1360.000000	93.700	36.5684
1380.000000	93.779	36.9373
1400.000000	93.854	37.2912
1430.000000	93.966	37.8572
1450.000000	94.046	38.2225
1475.000000	94.145	38.6788
1500.000000	94.248	39.1561
1525.000000	94.362	39.5967
1550.000000	94.480	39.9409
1575.000000	94.595	40.2648
1600.000000	94.717	40.5948
1625.000000	94.847	40.8486
1650.000000	94.973	41.0064
1675.000000	95.092	41.1289
1700.000000	95.212	41.2185
1725.000000	95.335	41.2516
1750.000000	95.452	41.2042
1775.000000	95.562	41.1244
1800.000000	95.666	41.0188
1825.000000	95.762	40.8847
1850.000000	95.851	40.7154
1875.000000	95.930	40.5069
1900.000000	95.997	40.2848
1925.000000	96.054	40.0783
1950.000000	96.101	39.8885
1975.000000	96.137	39.7196
2000.000000	96.163	39.6039
2030.000000	96.182	39.5745
2060.000000	96.196	39.6467
2090.000000	96.206	39.8391
2120.000000	96.221	40.1945
2140.000000	96.241	40.4725
2180.000000	96.286	41.0792
2200.000000	96.311	41.4503
2240.000000	96.387	42.3257
2270.000000	96.464	42.9310
2300.000000	96.531	43.5586
2330.000000	96.599	44.3466
2360.000000	96.684	45.3032
2400.000000	96.851	46.8813
2430.000000	97.051	48.1483
2470.000000	97.398	49.5042
2500.000000	97.693	50.2567
2540.000000	98.125	50.9080
2580.000000	98.593	51.0956
2620.000000	99.077	50.6926
2650.000000	99.426	50.0359
2690.000000	99.873	48.7853
2720.000000	100.191	47.5570
2760.000000	100.583	45.5507
2800.000000	100.920	43.1220
2850.000000	101.234	39.6783
2900.000000	101.429	36.1720
2950.000000	101.534	32.7551
3000.000000	101.562	29.4925
3040.000000	101.536	27.0174
3070.000000	101.489	25.2575
3110.000000	101.392	23.1097
3150.000000	101.275	21.2205
3200.000000	101.114	19.1344
3250.000000	100.939	17.2611
3300.000000	100.743	15.6092
3350.000000	100.529	14.2346
3400.000000	100.308	13.1465
3450.000000	100.084	12.3586
3500.000000	99.875	11.8740
3550.000000	99.688	11.6414
3600.000000	99.539	11.5746
3650.000000	99.421	11.5450
3700.000000	99.329	11.5121
3750.000000	99.251	11.4639
3820.000000	99.173	11.3416
3870.000000	99.118	11.1640
3950.000000	99.038	11.0460
4000.000000	99.012	10.9907
4060.000000	98.991	10.8632
4120.000000	98.985	10.7718
4180.000000	99.012	10.6447
4250.000000	99.082	10.2751
4310.000000	99.151	9.6319
4370.000000	99.198	8.7471
4440.000000	99.217	7.6862
4500.000000	99.232	6.9713
4550.000000	99.287	6.3891
4620.000000	99.411	5.0793
4680.000000	99.498	3.3506
4750.000000	99.517	1.0237
4820.000000	99.486	-1.2743
4870.000000	99.456	-3.0209
4940.000000	99.366	-5.7219
5000.000000	99.230	-8.1110
5080.000000	98.975	-11.1985
5150.000000	98.688	-13.7986
5220.000000	98.342	-16.1185
5300.000000	97.917	-18.3927
5380.000000	97.466	-20.4674
5450.000000	97.042	-22.0568
5520.000000	96.598	-23.3758
5600.000000	96.083	-24.5862
5700.000000	95.442	-25.7856
5800.000000	94.798	-26.7739
5900.000000	94.140	-27.5900
6000.000000	93.464	-28.2964
6080.000000	92.891	-28.8510
6150.000000	92.344	-29.2865
6220.000000	91.736	-29.5350
6300.000000	90.962	-29.2968
6400.000000	89.908	-27.9977
6500.000000	88.737	-25.1317
6600.000000	87.506	-18.7496
6700.000000	86.870	-9.2483
6800.000000	86.852	-2.4484
6900.000000	86.790	2.8948
7000.000000	86.855	8.2569
7100.000000	87.054	12.8139
7200.000000	87.312	16.5457
7300.000000	87.603	19.4961
7400.000000	87.881	21.6768
7500.000000	88.107	23.4982
7620.000000	88.383	25.7284
7750.000000	88.752	27.6757
7880.000000	89.129	29.0868
8000.000000	89.538	30.1362
8120.000000	90.035	30.4795
8250.000000	90.616	29.3148
8380.000000	91.010	26.4698
8500.000000	91.164	24.0636
8620.000000	91.369	22.3619
8750.000000	91.719	19.8947
8850.000000	92.037	17.1117
9000.000000	92.459	10.3669
9120.000000	92.479	3.0036
9250.000000	92.107	-5.1013
9380.000000	91.434	-12.3217
9500.000000	90.617	-18.0594
9620.000000	89.623	-22.6406
9750.000000	88.396	-25.6852
9880.000000	87.173	-26.5553
10000.000000	86.211	-26.2710
10150.000000	85.239	-25.8570
10300.000000	84.391	-25.7476
10440.000000	83.663	-25.6418
10600.000000	83.008	-26.0563
10750.000000	82.505	-28.3718
10900.000000	81.919	-33.2034
11060.000000	80.932	-41.0552
11200.000000	79.573	-49.1376
11380.000000	76.976	-58.8226
11500.000000	74.638	-62.7296
11720.000000	68.604	-48.1759
11800.000000	65.956	-32.5010
12060.000000	61.174	31.2577
12200.000000	62.338	58.0863
12410.000000	65.861	88.8080
12500.000000	67.748	98.7992
12650.000000	70.762	108.7353
12800.000000	73.156	110.2732
13150.000000	76.894	102.4219
13200.000000	77.302	101.0098
13400.000000	78.791	95.1535
13600.000000	80.136	88.2684
13800.000000	81.234	79.3779
14000.000000	81.987	68.9128
14300.000000	82.486	51.5299
14500.000000	82.363	39.1511
14750.000000	81.568	24.3131
15000.000000	80.149	13.2175
15250.000000	78.554	6.9278
15500.000000	77.188	3.6627
15750.000000	76.183	1.8705
16000.000000	75.584	-0.0257
16250.000000	75.274	-3.2648
16500.000000	75.104	-8.0449
16750.000000	75.037	-14.1398
17000.000000	75.199	-22.3124
17250.000000	75.368	-35.3756
17500.000000	74.939	-52.8704
17750.000000	73.755	-70.6584
18000.000000	72.104	-87.3879
18250.000000	70.108	-103.4666
18500.000000	67.822	-119.0910
18750.000000	65.325	-135.3492
19000.000000	62.492	-151.7750
19250.000000	59.274	-167.0402
19500.000000	55.901	177.9344
19750.000000	52.655	163.0035
20000.000000	50.389	153.6002
