* Measurement data measured by REW V5.20.13
* Source: Input device not selected, no input selected, R, volume: no control. Timing signal peak level -22.5 dBFS, measurement signal peak level -16.2 dBFS
* Format: 128k Log Swept Sine, 1 sweep at -12.0 dBFS using an acoustic timing reference
* Dated: 2022. 10. 25 ¿ÀÀü 10:19:15
* REW Settings:
*  C-weighting compensation: Off
*  Target level: 75.0 dB
* Note: Delay -0.0445 ms (-15 mm, -0.6 in) using estimated IR delay relative to Acoustic reference played from  L with no timing offset
* Measurement: MX400 L -¼Ø
* Smoothing: 1/24 octave
* Frequency Step: 1/48 octave
* Start Frequency: 20.300 Hz
*
* Freq(Hz)	SPL(dB)	Phase(degrees)
20.299999	61.355	-35.9791
20.600000	61.184	-46.4086
20.900000	60.676	-64.7325
21.200001	59.788	-81.1799
21.400000	58.955	-90.6005
21.799999	56.751	-105.1000
22.000000	55.439	-109.5956
22.400000	52.649	-111.7009
22.700001	50.858	-108.3352
23.000000	49.780	-103.2791
23.299999	49.247	-97.6110
23.600000	49.164	-90.9129
24.000000	50.030	-80.3571
24.299999	51.525	-73.2622
24.700001	53.996	-69.0088
25.000000	55.620	-70.8361
25.400000	57.181	-77.9909
25.799999	58.085	-86.6430
26.200001	58.505	-93.9816
26.500000	58.650	-97.9779
26.900000	58.788	-101.4774
27.200001	58.923	-103.2625
27.600000	59.159	-105.2114
28.000000	59.428	-107.0083
28.500000	59.821	-109.2141
29.000000	60.280	-112.1649
29.500000	60.615	-116.6411
30.000000	60.577	-121.3836
30.400000	60.309	-123.3421
30.700001	60.132	-123.1162
31.100000	60.226	-121.5205
31.500000	60.731	-120.6856
32.000000	61.438	-123.4117
32.500000	61.642	-129.1630
33.000000	61.222	-133.3015
33.500000	60.603	-132.9026
34.000000	60.436	-129.7439
34.500000	60.754	-127.7501
35.000000	61.122	-127.9301
35.500000	61.416	-128.8467
36.000000	61.783	-130.2476
36.500000	62.160	-133.3117
37.000000	62.276	-137.7590
37.500000	62.071	-141.0364
38.200001	62.054	-140.7644
38.700001	62.776	-140.2264
39.500000	64.083	-146.7883
40.000000	64.321	-153.4810
40.599998	64.020	-158.7523
41.200001	63.643	-158.3759
41.799999	63.848	-154.3888
42.500000	64.937	-150.2259
43.099998	66.115	-149.9660
43.700001	67.045	-153.2683
44.400002	67.476	-159.3840
45.000000	67.294	-163.2115
45.500000	66.980	-163.9316
46.200001	66.726	-162.0506
46.799999	66.850	-159.8680
47.500000	67.250	-158.6586
48.200001	67.607	-159.8273
48.700001	67.621	-161.3546
49.400002	67.328	-160.9865
50.000000	67.422	-157.0575
50.799999	68.624	-153.3246
51.500000	69.614	-157.1718
52.200001	69.809	-164.0189
53.000000	69.400	-168.0490
53.799999	69.233	-168.0108
54.500000	69.404	-168.2080
55.200001	69.619	-168.8816
56.000000	70.041	-169.6607
57.000000	70.644	-174.0192
58.000000	70.417	-179.3775
59.000000	70.053	-177.2571
60.000000	70.913	-173.9439
60.799999	71.720	-175.9595
61.500000	72.077	-179.3282
62.200001	72.185	178.2354
63.000000	72.278	177.3502
64.000000	72.553	177.5150
65.000000	72.936	177.7276
66.000000	73.282	176.9427
67.000000	73.315	175.9550
68.000000	73.291	176.7819
69.000000	73.503	177.3686
70.000000	73.770	176.3895
71.000000	73.966	174.1349
72.000000	74.002	171.9287
73.000000	74.085	171.2068
74.000000	74.388	171.1393
75.000000	74.827	170.9271
76.199997	75.384	170.0275
77.500000	75.791	168.1912
78.800003	75.929	167.0639
80.000000	76.107	166.9527
81.199997	76.362	166.4099
82.500000	76.709	165.3127
83.800003	77.008	163.3080
85.000000	77.154	161.7012
86.199997	77.274	161.0513
87.500000	77.527	160.7414
88.500000	77.750	159.9902
90.000000	78.045	158.5018
91.199997	78.294	157.3311
92.500000	78.591	155.9833
93.800003	78.852	154.8014
95.000000	79.111	154.2022
96.199997	79.420	153.5594
97.500000	79.724	152.2590
98.800003	79.919	150.7422
100.000000	80.081	149.6928
101.500000	80.345	148.4070
103.000000	80.589	146.9785
104.400002	80.815	146.2090
106.000000	81.155	145.3003
107.500000	81.418	143.8400
109.000000	81.587	142.2711
110.599998	81.732	140.8324
112.000000	81.894	139.7579
113.800003	82.190	138.1154
115.000000	82.380	136.7493
117.199997	82.701	134.5455
118.000000	82.830	133.8481
120.599998	83.252	131.3898
122.000000	83.429	130.0370
124.099998	83.658	128.3430
125.000000	83.760	127.6454
126.500000	83.925	126.3972
128.000000	84.093	125.0997
131.500000	84.495	121.5644
132.000000	84.542	121.0696
134.000000	84.732	119.3273
136.000000	84.928	117.6630
138.000000	85.098	115.9035
140.000000	85.240	114.1656
143.000000	85.469	111.6099
145.000000	85.619	109.8623
147.500000	85.808	107.7346
150.000000	85.974	105.4883
152.500000	86.096	103.3005
155.000000	86.198	101.2398
157.500000	86.316	99.2216
160.000000	86.446	97.0609
162.500000	86.565	94.8481
165.000000	86.672	92.6712
167.500000	86.763	90.5909
170.000000	86.841	88.5164
172.500000	86.900	86.2826
175.000000	86.944	84.0060
177.500000	86.977	81.8871
180.000000	86.987	79.9470
182.500000	86.970	77.9118
185.000000	86.918	75.6018
187.500000	86.816	73.3537
190.000000	86.664	71.4689
192.500000	86.458	70.1136
195.000000	86.251	69.3651
197.500000	86.091	68.9460
200.000000	85.976	68.6873
203.000000	85.907	68.3846
206.000000	85.886	67.9864
209.000000	85.877	67.5736
212.000000	85.875	67.0308
214.000000	85.881	66.5701
218.000000	85.906	65.6458
220.000000	85.913	65.2070
224.000000	85.907	64.2450
227.000000	85.893	63.4305
230.000000	85.880	62.6744
233.000000	85.861	61.9799
236.000000	85.824	61.4413
240.000000	85.750	60.9373
243.000000	85.677	60.5587
247.000000	85.569	60.2672
250.000000	85.497	60.4008
254.000000	85.415	61.2094
258.000000	85.476	63.0473
262.000000	85.927	64.7313
265.000000	86.454	64.1559
269.000000	86.959	60.4894
272.000000	87.031	57.1474
276.000000	86.867	53.8032
280.000000	86.627	51.7852
285.000000	86.354	50.3560
290.000000	86.133	49.4682
295.000000	85.947	48.8964
300.000000	85.789	48.5392
304.000000	85.685	48.3058
307.000000	85.613	48.1977
311.000000	85.513	48.1654
315.000000	85.415	48.1957
320.000000	85.315	48.4040
325.000000	85.246	49.0132
330.000000	85.208	49.8932
335.000000	85.227	50.6939
340.000000	85.324	51.3463
345.000000	85.447	51.7284
350.000000	85.573	51.8471
355.000000	85.692	51.7229
360.000000	85.785	51.3271
365.000000	85.854	50.8422
370.000000	85.916	50.3427
375.000000	85.975	49.8400
382.000000	86.021	49.1368
387.000000	86.034	48.7036
395.000000	86.050	48.0996
400.000000	86.060	47.7920
406.000000	86.068	47.5245
412.000000	86.075	47.1995
418.000000	86.084	46.8208
425.000000	86.090	46.4934
431.000000	86.087	46.2482
437.000000	86.080	45.9974
444.000000	86.067	45.7558
450.000000	86.060	45.6328
455.000000	86.064	45.5691
462.000000	86.077	45.4376
468.000000	86.084	45.2720
475.000000	86.090	45.1263
482.000000	86.090	45.0807
487.000000	86.089	45.0216
494.000000	86.093	44.9189
500.000000	86.102	44.8514
508.000000	86.109	44.7231
515.000000	86.113	44.6723
522.000000	86.121	44.6559
530.000000	86.124	44.5931
538.000000	86.130	44.5301
545.000000	86.135	44.5302
552.000000	86.135	44.5898
560.000000	86.137	44.6685
570.000000	86.153	44.8257
580.000000	86.176	44.9908
590.000000	86.204	45.0733
600.000000	86.240	45.1101
608.000000	86.264	45.1570
615.000000	86.275	45.1898
622.000000	86.277	45.2169
630.000000	86.285	45.2538
640.000000	86.318	45.3133
650.000000	86.358	45.4171
660.000000	86.385	45.5436
670.000000	86.411	45.6168
680.000000	86.441	45.6505
690.000000	86.465	45.6549
700.000000	86.478	45.6131
710.000000	86.486	45.6256
720.000000	86.489	45.7271
730.000000	86.490	45.8600
740.000000	86.502	46.0390
750.000000	86.520	46.2720
762.000000	86.543	46.5232
775.000000	86.570	46.7037
788.000000	86.592	46.8885
800.000000	86.611	47.0820
812.000000	86.633	47.2453
825.000000	86.657	47.4274
838.000000	86.680	47.6796
850.000000	86.704	47.8988
862.000000	86.729	48.1049
875.000000	86.750	48.3517
885.000000	86.756	48.5466
900.000000	86.763	48.8481
912.000000	86.776	49.1219
925.000000	86.793	49.4086
938.000000	86.817	49.6881
950.000000	86.842	49.9363
962.000000	86.862	50.1583
975.000000	86.881	50.4030
988.000000	86.897	50.6696
1000.000000	86.904	50.9446
1015.000000	86.904	51.2829
1030.000000	86.894	51.7140
1044.000000	86.894	52.2107
1060.000000	86.898	52.7775
1075.000000	86.901	53.3925
1090.000000	86.923	54.0764
1106.000000	86.967	54.6997
1120.000000	86.998	55.2003
1138.000000	87.025	55.9053
1150.000000	87.051	56.4003
1172.000000	87.120	57.2496
1180.000000	87.148	57.5464
1206.000000	87.228	58.5413
1220.000000	87.266	59.0824
1241.000000	87.314	59.9165
1250.000000	87.335	60.2750
1265.000000	87.375	60.8781
1280.000000	87.421	61.4887
1315.000000	87.542	62.8550
1320.000000	87.559	63.0537
1340.000000	87.625	63.8663
1360.000000	87.699	64.6125
1380.000000	87.777	65.3867
1400.000000	87.840	66.1810
1430.000000	87.939	67.5093
1450.000000	88.012	68.3909
1475.000000	88.105	69.5087
1500.000000	88.219	70.7569
1525.000000	88.355	71.9779
1550.000000	88.493	73.0568
1575.000000	88.622	74.1296
1600.000000	88.762	75.2603
1625.000000	88.920	76.3463
1650.000000	89.083	77.3073
1675.000000	89.232	78.2653
1700.000000	89.382	79.3202
1725.000000	89.549	80.3934
1750.000000	89.721	81.3899
1775.000000	89.891	82.3372
1800.000000	90.057	83.2952
1825.000000	90.229	84.3146
1850.000000	90.421	85.3196
1875.000000	90.619	86.2392
1900.000000	90.807	87.1421
1925.000000	90.995	88.1081
1950.000000	91.199	89.0776
1975.000000	91.412	89.9640
2000.000000	91.615	90.7929
2030.000000	91.848	91.9072
2060.000000	92.104	93.1051
2090.000000	92.375	94.3205
2120.000000	92.668	95.6135
2140.000000	92.879	96.4653
2180.000000	93.328	98.0616
2200.000000	93.561	98.8070
2240.000000	94.057	100.2817
2270.000000	94.453	101.3015
2300.000000	94.871	102.3155
2330.000000	95.334	103.2603
2360.000000	95.832	103.8791
2400.000000	96.460	104.2831
2430.000000	96.949	104.7500
2470.000000	97.694	105.1244
2500.000000	98.285	104.9219
2540.000000	99.071	104.0999
2580.000000	99.859	102.7068
2620.000000	100.618	100.6927
2650.000000	101.166	98.9362
2690.000000	101.888	96.2287
2720.000000	102.419	93.8659
2760.000000	103.103	90.1487
2800.000000	103.719	85.7468
2850.000000	104.359	79.5566
2900.000000	104.858	72.7907
2950.000000	105.182	65.5178
3000.000000	105.304	58.0765
3040.000000	105.250	52.2703
3070.000000	105.125	48.1802
3110.000000	104.871	43.2725
3150.000000	104.556	39.0064
3200.000000	104.111	34.5009
3250.000000	103.639	30.8025
3300.000000	103.163	27.7621
3350.000000	102.683	25.2965
3400.000000	102.206	23.3926
3450.000000	101.745	22.0586
3500.000000	101.324	21.1721
3550.000000	100.942	20.6091
3600.000000	100.602	20.3029
3650.000000	100.299	20.2178
3700.000000	100.044	20.2848
3750.000000	99.830	20.3847
3820.000000	99.584	20.4305
3870.000000	99.411	20.4183
3950.000000	99.162	20.7019
4000.000000	99.046	20.9413
4060.000000	98.931	21.1475
4120.000000	98.837	21.3404
4180.000000	98.757	21.4606
4250.000000	98.677	21.6705
4310.000000	98.638	21.8093
4370.000000	98.609	21.8235
4440.000000	98.566	21.7896
4500.000000	98.518	21.9788
4550.000000	98.520	22.3895
4620.000000	98.626	22.8879
4680.000000	98.784	22.7910
4750.000000	98.940	22.0703
4820.000000	99.076	21.4039
4870.000000	99.226	20.8409
4940.000000	99.473	19.3502
5000.000000	99.658	17.3809
5080.000000	99.814	14.0949
5150.000000	99.847	10.7953
5220.000000	99.779	7.4828
5300.000000	99.641	3.7773
5380.000000	99.396	-0.1714
5450.000000	99.075	-3.2562
5520.000000	98.731	-5.9282
5600.000000	98.327	-9.0723
5700.000000	97.657	-12.9371
5800.000000	96.864	-15.5890
5900.000000	96.060	-17.7340
6000.000000	95.174	-19.2320
6080.000000	94.432	-19.7451
6150.000000	93.785	-19.8203
6220.000000	93.128	-19.6820
6300.000000	92.327	-19.0728
6400.000000	91.245	-17.2025
6500.000000	90.082	-13.1542
6600.000000	89.071	-5.6492
6700.000000	88.812	3.4633
6800.000000	89.012	8.9760
6900.000000	89.071	13.0856
7000.000000	89.220	17.2906
7100.000000	89.488	20.7100
7200.000000	89.789	23.2487
7300.000000	90.098	25.0368
7400.000000	90.374	26.2069
7500.000000	90.624	27.2041
7620.000000	90.981	28.1041
7750.000000	91.384	27.8807
7880.000000	91.682	26.7452
8000.000000	91.892	25.3624
8120.000000	92.027	23.4425
8250.000000	91.988	21.3105
8380.000000	91.863	20.3683
8500.000000	91.878	20.2446
8620.000000	92.004	19.7279
8750.000000	92.211	19.0850
8850.000000	92.548	18.4949
9000.000000	93.361	14.7965
9120.000000	93.885	7.8751
9250.000000	93.962	-2.4944
9380.000000	93.393	-13.1334
9500.000000	92.399	-21.0071
9620.000000	91.143	-26.2894
9750.000000	89.681	-29.2135
9880.000000	88.277	-29.8365
10000.000000	87.122	-29.0788
10150.000000	85.866	-27.0556
10300.000000	84.786	-23.7681
10440.000000	84.046	-19.5979
10600.000000	83.665	-14.6650
10750.000000	83.803	-11.2650
10900.000000	84.293	-10.7852
11060.000000	84.939	-14.4536
11200.000000	85.387	-21.8866
11380.000000	85.382	-37.1384
11500.000000	84.803	-49.6930
11720.000000	82.116	-69.2426
11800.000000	80.704	-72.9882
12060.000000	76.138	-77.1805
12200.000000	74.128	-78.9841
12410.000000	71.610	-83.5137
12500.000000	70.853	-87.7823
12650.000000	69.953	-99.2684
12800.000000	69.653	-113.0473
13150.000000	73.178	-150.1450
13200.000000	73.924	-155.3225
13400.000000	77.393	-172.2716
13600.000000	81.258	172.2924
13800.000000	84.450	150.9095
14000.000000	86.468	124.4464
14300.000000	87.651	85.7715
14500.000000	87.681	62.7010
14750.000000	86.921	35.8719
15000.000000	85.146	14.3401
15250.000000	82.824	0.9768
15500.000000	80.676	-6.2087
15750.000000	79.124	-11.0497
16000.000000	78.025	-17.1146
16250.000000	76.867	-23.4719
16500.000000	75.739	-28.6033
16750.000000	74.768	-33.6000
17000.000000	73.907	-37.6763
17250.000000	73.509	-42.0813
17500.000000	73.491	-49.8035
17750.000000	73.641	-61.8797
18000.000000	73.640	-80.8146
18250.000000	72.805	-105.8661
18500.000000	70.807	-131.4978
18750.000000	67.803	-153.0955
19000.000000	64.039	-167.7329
19250.000000	59.996	-175.8889
19500.000000	56.730	175.1516
19750.000000	54.593	162.2539
20000.000000	53.444	152.8848
