* Measurement data measured by REW V5.20.5
* Source: Mic in at rear panel (Pink)(Realtek(R) Audio), MICROPHONE (마스), L, volume: 1.000
* Format: 128k Log Swept Sine, 1 sweep at -12.0 dBFS with no timing reference
* Dated: 2022. 4. 11 오후 6:55:35
* REW Settings:
*  C-weighting compensation: Off
*  Target level: 75.0 dB
* Note: 
* Measurement: h_r
* Smoothing: 1/24 octave
* Frequency Step: 1/48 octave
* Start Frequency: 20.300 Hz
*
* Freq(Hz)	SPL(dB)	Phase(degrees)
20.299999	77.832	-156.0015
20.600000	77.828	-156.1858
20.900000	77.826	-156.5426
21.200001	77.841	-156.9685
21.400000	77.854	-157.3122
21.799999	77.872	-158.1295
22.000000	77.873	-158.5785
22.400000	77.864	-159.4738
22.700001	77.862	-160.1213
23.000000	77.873	-160.7796
23.299999	77.890	-161.4971
23.600000	77.904	-162.2898
24.000000	77.905	-163.4223
24.299999	77.890	-164.2381
24.700001	77.854	-165.1505
25.000000	77.830	-165.6617
25.400000	77.823	-166.1673
25.799999	77.858	-166.6462
26.200001	77.921	-167.2722
26.500000	77.967	-167.8708
26.900000	78.008	-168.7874
27.200001	78.019	-169.4915
27.600000	78.012	-170.3742
28.000000	77.990	-171.1732
28.500000	77.952	-172.1150
29.000000	77.900	-173.0414
29.500000	77.834	-173.8862
30.000000	77.765	-174.5708
30.400000	77.723	-175.0441
30.700001	77.707	-175.4123
31.100000	77.699	-175.9771
31.500000	77.692	-176.6179
32.000000	77.675	-177.4205
32.500000	77.665	-178.1320
33.000000	77.677	-178.8146
33.500000	77.698	-179.5890
34.000000	77.706	179.5664
34.500000	77.696	178.8113
35.000000	77.690	178.2147
35.500000	77.700	177.6651
36.000000	77.711	177.0550
36.500000	77.704	176.4552
37.000000	77.689	175.9869
37.500000	77.692	175.5663
38.200001	77.714	174.6098
38.700001	77.686	173.6655
39.500000	77.530	172.6415
40.000000	77.445	172.4742
40.599998	77.407	172.2312
41.200001	77.370	171.5535
41.799999	77.274	170.8083
42.500000	77.154	170.4179
43.099998	77.128	170.2209
43.700001	77.144	169.6972
44.400002	77.137	168.7773
45.000000	77.103	168.0458
45.500000	77.074	167.4997
46.200001	77.032	166.7216
46.799999	76.989	166.0833
47.500000	76.949	165.4338
48.200001	76.932	164.7006
48.700001	76.910	164.0551
49.400002	76.829	163.1620
50.000000	76.719	162.6599
50.799999	76.580	162.4966
51.500000	76.515	162.6041
52.200001	76.510	162.5893
53.000000	76.536	162.1253
53.799999	76.522	161.2866
54.500000	76.460	160.5863
55.200001	76.386	160.0698
56.000000	76.319	159.5367
57.000000	76.238	158.7646
58.000000	76.144	158.0282
59.000000	76.058	157.4101
60.000000	76.016	156.8364
60.799999	76.013	156.0753
61.500000	75.979	155.0722
62.200001	75.868	153.9503
63.000000	75.622	153.0567
64.000000	75.248	153.5327
65.000000	75.122	155.2326
66.000000	75.253	155.7587
67.000000	75.330	154.7516
68.000000	75.270	153.5117
69.000000	75.155	152.6347
70.000000	75.051	151.9371
71.000000	74.948	151.2772
72.000000	74.851	150.8250
73.000000	74.781	150.4432
74.000000	74.710	149.9913
75.000000	74.623	149.6941
76.199997	74.555	149.4304
77.500000	74.472	148.7852
78.800003	74.382	148.2446
80.000000	74.338	147.6945
81.199997	74.319	147.0324
82.500000	74.218	146.1212
83.800003	74.010	146.1941
85.000000	73.872	146.6394
86.199997	73.742	146.5302
87.500000	73.570	145.8082
88.500000	73.455	145.1519
90.000000	73.371	144.3037
91.199997	73.329	144.1729
92.500000	73.269	144.6353
93.800003	73.101	145.1068
95.000000	72.832	145.1751
96.199997	72.536	144.4715
97.500000	72.322	142.9921
98.800003	72.308	141.3533
100.000000	72.373	140.8558
101.500000	72.421	142.5346
103.000000	72.253	145.2375
104.400002	71.781	146.4420
106.000000	71.047	144.6918
107.500000	70.522	141.8224
109.000000	70.620	143.2466
110.599998	71.183	148.9953
112.000000	71.031	156.3818
113.800003	70.285	167.0649
115.000000	71.132	165.6407
117.199997	77.337	132.9886
118.000000	79.500	113.0139
120.599998	81.198	-25.2210
122.000000	78.752	-128.5099
124.099998	74.825	157.3824
125.000000	74.044	152.3364
126.500000	72.977	152.1263
128.000000	71.776	150.0527
131.500000	71.175	141.1645
132.000000	71.286	140.7518
134.000000	71.233	142.6163
136.000000	70.841	146.6721
138.000000	70.558	145.7916
140.000000	70.362	143.8092
143.000000	70.407	145.8259
145.000000	70.260	146.9307
147.500000	69.934	146.3339
150.000000	69.811	145.4201
152.500000	69.723	146.7533
155.000000	69.643	148.4902
157.500000	69.447	148.1396
160.000000	69.064	147.8196
162.500000	68.816	147.8363
165.000000	68.768	148.0210
167.500000	68.890	148.1487
170.000000	68.941	148.1928
172.500000	68.866	148.3161
175.000000	68.832	148.9175
177.500000	68.820	149.2091
180.000000	68.645	149.5646
182.500000	68.423	150.3851
185.000000	68.304	150.9147
187.500000	68.223	150.9293
190.000000	68.139	150.7616
192.500000	68.052	150.7359
195.000000	67.999	151.0927
197.500000	67.927	151.5359
200.000000	67.788	151.9600
203.000000	67.617	152.4973
206.000000	67.523	153.0300
209.000000	67.422	153.4335
212.000000	67.338	153.6978
214.000000	67.308	153.8607
218.000000	67.259	154.7152
220.000000	67.212	155.1548
224.000000	67.072	155.6468
227.000000	66.985	156.0220
230.000000	66.923	156.5032
233.000000	66.882	157.1069
236.000000	66.853	157.8503
240.000000	66.738	158.9172
243.000000	66.577	159.5591
247.000000	66.399	160.3103
250.000000	66.406	161.0986
254.000000	66.483	161.6937
258.000000	66.471	162.2728
262.000000	66.402	162.8478
265.000000	66.304	162.9797
269.000000	66.158	163.1602
272.000000	66.094	163.5664
276.000000	66.047	164.2732
280.000000	66.012	164.9337
285.000000	65.974	165.5231
290.000000	65.913	166.2864
295.000000	65.870	166.9324
300.000000	65.791	167.3023
304.000000	65.784	167.7219
307.000000	65.763	168.2551
311.000000	65.702	169.0912
315.000000	65.686	169.8611
320.000000	65.655	170.7109
325.000000	65.600	171.6093
330.000000	65.555	172.4660
335.000000	65.541	172.9457
340.000000	65.564	173.6750
345.000000	65.522	174.2515
350.000000	65.461	174.4574
355.000000	65.398	174.9939
360.000000	65.372	175.7168
365.000000	65.326	176.3970
370.000000	65.290	176.8430
375.000000	65.314	177.1553
382.000000	65.296	178.2393
387.000000	65.237	179.1641
395.000000	65.141	-179.9495
400.000000	65.138	-179.4834
406.000000	65.159	-178.8122
412.000000	65.134	-178.3122
418.000000	65.101	-178.0234
425.000000	65.042	-177.1388
431.000000	65.052	-176.3754
437.000000	65.030	-175.8691
444.000000	65.006	-175.3868
450.000000	65.033	-175.0176
455.000000	65.017	-174.4788
462.000000	64.929	-173.4920
468.000000	64.884	-172.8602
475.000000	64.856	-172.1378
482.000000	64.882	-171.0961
487.000000	64.899	-170.5624
494.000000	64.876	-170.3127
500.000000	64.855	-170.0258
508.000000	64.838	-169.2786
515.000000	64.816	-168.4399
522.000000	64.819	-167.4565
530.000000	64.838	-166.6434
538.000000	64.872	-165.9714
545.000000	64.869	-165.5157
552.000000	64.827	-165.2883
560.000000	64.762	-164.7039
570.000000	64.717	-163.7035
580.000000	64.738	-163.0552
590.000000	64.729	-161.8779
600.000000	64.719	-160.2471
608.000000	64.709	-159.5830
615.000000	64.686	-159.1016
622.000000	64.674	-158.3815
630.000000	64.685	-157.6323
640.000000	64.699	-156.9338
650.000000	64.691	-156.1666
660.000000	64.662	-155.4313
670.000000	64.673	-154.4952
680.000000	64.690	-153.6098
690.000000	64.712	-152.8577
700.000000	64.692	-152.2452
710.000000	64.685	-151.5029
720.000000	64.741	-150.5848
730.000000	64.770	-149.7366
740.000000	64.731	-149.0310
750.000000	64.687	-148.3834
762.000000	64.686	-147.3523
775.000000	64.747	-146.2559
788.000000	64.795	-145.0930
800.000000	64.808	-144.1990
812.000000	64.838	-142.9726
825.000000	64.877	-141.5901
838.000000	64.917	-140.4810
850.000000	64.915	-139.3342
862.000000	64.882	-138.2838
875.000000	64.862	-137.1890
885.000000	64.889	-136.3178
900.000000	64.975	-135.0330
912.000000	65.042	-134.3037
925.000000	65.130	-133.0903
938.000000	65.242	-131.6646
950.000000	65.329	-130.7853
962.000000	65.380	-130.1602
975.000000	65.434	-129.1721
988.000000	65.456	-127.6889
1000.000000	65.475	-126.3969
1015.000000	65.650	-125.6810
1030.000000	65.837	-125.0426
1044.000000	65.962	-124.2439
1060.000000	66.058	-123.2575
1075.000000	66.151	-122.5666
1090.000000	66.277	-122.0013
1106.000000	66.399	-121.0896
1120.000000	66.511	-120.2589
1138.000000	66.645	-119.5692
1150.000000	66.740	-119.1511
1172.000000	66.932	-118.2416
1180.000000	66.992	-117.9749
1206.000000	67.129	-117.0536
1220.000000	67.203	-116.3761
1241.000000	67.311	-115.5870
1250.000000	67.354	-115.2500
1265.000000	67.444	-114.7170
1280.000000	67.580	-114.2775
1315.000000	67.911	-112.8788
1320.000000	67.958	-112.6537
1340.000000	68.171	-112.1411
1360.000000	68.356	-111.7242
1380.000000	68.506	-110.9495
1400.000000	68.647	-110.2600
1430.000000	68.846	-109.4383
1450.000000	68.975	-108.9250
1475.000000	69.135	-108.2425
1500.000000	69.303	-107.5840
1525.000000	69.462	-106.8862
1550.000000	69.603	-106.0039
1575.000000	69.789	-105.2338
1600.000000	69.967	-104.5988
1625.000000	70.145	-104.1329
1650.000000	70.326	-103.6013
1675.000000	70.510	-103.0091
1700.000000	70.698	-102.3334
1725.000000	70.897	-101.6838
1750.000000	71.101	-101.2384
1775.000000	71.313	-100.7524
1800.000000	71.519	-100.2948
1825.000000	71.731	-100.0166
1850.000000	71.956	-99.7409
1875.000000	72.180	-99.4348
1900.000000	72.391	-99.2940
1925.000000	72.607	-99.2001
1950.000000	72.832	-99.0546
1975.000000	73.062	-99.0878
2000.000000	73.287	-99.2581
2030.000000	73.552	-99.4433
2060.000000	73.814	-99.7869
2090.000000	74.052	-100.2671
2120.000000	74.278	-100.7473
2140.000000	74.433	-101.1690
2180.000000	74.726	-102.2004
2200.000000	74.861	-102.7305
2240.000000	75.118	-103.9871
2270.000000	75.277	-105.0259
2300.000000	75.405	-106.0175
2330.000000	75.537	-107.0691
2360.000000	75.655	-108.1178
2400.000000	75.751	-109.4975
2430.000000	75.812	-110.5339
2470.000000	75.869	-111.7699
2500.000000	75.879	-112.6035
2540.000000	75.894	-113.6622
2580.000000	75.894	-114.5087
2620.000000	75.883	-115.1995
2650.000000	75.887	-115.7111
2690.000000	75.880	-116.2747
2720.000000	75.862	-116.6058
2760.000000	75.862	-117.0386
2800.000000	75.874	-117.4375
2850.000000	75.861	-117.8998
2900.000000	75.886	-118.1927
2950.000000	75.904	-118.3925
3000.000000	75.934	-118.6587
3040.000000	75.965	-118.9731
3070.000000	75.979	-119.2212
3110.000000	76.002	-119.5674
3150.000000	76.045	-119.9689
3200.000000	76.061	-120.5399
3250.000000	76.055	-121.1489
3300.000000	76.057	-121.7426
3350.000000	76.009	-122.3751
3400.000000	75.955	-122.8649
3450.000000	75.916	-123.1753
3500.000000	75.862	-123.3936
3550.000000	75.812	-123.4559
3600.000000	75.770	-123.4012
3650.000000	75.743	-123.2546
3700.000000	75.745	-123.0003
3750.000000	75.750	-122.8309
3820.000000	75.771	-122.6473
3870.000000	75.822	-122.4195
3950.000000	75.916	-122.2153
4000.000000	75.994	-122.0990
4060.000000	76.120	-121.9962
4120.000000	76.251	-122.1691
4180.000000	76.405	-122.4172
4250.000000	76.596	-123.0168
4310.000000	76.754	-123.8776
4370.000000	76.939	-124.9146
4440.000000	77.164	-126.7181
4500.000000	77.338	-128.8732
4550.000000	77.466	-130.9109
4620.000000	77.576	-134.2412
4680.000000	77.587	-137.4263
4750.000000	77.496	-141.0004
4820.000000	77.261	-144.4962
4870.000000	77.025	-146.8677
4940.000000	76.638	-149.6271
5000.000000	76.255	-151.4768
5080.000000	75.690	-153.2543
5150.000000	75.190	-154.0370
5220.000000	74.702	-154.1857
5300.000000	74.171	-153.7915
5380.000000	73.701	-152.7916
5450.000000	73.348	-151.7139
5520.000000	73.057	-150.4782
5600.000000	72.799	-148.7659
5700.000000	72.569	-146.7288
5800.000000	72.421	-144.9561
5900.000000	72.349	-143.1335
6000.000000	72.315	-141.6678
6080.000000	72.320	-140.5682
6150.000000	72.352	-139.6885
6220.000000	72.400	-138.8556
6300.000000	72.468	-137.7581
6400.000000	72.571	-136.3749
6500.000000	72.697	-135.1965
6600.000000	72.865	-133.8751
6700.000000	73.089	-132.5916
6800.000000	73.372	-131.5241
6900.000000	73.707	-130.3723
7000.000000	74.110	-129.3436
7100.000000	74.584	-128.6373
7200.000000	75.134	-128.0562
7300.000000	75.787	-127.9282
7400.000000	76.554	-128.4053
7500.000000	77.423	-129.4813
7620.000000	78.599	-132.3873
7750.000000	79.903	-138.6216
7880.000000	80.946	-148.9641
8000.000000	81.388	-162.2323
8120.000000	81.119	-176.8982
8250.000000	80.047	168.9554
8380.000000	78.453	158.7340
8500.000000	76.816	153.0623
8620.000000	75.216	150.0447
8750.000000	73.629	148.8047
8850.000000	72.522	148.8875
9000.000000	71.069	150.0654
9120.000000	70.081	151.5964
9250.000000	69.133	153.7097
9380.000000	68.292	156.1272
9500.000000	67.616	158.5305
9620.000000	67.022	161.0873
9750.000000	66.487	163.9107
9880.000000	66.047	166.7279
10000.000000	65.679	169.4536
10150.000000	65.304	172.8805
10300.000000	65.062	176.0482
10440.000000	64.923	178.8912
10600.000000	64.843	-178.0131
10750.000000	64.895	-175.5550
10900.000000	65.054	-173.3314
11060.000000	65.351	-171.2524
11200.000000	65.736	-170.1243
11380.000000	66.349	-169.9278
11500.000000	66.816	-170.8664
11720.000000	67.686	-175.5078
11800.000000	67.930	-178.1507
12060.000000	68.159	170.6052
12200.000000	67.867	164.4135
12410.000000	66.971	157.7020
12500.000000	66.497	155.9043
12650.000000	65.702	154.2928
12800.000000	64.979	154.2476
13150.000000	63.788	157.3536
13200.000000	63.661	157.9621
13400.000000	63.204	160.6116
13600.000000	62.848	163.8976
13800.000000	62.662	167.2507
14000.000000	62.721	170.9044
14300.000000	63.399	175.8832
14500.000000	64.224	177.9059
14750.000000	65.592	178.1169
15000.000000	67.173	173.8873
15250.000000	68.610	164.4147
15500.000000	69.465	149.5546
15750.000000	69.480	132.3735
16000.000000	68.869	117.0389
16250.000000	68.155	104.7230
16500.000000	67.629	93.9044
16750.000000	67.308	81.9481
17000.000000	67.035	66.9279
17250.000000	66.395	48.3072
17500.000000	64.989	28.0205
17750.000000	62.636	10.4487
18000.000000	59.422	-0.6634
18250.000000	55.717	-11.9712
18500.000000	52.252	-96.0248
18750.000000	49.780	115.1766
19000.000000	48.367	7.9312
19250.000000	47.490	16.1909
19500.000000	46.886	49.2920
19750.000000	46.703	-116.7979
20000.000000	46.768	13.5625
