* Measurement data measured by REW V5.20.5
* Source: Mic in at rear panel (Pink)(Realtek(R) Audio), MICROPHONE (마스), L, volume: 1.000
* Format: 128k Log Swept Sine, 1 sweep at -12.0 dBFS with no timing reference
* Dated: 2022. 4. 11 오후 6:43:34
* REW Settings:
*  C-weighting compensation: Off
*  Target level: 75.0 dB
* Note: 
* Measurement: mh_l
* Smoothing: 1/24 octave
* Frequency Step: 1/48 octave
* Start Frequency: 20.300 Hz
*
* Freq(Hz)	SPL(dB)	Phase(degrees)
20.299999	76.546	-147.2903
20.600000	76.583	-147.6314
20.900000	76.654	-148.3165
21.200001	76.710	-149.1703
21.400000	76.730	-149.8183
21.799999	76.722	-151.2030
22.000000	76.696	-151.8712
22.400000	76.611	-153.0062
22.700001	76.546	-153.6319
23.000000	76.503	-154.0948
23.299999	76.487	-154.4875
23.600000	76.495	-154.9001
24.000000	76.533	-155.5891
24.299999	76.569	-156.2314
24.700001	76.608	-157.1951
25.000000	76.627	-157.9227
25.400000	76.643	-158.8159
25.799999	76.665	-159.6057
26.200001	76.700	-160.3654
26.500000	76.729	-160.9733
26.900000	76.752	-161.8547
27.200001	76.749	-162.5208
27.600000	76.716	-163.2959
28.000000	76.667	-163.8251
28.500000	76.630	-164.1982
29.000000	76.650	-164.6403
29.500000	76.694	-165.4962
30.000000	76.693	-166.6759
30.400000	76.650	-167.5746
30.700001	76.613	-168.1138
31.100000	76.585	-168.6670
31.500000	76.594	-169.1703
32.000000	76.645	-169.9708
32.500000	76.701	-171.0169
33.000000	76.734	-172.1043
33.500000	76.749	-173.0213
34.000000	76.771	-173.7400
34.500000	76.812	-174.4103
35.000000	76.852	-175.1708
35.500000	76.857	-175.9788
36.000000	76.816	-176.6004
36.500000	76.759	-176.8720
37.000000	76.735	-176.9851
37.500000	76.737	-177.3580
38.200001	76.683	-178.4960
38.700001	76.576	-179.2212
39.500000	76.473	-179.9234
40.000000	76.485	178.9474
40.599998	76.397	176.4471
41.200001	76.052	174.3036
41.799999	75.645	174.2040
42.500000	75.553	175.5667
43.099998	75.764	175.5109
43.700001	75.918	174.2138
44.400002	75.953	172.9866
45.000000	76.003	172.6393
45.500000	76.082	172.3392
46.200001	76.160	171.7257
46.799999	76.187	171.3550
47.500000	76.226	170.9323
48.200001	76.218	170.1362
48.700001	76.144	169.6081
49.400002	76.007	169.3892
50.000000	75.949	169.3373
50.799999	75.924	168.5091
51.500000	75.832	167.2791
52.200001	75.693	166.3829
53.000000	75.612	165.8149
53.799999	75.622	165.0620
54.500000	75.624	164.2523
55.200001	75.611	163.6721
56.000000	75.624	163.3182
57.000000	75.672	162.8156
58.000000	75.661	162.0081
59.000000	75.519	161.2211
60.000000	75.306	161.2455
60.799999	75.228	161.6331
61.500000	75.227	161.5389
62.200001	75.201	161.0178
63.000000	75.122	160.4944
64.000000	75.048	160.2157
65.000000	75.034	159.9488
66.000000	75.014	159.4795
67.000000	74.937	159.1669
68.000000	74.886	158.9621
69.000000	74.811	158.1113
70.000000	74.666	157.2493
71.000000	74.588	156.2112
72.000000	74.454	154.6949
73.000000	74.256	154.3896
74.000000	74.257	154.9440
75.000000	74.337	154.7903
76.199997	74.328	154.3965
77.500000	74.227	154.0731
78.800003	74.206	153.8292
80.000000	74.178	152.1456
81.199997	73.981	151.0832
82.500000	73.785	150.8064
83.800003	73.570	151.3715
85.000000	73.424	151.3321
86.199997	73.211	150.3994
87.500000	73.069	149.0128
88.500000	73.088	147.8503
90.000000	73.211	147.1099
91.199997	73.257	148.1606
92.500000	73.211	150.1246
93.800003	72.927	150.3965
95.000000	72.404	148.9614
96.199997	72.030	146.0583
97.500000	72.058	142.4873
98.800003	72.449	141.2462
100.000000	72.740	143.1020
101.500000	72.653	148.4042
103.000000	71.942	151.4037
104.400002	70.840	147.6787
106.000000	70.404	138.3748
107.500000	71.566	133.2286
109.000000	72.798	138.2517
110.599998	72.952	152.4571
112.000000	71.940	164.5552
113.800003	71.985	151.5594
115.000000	76.069	123.2620
117.199997	84.788	101.6037
118.000000	87.133	101.9095
120.599998	89.320	90.6787
122.000000	86.733	106.5546
124.099998	80.037	154.1332
125.000000	77.307	166.4380
126.500000	73.480	170.3976
128.000000	70.816	156.9473
131.500000	72.112	143.7800
132.000000	72.337	146.3046
134.000000	72.172	155.1278
136.000000	70.704	154.6251
138.000000	70.101	146.8749
140.000000	70.794	142.5644
143.000000	70.904	146.7647
145.000000	70.191	147.3519
147.500000	69.745	144.2685
150.000000	69.896	143.9496
152.500000	69.691	145.8209
155.000000	69.300	146.0613
157.500000	69.258	145.6935
160.000000	69.230	146.3345
162.500000	69.041	147.3583
165.000000	68.898	147.3236
167.500000	68.799	146.8914
170.000000	68.713	147.0040
172.500000	68.646	147.5168
175.000000	68.516	147.7645
177.500000	68.311	147.3860
180.000000	68.148	147.0798
182.500000	68.092	147.8509
185.000000	68.034	148.8455
187.500000	67.860	149.3035
190.000000	67.677	149.5733
192.500000	67.560	149.6997
195.000000	67.452	149.3340
197.500000	67.320	148.9352
200.000000	67.255	149.2892
203.000000	67.272	150.8915
206.000000	67.295	152.3862
209.000000	67.182	152.9197
212.000000	67.033	153.8275
214.000000	67.021	154.5383
218.000000	66.951	154.4456
220.000000	66.825	154.3218
224.000000	66.665	154.6391
227.000000	66.657	154.5389
230.000000	66.583	154.7385
233.000000	66.425	155.6200
236.000000	66.354	156.7285
240.000000	66.406	157.5545
243.000000	66.290	157.4120
247.000000	66.069	157.6978
250.000000	66.027	158.3214
254.000000	65.970	158.7702
258.000000	65.909	159.7134
262.000000	65.773	160.8315
265.000000	65.666	161.1567
269.000000	65.611	161.5971
272.000000	65.586	161.9908
276.000000	65.558	162.2443
280.000000	65.545	162.8214
285.000000	65.486	163.6021
290.000000	65.358	164.1848
295.000000	65.323	164.6657
300.000000	65.309	165.5345
304.000000	65.199	166.1045
307.000000	65.099	166.6799
311.000000	65.003	167.6163
315.000000	65.002	168.4041
320.000000	65.003	169.1003
325.000000	64.895	169.3658
330.000000	64.780	169.6214
335.000000	64.750	170.1678
340.000000	64.735	170.7843
345.000000	64.738	171.3335
350.000000	64.755	171.9512
355.000000	64.732	172.5045
360.000000	64.708	173.2480
365.000000	64.670	174.3035
370.000000	64.592	175.0283
375.000000	64.547	175.4476
382.000000	64.460	175.6389
387.000000	64.482	175.9871
395.000000	64.495	177.0641
400.000000	64.455	178.2639
406.000000	64.376	179.3547
412.000000	64.337	179.4484
418.000000	64.314	-179.9500
425.000000	64.276	-178.8084
431.000000	64.272	-177.7781
437.000000	64.150	-176.9542
444.000000	64.044	-176.0515
450.000000	64.085	-175.3580
455.000000	64.151	-175.2277
462.000000	64.173	-174.9314
468.000000	64.132	-174.2345
475.000000	64.158	-173.6247
482.000000	64.184	-172.9360
487.000000	64.182	-172.3869
494.000000	64.181	-171.7723
500.000000	64.144	-171.3950
508.000000	64.063	-170.8484
515.000000	64.024	-170.2000
522.000000	63.945	-169.4066
530.000000	63.919	-168.6473
538.000000	63.943	-167.9318
545.000000	63.958	-167.2462
552.000000	63.955	-166.4498
560.000000	63.921	-165.3254
570.000000	63.928	-164.1106
580.000000	63.897	-162.8761
590.000000	63.802	-161.9311
600.000000	63.753	-161.1280
608.000000	63.720	-160.6436
615.000000	63.743	-160.1923
622.000000	63.805	-159.6466
630.000000	63.847	-159.1161
640.000000	63.806	-158.3798
650.000000	63.703	-157.2480
660.000000	63.704	-156.1758
670.000000	63.751	-154.7787
680.000000	63.734	-153.8279
690.000000	63.784	-153.1140
700.000000	63.808	-151.9648
710.000000	63.782	-151.0340
720.000000	63.801	-150.3955
730.000000	63.793	-149.6561
740.000000	63.805	-148.7905
750.000000	63.867	-147.5587
762.000000	63.862	-146.1739
775.000000	63.938	-144.5927
788.000000	64.080	-143.3597
800.000000	64.115	-142.7235
812.000000	64.172	-141.6113
825.000000	64.239	-140.3295
838.000000	64.271	-139.3444
850.000000	64.310	-138.3250
862.000000	64.350	-137.6808
875.000000	64.466	-136.8987
885.000000	64.537	-135.9609
900.000000	64.653	-134.8565
912.000000	64.719	-133.9599
925.000000	64.759	-132.9869
938.000000	64.861	-132.1510
950.000000	64.908	-131.5068
962.000000	64.942	-130.8511
975.000000	65.082	-129.9902
988.000000	65.309	-128.9187
1000.000000	65.462	-127.9310
1015.000000	65.479	-127.2896
1030.000000	65.498	-126.5891
1044.000000	65.550	-125.9333
1060.000000	65.661	-125.0198
1075.000000	65.758	-124.4379
1090.000000	65.855	-124.0742
1106.000000	65.992	-123.1221
1120.000000	66.114	-122.3031
1138.000000	66.213	-121.6367
1150.000000	66.286	-121.1024
1172.000000	66.463	-120.6028
1180.000000	66.537	-120.5063
1206.000000	66.726	-119.5425
1220.000000	66.813	-119.1628
1241.000000	66.904	-118.7270
1250.000000	66.927	-118.3558
1265.000000	67.011	-117.6991
1280.000000	67.166	-117.2023
1315.000000	67.513	-116.3400
1320.000000	67.569	-116.1951
1340.000000	67.807	-115.5290
1360.000000	67.972	-114.7881
1380.000000	68.134	-114.1832
1400.000000	68.317	-113.8286
1430.000000	68.533	-112.9969
1450.000000	68.681	-112.4613
1475.000000	68.777	-112.0541
1500.000000	68.940	-111.4127
1525.000000	69.158	-110.7251
1550.000000	69.310	-110.5455
1575.000000	69.507	-110.2416
1600.000000	69.693	-109.9193
1625.000000	69.896	-109.4864
1650.000000	70.131	-109.0234
1675.000000	70.286	-108.9835
1700.000000	70.471	-108.6912
1725.000000	70.691	-108.3227
1750.000000	70.880	-108.3747
1775.000000	71.091	-108.2264
1800.000000	71.295	-108.1421
1825.000000	71.468	-108.4859
1850.000000	71.657	-108.5900
1875.000000	71.867	-108.6412
1900.000000	72.078	-109.0412
1925.000000	72.265	-109.3718
1950.000000	72.438	-109.8059
1975.000000	72.600	-110.5302
2000.000000	72.739	-111.0326
2030.000000	72.910	-111.4249
2060.000000	73.093	-112.2052
2090.000000	73.251	-112.7757
2120.000000	73.412	-113.2968
2140.000000	73.537	-113.9707
2180.000000	73.762	-115.3487
2200.000000	73.844	-116.0443
2240.000000	73.985	-117.9398
2270.000000	74.032	-119.1868
2300.000000	74.036	-120.2990
2330.000000	74.052	-121.5614
2360.000000	74.036	-122.6372
2400.000000	73.969	-123.7215
2430.000000	73.935	-124.6276
2470.000000	73.844	-125.5096
2500.000000	73.759	-125.9904
2540.000000	73.701	-126.7144
2580.000000	73.602	-127.1454
2620.000000	73.497	-127.4162
2650.000000	73.464	-127.7003
2690.000000	73.359	-127.9574
2720.000000	73.267	-128.0976
2760.000000	73.204	-128.3553
2800.000000	73.111	-128.4802
2850.000000	72.982	-128.4105
2900.000000	72.883	-128.2409
2950.000000	72.720	-128.0222
3000.000000	72.633	-127.7234
3040.000000	72.521	-127.2021
3070.000000	72.419	-126.6433
3110.000000	72.344	-125.6162
3150.000000	72.307	-124.3348
3200.000000	72.290	-122.8873
3250.000000	72.406	-121.6561
3300.000000	72.558	-120.6472
3350.000000	72.694	-120.0452
3400.000000	72.895	-119.7644
3450.000000	73.043	-119.8880
3500.000000	73.136	-120.1955
3550.000000	73.237	-120.4822
3600.000000	73.276	-120.9389
3650.000000	73.271	-121.1846
3700.000000	73.292	-121.0724
3750.000000	73.299	-121.0724
3820.000000	73.352	-121.0762
3870.000000	73.440	-120.8943
3950.000000	73.525	-121.0434
4000.000000	73.608	-121.1049
4060.000000	73.682	-121.4868
4120.000000	73.726	-122.1161
4180.000000	73.780	-122.3118
4250.000000	73.814	-122.6375
4310.000000	73.859	-122.9948
4370.000000	73.954	-123.3526
4440.000000	74.066	-124.4182
4500.000000	74.177	-125.5194
4550.000000	74.277	-126.4339
4620.000000	74.366	-128.3013
4680.000000	74.401	-130.1229
4750.000000	74.399	-132.1119
4820.000000	74.308	-134.3932
4870.000000	74.206	-135.9290
4940.000000	74.033	-137.5033
5000.000000	73.831	-138.7074
5080.000000	73.497	-140.2273
5150.000000	73.205	-140.7969
5220.000000	72.909	-141.0760
5300.000000	72.565	-141.3059
5380.000000	72.260	-140.7401
5450.000000	72.022	-140.1029
5520.000000	71.813	-139.4492
5600.000000	71.637	-138.1130
5700.000000	71.501	-136.6025
5800.000000	71.435	-135.3704
5900.000000	71.415	-134.1559
6000.000000	71.423	-133.3908
6080.000000	71.455	-132.5545
6150.000000	71.509	-131.8356
6220.000000	71.577	-131.2529
6300.000000	71.653	-130.4313
6400.000000	71.766	-129.2862
6500.000000	71.936	-128.4502
6600.000000	72.146	-127.2733
6700.000000	72.416	-126.1480
6800.000000	72.742	-125.3329
6900.000000	73.110	-124.3164
7000.000000	73.565	-123.5298
7100.000000	74.095	-123.1018
7200.000000	74.706	-122.7372
7300.000000	75.446	-123.0633
7400.000000	76.296	-124.2210
7500.000000	77.230	-126.0274
7620.000000	78.430	-130.2357
7750.000000	79.651	-138.0611
7880.000000	80.512	-149.5499
8000.000000	80.755	-163.2445
8120.000000	80.297	-177.3375
8250.000000	79.108	169.4474
8380.000000	77.507	160.0165
8500.000000	75.902	155.0685
8620.000000	74.365	152.2265
8750.000000	72.870	150.8748
8850.000000	71.816	151.0565
9000.000000	70.436	152.0909
9120.000000	69.495	153.4404
9250.000000	68.568	155.5769
9380.000000	67.787	157.7510
9500.000000	67.191	159.8233
9620.000000	66.633	162.2782
9750.000000	66.100	164.9764
9880.000000	65.692	167.3448
10000.000000	65.360	169.6706
10150.000000	65.055	172.4602
10300.000000	64.929	174.6681
10440.000000	64.880	176.7517
10600.000000	64.906	178.7874
10750.000000	64.988	-179.9630
10900.000000	65.152	-179.2652
11060.000000	65.477	-179.6158
11200.000000	65.812	178.9828
11380.000000	66.136	175.9670
11500.000000	66.275	172.8410
11720.000000	66.239	165.3584
11800.000000	66.086	162.6837
12060.000000	65.121	155.2431
12200.000000	64.394	152.6776
12410.000000	63.212	151.8281
12500.000000	62.744	152.2780
12650.000000	62.064	153.8401
12800.000000	61.493	156.3868
13150.000000	60.862	163.9120
13200.000000	60.845	165.0252
13400.000000	60.798	169.7536
13600.000000	60.872	174.1137
13800.000000	61.147	177.3140
14000.000000	61.603	179.5618
14300.000000	62.711	-179.2307
14500.000000	63.564	-179.7998
14750.000000	64.678	177.0126
15000.000000	65.773	170.2910
15250.000000	66.569	160.8392
15500.000000	67.008	148.6456
15750.000000	66.981	135.2817
16000.000000	66.639	122.1653
16250.000000	66.238	109.7162
16500.000000	65.722	97.6641
16750.000000	65.076	84.8507
17000.000000	64.233	71.3304
17250.000000	63.008	58.1929
17500.000000	61.422	45.8924
17750.000000	59.481	35.6697
18000.000000	57.154	28.6884
18250.000000	54.727	17.8818
18500.000000	52.422	-46.4829
18750.000000	50.360	39.0654
19000.000000	48.893	65.5226
19250.000000	48.067	-127.5308
19500.000000	47.631	-63.4062
19750.000000	47.291	114.5635
20000.000000	46.994	-53.5801
