* Measurement data measured by REW V5.20.5
* Source: ??? (Realtek(R) Audio), MICROPHONE (Master Volume), L, volume: 1.000
* Format: 128k Log Swept Sine, 2 sweeps at -12.0 dBFS with no timing reference
* Dated: 25-May-2022 00:55:02
* REW Settings:
*  C-weighting compensation: Off
*  Target level: 75.0 dB
* Note: ; 
* Measurement: NNN N5005 9k R
* Smoothing: 1/24 octave
* Frequency Step: 1/48 octave
* Start Frequency: 20.300 Hz
*
* Freq(Hz)	SPL(dB)	Phase(degrees)
20.299999	99.694	-160.7152
20.600000	99.695	-161.0545
20.900000	99.694	-161.6582
21.200001	99.685	-162.2234
21.400000	99.675	-162.5716
21.799999	99.652	-163.2196
22.000000	99.640	-163.5275
22.400000	99.625	-164.1227
22.700001	99.621	-164.5861
23.000000	99.625	-165.1061
23.299999	99.630	-165.6993
23.600000	99.633	-166.3557
24.000000	99.629	-167.2823
24.299999	99.619	-167.9659
24.700001	99.601	-168.8147
25.000000	99.590	-169.3987
25.400000	99.581	-170.1299
25.799999	99.579	-170.8420
26.200001	99.579	-171.5480
26.500000	99.577	-172.0673
26.900000	99.572	-172.7383
27.200001	99.567	-173.2290
27.600000	99.556	-173.8795
28.000000	99.540	-174.5317
28.500000	99.506	-175.3123
29.000000	99.461	-175.9811
29.500000	99.421	-176.5246
30.000000	99.400	-177.0382
30.400000	99.393	-177.5086
30.700001	99.389	-177.9133
31.100000	99.378	-178.5024
31.500000	99.358	-179.1079
32.000000	99.327	-179.8353
32.500000	99.295	179.4783
33.000000	99.268	178.8052
33.500000	99.245	178.1309
34.000000	99.224	177.4661
34.500000	99.204	176.8249
35.000000	99.184	176.2097
35.500000	99.165	175.6195
36.000000	99.145	175.0551
36.500000	99.125	174.5132
37.000000	99.104	173.9840
37.500000	99.082	173.4605
38.200001	99.044	172.7435
38.700001	99.011	172.2484
39.500000	98.957	171.4772
40.000000	98.922	170.9979
40.599998	98.881	170.4091
41.200001	98.838	169.7903
41.799999	98.788	169.1673
42.500000	98.726	168.5037
43.099998	98.681	167.9786
43.700001	98.643	167.4263
44.400002	98.593	166.7770
45.000000	98.552	166.3107
45.500000	98.531	165.9578
46.200001	98.517	165.3464
46.799999	98.492	164.6859
47.500000	98.431	163.9915
48.200001	98.367	163.5102
48.700001	98.333	163.2134
49.400002	98.290	162.7419
50.000000	98.245	162.3103
50.799999	98.174	161.7909
51.500000	98.114	161.3955
52.200001	98.064	160.9962
53.000000	98.015	160.4436
53.799999	97.961	159.7766
54.500000	97.902	159.1719
55.200001	97.835	158.6151
56.000000	97.762	158.0725
57.000000	97.682	157.4600
58.000000	97.601	156.9520
59.000000	97.549	156.6190
60.000000	97.520	156.0183
60.799999	97.458	155.4109
61.500000	97.384	155.0061
62.200001	97.314	154.6767
63.000000	97.240	154.2720
64.000000	97.144	153.7217
65.000000	97.043	153.1620
66.000000	96.945	152.6894
67.000000	96.872	152.2448
68.000000	96.812	151.7008
69.000000	96.746	151.1210
70.000000	96.668	150.5847
71.000000	96.580	150.1799
72.000000	96.500	149.8972
73.000000	96.431	149.6140
74.000000	96.361	149.2584
75.000000	96.278	148.8794
76.199997	96.174	148.4655
77.500000	96.070	147.9840
78.800003	95.965	147.4556
80.000000	95.870	147.0450
81.199997	95.788	146.6939
82.500000	95.711	146.3451
83.800003	95.632	145.8852
85.000000	95.520	145.4564
86.199997	95.399	145.2367
87.500000	95.289	144.9830
88.500000	95.209	144.7289
90.000000	95.099	144.2641
91.199997	94.999	143.8439
92.500000	94.882	143.6281
93.800003	94.792	143.5306
95.000000	94.713	143.3935
96.199997	94.629	143.2466
97.500000	94.534	143.0393
98.800003	94.431	142.8281
100.000000	94.341	142.6402
101.500000	94.234	142.3354
103.000000	94.119	142.0550
104.400002	94.015	141.8971
106.000000	93.905	141.7835
107.500000	93.806	141.7268
109.000000	93.712	141.6231
110.599998	93.593	141.4625
112.000000	93.484	141.3612
113.800003	93.351	141.2106
115.000000	93.262	141.1062
117.199997	93.102	141.0438
118.000000	93.048	141.0676
120.599998	92.897	141.1138
122.000000	92.811	141.0357
124.099998	92.670	140.9424
125.000000	92.611	140.9152
126.500000	92.513	140.8756
128.000000	92.417	140.8506
131.500000	92.202	140.8869
132.000000	92.174	140.8984
134.000000	92.059	140.9570
136.000000	91.941	141.0771
138.000000	91.823	141.2018
140.000000	91.705	141.2856
143.000000	91.537	141.3937
145.000000	91.429	141.5295
147.500000	91.293	141.7401
150.000000	91.147	141.9034
152.500000	91.008	142.1112
155.000000	90.886	142.3964
157.500000	90.768	142.7206
160.000000	90.649	142.9428
162.500000	90.521	143.1357
165.000000	90.396	143.4555
167.500000	90.269	143.8354
170.000000	90.146	144.1845
172.500000	90.030	144.4405
175.000000	89.919	144.8014
177.500000	89.815	145.3684
180.000000	89.718	145.9958
182.500000	89.613	146.5359
185.000000	89.514	147.0384
187.500000	89.436	147.4950
190.000000	89.371	147.9609
192.500000	89.309	148.4578
195.000000	89.244	148.9512
197.500000	89.173	149.4898
200.000000	89.110	150.1239
203.000000	89.055	150.9509
206.000000	89.025	151.6781
209.000000	89.009	152.2462
212.000000	89.008	152.6789
214.000000	89.015	152.8666
218.000000	89.009	153.0322
220.000000	88.982	153.0881
224.000000	88.893	153.2953
227.000000	88.824	153.5133
230.000000	88.755	153.7674
233.000000	88.689	154.0291
236.000000	88.624	154.2385
240.000000	88.535	154.5699
243.000000	88.474	154.9077
247.000000	88.398	155.3875
250.000000	88.336	155.7351
254.000000	88.259	156.2167
258.000000	88.196	156.7690
262.000000	88.139	157.3173
265.000000	88.093	157.6402
269.000000	88.038	158.0654
272.000000	88.008	158.4456
276.000000	87.962	158.9828
280.000000	87.909	159.4458
285.000000	87.844	159.9427
290.000000	87.788	160.5202
295.000000	87.744	161.1766
300.000000	87.704	161.7789
304.000000	87.676	162.1680
307.000000	87.657	162.4336
311.000000	87.629	162.7926
315.000000	87.596	163.1907
320.000000	87.549	163.7572
325.000000	87.506	164.3071
330.000000	87.473	164.7949
335.000000	87.443	165.2631
340.000000	87.413	165.7497
345.000000	87.384	166.2020
350.000000	87.357	166.6383
355.000000	87.324	167.1000
360.000000	87.291	167.5826
365.000000	87.263	168.0706
370.000000	87.240	168.5425
375.000000	87.213	168.9845
382.000000	87.177	169.5699
387.000000	87.156	170.0150
395.000000	87.121	170.7139
400.000000	87.097	171.1224
406.000000	87.073	171.5872
412.000000	87.049	172.0743
418.000000	87.026	172.5616
425.000000	87.001	173.0893
431.000000	86.986	173.5374
437.000000	86.975	173.9679
444.000000	86.956	174.4689
450.000000	86.935	174.9091
455.000000	86.913	175.2879
462.000000	86.885	175.8707
468.000000	86.869	176.3659
475.000000	86.859	176.8981
482.000000	86.851	177.4017
487.000000	86.839	177.7461
494.000000	86.824	178.2327
500.000000	86.815	178.6577
508.000000	86.794	179.2297
515.000000	86.775	179.7392
522.000000	86.768	-179.7562
530.000000	86.758	-179.1902
538.000000	86.737	-178.6160
545.000000	86.721	-178.1216
552.000000	86.710	-177.6239
560.000000	86.702	-177.0378
570.000000	86.692	-176.3340
580.000000	86.675	-175.6446
590.000000	86.654	-174.9248
600.000000	86.642	-174.1763
608.000000	86.637	-173.5954
615.000000	86.633	-173.1141
622.000000	86.630	-172.6345
630.000000	86.629	-172.0793
640.000000	86.628	-171.3643
650.000000	86.627	-170.6630
660.000000	86.630	-169.9951
670.000000	86.634	-169.3056
680.000000	86.638	-168.6359
690.000000	86.645	-168.0027
700.000000	86.648	-167.3790
710.000000	86.650	-166.7686
720.000000	86.655	-166.1656
730.000000	86.660	-165.5413
740.000000	86.657	-164.8820
750.000000	86.649	-164.2092
762.000000	86.642	-163.3787
775.000000	86.632	-162.4975
788.000000	86.628	-161.5670
800.000000	86.624	-160.5676
812.000000	86.628	-159.5396
825.000000	86.648	-158.3930
838.000000	86.678	-157.2157
850.000000	86.713	-156.1430
862.000000	86.759	-155.0999
875.000000	86.819	-153.9783
885.000000	86.868	-153.1317
900.000000	86.953	-151.9023
912.000000	87.029	-150.9681
925.000000	87.112	-150.0147
938.000000	87.202	-149.0837
950.000000	87.292	-148.2699
962.000000	87.385	-147.4862
975.000000	87.484	-146.6596
988.000000	87.580	-145.8701
1000.000000	87.670	-145.1719
1015.000000	87.792	-144.3576
1030.000000	87.916	-143.5872
1044.000000	88.032	-142.9028
1060.000000	88.167	-142.1649
1075.000000	88.293	-141.5240
1090.000000	88.411	-140.9370
1106.000000	88.534	-140.3558
1120.000000	88.646	-139.8658
1138.000000	88.790	-139.2744
1150.000000	88.886	-138.9247
1172.000000	89.056	-138.3525
1180.000000	89.118	-138.1513
1206.000000	89.327	-137.5379
1220.000000	89.447	-137.2435
1241.000000	89.627	-136.8366
1250.000000	89.703	-136.6677
1265.000000	89.831	-136.4128
1280.000000	89.960	-136.1899
1315.000000	90.255	-135.7296
1320.000000	90.296	-135.6718
1340.000000	90.458	-135.4409
1360.000000	90.622	-135.2178
1380.000000	90.787	-135.0082
1400.000000	90.954	-134.8094
1430.000000	91.206	-134.5529
1450.000000	91.374	-134.4027
1475.000000	91.584	-134.2302
1500.000000	91.789	-134.0720
1525.000000	91.989	-133.9493
1550.000000	92.185	-133.8465
1575.000000	92.377	-133.7519
1600.000000	92.567	-133.7067
1625.000000	92.759	-133.7000
1650.000000	92.952	-133.7248
1675.000000	93.146	-133.7873
1700.000000	93.342	-133.8861
1725.000000	93.540	-134.0259
1750.000000	93.741	-134.2265
1775.000000	93.945	-134.4853
1800.000000	94.149	-134.7998
1825.000000	94.350	-135.1758
1850.000000	94.550	-135.6101
1875.000000	94.749	-136.1111
1900.000000	94.944	-136.6843
1925.000000	95.133	-137.3223
1950.000000	95.316	-138.0306
1975.000000	95.492	-138.8056
2000.000000	95.660	-139.6434
2030.000000	95.850	-140.7359
2060.000000	96.025	-141.9169
2090.000000	96.183	-143.1532
2120.000000	96.323	-144.4490
2140.000000	96.405	-145.3401
2180.000000	96.542	-147.1421
2200.000000	96.597	-148.0532
2240.000000	96.677	-149.8642
2270.000000	96.715	-151.1880
2300.000000	96.735	-152.4632
2330.000000	96.739	-153.6758
2360.000000	96.726	-154.8129
2400.000000	96.688	-156.1948
2430.000000	96.649	-157.1226
2470.000000	96.588	-158.2011
2500.000000	96.537	-158.8941
2540.000000	96.467	-159.6691
2580.000000	96.399	-160.2795
2620.000000	96.338	-160.7468
2650.000000	96.296	-161.0209
2690.000000	96.249	-161.2981
2720.000000	96.223	-161.4497
2760.000000	96.199	-161.5958
2800.000000	96.189	-161.6923
2850.000000	96.195	-161.7881
2900.000000	96.221	-161.8844
2950.000000	96.269	-162.0066
3000.000000	96.335	-162.2065
3040.000000	96.396	-162.4524
3070.000000	96.446	-162.6990
3110.000000	96.515	-163.1149
3150.000000	96.580	-163.6220
3200.000000	96.649	-164.3822
3250.000000	96.694	-165.2590
3300.000000	96.711	-166.1739
3350.000000	96.700	-167.0316
3400.000000	96.668	-167.7561
3450.000000	96.627	-168.3293
3500.000000	96.585	-168.7567
3550.000000	96.550	-169.0589
3600.000000	96.524	-169.2787
3650.000000	96.513	-169.4336
3700.000000	96.515	-169.5495
3750.000000	96.530	-169.6538
3820.000000	96.576	-169.8001
3870.000000	96.631	-169.9278
3950.000000	96.754	-170.2193
4000.000000	96.850	-170.4768
4060.000000	96.984	-170.8977
4120.000000	97.138	-171.4800
4180.000000	97.310	-172.2860
4250.000000	97.525	-173.5980
4310.000000	97.710	-175.1197
4370.000000	97.876	-177.0580
4440.000000	98.022	-179.8529
4500.000000	98.079	177.3430
4550.000000	98.064	174.8024
4620.000000	97.931	171.1307
4680.000000	97.711	168.0708
4750.000000	97.337	164.8553
4820.000000	96.861	162.2473
4870.000000	96.473	160.8244
4940.000000	95.885	159.4890
5000.000000	95.362	158.9641
5080.000000	94.671	159.1025
5150.000000	94.101	159.9331
5220.000000	93.583	161.3214
5300.000000	93.070	163.4007
5380.000000	92.653	165.8277
5450.000000	92.362	168.1038
5520.000000	92.131	170.4056
5600.000000	91.932	172.9540
5700.000000	91.773	175.9397
5800.000000	91.689	178.5863
5900.000000	91.639	-179.1800
6000.000000	91.597	-177.2310
6080.000000	91.563	-175.7962
6150.000000	91.533	-174.5943
6220.000000	91.504	-173.4140
6300.000000	91.474	-172.0806
6400.000000	91.443	-170.4173
6500.000000	91.420	-168.7203
6600.000000	91.407	-166.9690
6700.000000	91.407	-165.1648
6800.000000	91.424	-163.3242
6900.000000	91.473	-161.4538
7000.000000	91.552	-159.5242
7100.000000	91.659	-157.5420
7200.000000	91.795	-155.5339
7300.000000	91.965	-153.5210
7400.000000	92.171	-151.5392
7500.000000	92.411	-149.5846
7620.000000	92.753	-147.2527
7750.000000	93.197	-144.8124
7880.000000	93.732	-142.6590
8000.000000	94.315	-141.0864
8120.000000	94.976	-140.0001
8250.000000	95.799	-139.4423
8380.000000	96.749	-139.8261
8500.000000	97.727	-141.4357
8620.000000	98.758	-144.7349
8750.000000	99.829	-150.7972
8850.000000	100.510	-157.4829
9000.000000	101.067	-170.4094
9120.000000	100.968	178.1776
9250.000000	100.312	166.9154
9380.000000	99.239	158.3237
9500.000000	98.068	153.0748
9620.000000	96.873	150.0275
9750.000000	95.658	148.5993
9880.000000	94.575	148.5415
10000.000000	93.703	149.3146
10150.000000	92.778	151.0212
10300.000000	92.023	153.2323
10440.000000	91.458	155.5320
10600.000000	90.967	158.2492
10750.000000	90.646	160.6941
10900.000000	90.454	162.8652
11060.000000	90.390	164.6204
11200.000000	90.430	165.3184
11380.000000	90.523	164.6788
11500.000000	90.552	163.2383
11720.000000	90.377	158.7601
11800.000000	90.200	156.7810
12060.000000	89.147	150.9968
12200.000000	88.344	149.2469
12410.000000	87.041	149.0488
12500.000000	86.497	149.7737
12650.000000	85.649	151.8397
12800.000000	84.897	154.7323
13150.000000	83.600	163.3882
13200.000000	83.468	164.7266
13400.000000	83.065	170.1140
13600.000000	82.861	175.3876
13800.000000	82.875	-179.5843
14000.000000	83.080	-174.9060
14300.000000	83.672	-168.9795
14500.000000	84.246	-166.1479
14750.000000	85.117	-164.5188
15000.000000	86.034	-165.7256
15250.000000	86.780	-170.0964
15500.000000	87.118	-177.0187
15750.000000	86.926	175.3092
16000.000000	86.282	168.8550
16250.000000	85.389	164.3668
16500.000000	84.437	161.4146
16750.000000	83.492	159.0628
17000.000000	82.488	156.6405
17250.000000	81.264	154.1910
17500.000000	79.620	152.9373
17750.000000	77.545	155.1487
18000.000000	75.369	162.2467
18250.000000	73.615	172.5623
18500.000000	72.534	-176.8447
18750.000000	71.916	-167.4013
19000.000000	71.491	-158.9801
19250.000000	71.195	-150.9922
19500.000000	71.049	-143.3558
19750.000000	70.947	-137.0333
20000.000000	70.839	-133.7680
