* Measurement data measured by REW V5.20.9
* Source: Mic in at rear panel (Pink)(Realtek(R) Audio), MICROPHONE (마스), L, volume: 0.500
* Format: 256k Log Swept Sine, 1 sweep at -12.0 dBFS with no timing reference
* Dated: 2022. 9. 17 오후 11:32:00
* REW Settings:
*  C-weighting compensation: Off
*  Target level: 75.0 dB
* Note: 
* Measurement: R
* Smoothing: 1/24 octave
* Frequency Step: 1/48 octave
* Start Frequency: 20.300 Hz
*
* Freq(Hz)	SPL(dB)	Phase(degrees)
20.299999	77.305	-157.3033
20.600000	77.310	-157.7198
20.900000	77.319	-158.4694
21.200001	77.327	-159.2031
21.400000	77.330	-159.6953
21.799999	77.328	-160.7238
22.000000	77.322	-161.2616
22.400000	77.298	-162.3385
22.700001	77.274	-163.1165
23.000000	77.250	-163.8609
23.299999	77.230	-164.5831
23.600000	77.215	-165.2999
24.000000	77.204	-166.2679
24.299999	77.197	-167.0018
24.700001	77.187	-167.9630
25.000000	77.178	-168.6434
25.400000	77.170	-169.4743
25.799999	77.171	-170.2302
26.200001	77.183	-170.9574
26.500000	77.197	-171.5146
26.900000	77.214	-172.2927
27.200001	77.220	-172.8984
27.600000	77.219	-173.7131
28.000000	77.206	-174.5054
28.500000	77.178	-175.4370
29.000000	77.142	-176.3040
29.500000	77.100	-177.1211
30.000000	77.058	-177.9028
30.400000	77.026	-178.5144
30.700001	77.004	-178.9728
31.100000	76.976	-179.5927
31.500000	76.949	179.7728
32.000000	76.919	178.9568
32.500000	76.892	178.1072
33.000000	76.866	177.2094
33.500000	76.836	176.2740
34.000000	76.796	175.3663
34.500000	76.749	174.5656
35.000000	76.709	173.8790
35.500000	76.685	173.2165
36.000000	76.667	172.4831
36.500000	76.638	171.6908
37.000000	76.590	170.9525
37.500000	76.537	170.3465
38.200001	76.481	169.6053
38.700001	76.449	169.0032
39.500000	76.374	167.9481
40.000000	76.315	167.3810
40.599998	76.257	166.7960
41.200001	76.216	166.1563
41.799999	76.170	165.4317
42.500000	76.106	164.6534
43.099998	76.066	164.0690
43.700001	76.041	163.3934
44.400002	75.995	162.4492
45.000000	75.926	161.7097
45.500000	75.863	161.2453
46.200001	75.795	160.7184
46.799999	75.750	160.2260
47.500000	75.692	159.5945
48.200001	75.628	158.9866
48.700001	75.583	158.5625
49.400002	75.519	157.9546
50.000000	75.459	157.4451
50.799999	75.381	156.8104
51.500000	75.320	156.2455
52.200001	75.258	155.6462
53.000000	75.183	154.9608
53.799999	75.106	154.2801
54.500000	75.033	153.6880
55.200001	74.955	153.1519
56.000000	74.871	152.6193
57.000000	74.776	151.9445
58.000000	74.674	151.2675
59.000000	74.573	150.6644
60.000000	74.475	150.0235
60.799999	74.390	149.4861
61.500000	74.313	149.0479
62.200001	74.236	148.6436
63.000000	74.151	148.2173
64.000000	74.053	147.7576
65.000000	73.975	147.2843
66.000000	73.895	146.7020
67.000000	73.795	146.1364
68.000000	73.688	145.6530
69.000000	73.579	145.1947
70.000000	73.466	144.7499
71.000000	73.350	144.3404
72.000000	73.237	143.9777
73.000000	73.132	143.6778
74.000000	73.044	143.4328
75.000000	72.974	143.1300
76.199997	72.878	142.5748
77.500000	72.721	142.0557
78.800003	72.549	141.7512
80.000000	72.391	141.6425
81.199997	72.277	141.6002
82.500000	72.190	141.2535
83.800003	72.095	140.7656
85.000000	72.013	140.3374
86.199997	71.925	139.8312
87.500000	71.792	139.3790
88.500000	71.683	139.1960
90.000000	71.530	138.9528
91.199997	71.411	138.7397
92.500000	71.292	138.4713
93.800003	71.182	138.1525
95.000000	71.080	137.8410
96.199997	70.973	137.5949
97.500000	70.855	137.4389
98.800003	70.741	137.3892
100.000000	70.641	137.3675
101.500000	70.510	137.2926
103.000000	70.368	137.2643
104.400002	70.235	137.2216
106.000000	70.080	137.1479
107.500000	69.932	137.0355
109.000000	69.780	136.9302
110.599998	69.614	136.8839
112.000000	69.469	136.9382
113.800003	69.280	137.0835
115.000000	69.142	137.2639
117.199997	68.868	137.9611
118.000000	68.772	138.3446
120.599998	68.501	139.7350
122.000000	68.357	140.5998
124.099998	68.205	142.2137
125.000000	68.179	142.8842
126.500000	68.183	143.8288
128.000000	68.226	144.4685
131.500000	68.305	145.0837
132.000000	68.307	145.1479
134.000000	68.289	145.3865
136.000000	68.224	145.7606
138.000000	68.172	146.5423
140.000000	68.199	147.4586
143.000000	68.350	148.2542
145.000000	68.461	148.2068
147.500000	68.546	147.5552
150.000000	68.533	146.7192
152.500000	68.453	146.1042
155.000000	68.358	145.6976
157.500000	68.262	145.3508
160.000000	68.159	145.1036
162.500000	68.049	145.0138
165.000000	67.944	145.0682
167.500000	67.842	145.1173
170.000000	67.741	145.1929
172.500000	67.651	145.3020
175.000000	67.570	145.4921
177.500000	67.487	145.7097
180.000000	67.397	145.8876
182.500000	67.311	146.0141
185.000000	67.231	146.1994
187.500000	67.156	146.4998
190.000000	67.083	146.8173
192.500000	67.014	147.0739
195.000000	66.957	147.3020
197.500000	66.910	147.5461
200.000000	66.862	147.8214
203.000000	66.799	148.1705
206.000000	66.739	148.4986
209.000000	66.679	148.7999
212.000000	66.617	149.1174
214.000000	66.580	149.3539
218.000000	66.521	149.8525
220.000000	66.492	150.1046
224.000000	66.434	150.5767
227.000000	66.396	150.8934
230.000000	66.363	151.1708
233.000000	66.328	151.4551
236.000000	66.295	151.7632
240.000000	66.251	152.1445
243.000000	66.224	152.3894
247.000000	66.183	152.7705
250.000000	66.150	153.0643
254.000000	66.105	153.4090
258.000000	66.066	153.7620
262.000000	66.036	154.0798
265.000000	66.015	154.3078
269.000000	65.987	154.6284
272.000000	65.967	154.8764
276.000000	65.943	155.2192
280.000000	65.917	155.5491
285.000000	65.892	155.9225
290.000000	65.874	156.3127
295.000000	65.845	156.7089
300.000000	65.824	157.0472
304.000000	65.811	157.3094
307.000000	65.800	157.4951
311.000000	65.786	157.7418
315.000000	65.776	158.0077
320.000000	65.769	158.3183
325.000000	65.753	158.6053
330.000000	65.741	158.9297
335.000000	65.730	159.2369
340.000000	65.713	159.5008
345.000000	65.695	159.7704
350.000000	65.685	160.0382
355.000000	65.678	160.2865
360.000000	65.664	160.5283
365.000000	65.649	160.7841
370.000000	65.633	161.0125
375.000000	65.616	161.2323
382.000000	65.597	161.5741
387.000000	65.583	161.8106
395.000000	65.561	162.1638
400.000000	65.550	162.3759
406.000000	65.535	162.6210
412.000000	65.515	162.8645
418.000000	65.493	163.1296
425.000000	65.476	163.4224
431.000000	65.472	163.6548
437.000000	65.467	163.9063
444.000000	65.452	164.2282
450.000000	65.437	164.5059
455.000000	65.425	164.7302
462.000000	65.412	165.0071
468.000000	65.404	165.2401
475.000000	65.396	165.5031
482.000000	65.388	165.7517
487.000000	65.383	165.9460
494.000000	65.377	166.2504
500.000000	65.371	166.5068
508.000000	65.359	166.8208
515.000000	65.341	167.0918
522.000000	65.328	167.4030
530.000000	65.322	167.7512
538.000000	65.314	168.0524
545.000000	65.310	168.3482
552.000000	65.304	168.6535
560.000000	65.294	168.9813
570.000000	65.285	169.3886
580.000000	65.281	169.8228
590.000000	65.275	170.2591
600.000000	65.265	170.6902
608.000000	65.255	171.0599
615.000000	65.252	171.4083
622.000000	65.253	171.7425
630.000000	65.252	172.1002
640.000000	65.255	172.5653
650.000000	65.258	173.0648
660.000000	65.259	173.5709
670.000000	65.264	174.0685
680.000000	65.271	174.5719
690.000000	65.278	175.1128
700.000000	65.288	175.6514
710.000000	65.300	176.1593
720.000000	65.312	176.6375
730.000000	65.327	177.1348
740.000000	65.346	177.7132
750.000000	65.367	178.2986
762.000000	65.398	178.9590
775.000000	65.439	179.6368
788.000000	65.479	-179.6718
800.000000	65.524	-179.0208
812.000000	65.579	-178.4004
825.000000	65.637	-177.7431
838.000000	65.700	-177.1225
850.000000	65.763	-176.5702
862.000000	65.833	-175.9956
875.000000	65.914	-175.3969
885.000000	65.980	-174.9779
900.000000	66.080	-174.4080
912.000000	66.158	-173.9689
925.000000	66.246	-173.4859
938.000000	66.336	-173.0276
950.000000	66.424	-172.6471
962.000000	66.514	-172.3197
975.000000	66.610	-171.9879
988.000000	66.702	-171.6632
1000.000000	66.789	-171.3831
1015.000000	66.911	-171.0044
1030.000000	67.036	-170.6651
1044.000000	67.148	-170.4200
1060.000000	67.275	-170.1816
1075.000000	67.395	-169.9869
1090.000000	67.518	-169.8152
1106.000000	67.656	-169.6800
1120.000000	67.779	-169.6042
1138.000000	67.935	-169.5357
1150.000000	68.037	-169.5042
1172.000000	68.223	-169.4942
1180.000000	68.291	-169.5064
1206.000000	68.507	-169.5937
1220.000000	68.619	-169.6689
1241.000000	68.785	-169.7868
1250.000000	68.855	-169.8411
1265.000000	68.972	-169.9463
1280.000000	69.088	-170.0674
1315.000000	69.356	-170.4061
1320.000000	69.393	-170.4582
1340.000000	69.537	-170.6624
1360.000000	69.677	-170.8854
1380.000000	69.816	-171.1361
1400.000000	69.958	-171.3931
1430.000000	70.177	-171.8396
1450.000000	70.323	-172.1684
1475.000000	70.505	-172.5826
1500.000000	70.682	-173.0281
1525.000000	70.856	-173.5122
1550.000000	71.030	-174.0416
1575.000000	71.201	-174.5933
1600.000000	71.369	-175.1760
1625.000000	71.537	-175.8435
1650.000000	71.701	-176.5728
1675.000000	71.861	-177.3276
1700.000000	72.017	-178.1238
1725.000000	72.166	-178.9865
1750.000000	72.307	-179.9077
1775.000000	72.440	179.1302
1800.000000	72.565	178.1342
1825.000000	72.682	177.0878
1850.000000	72.788	175.9839
1875.000000	72.882	174.8426
1900.000000	72.963	173.6766
1925.000000	73.031	172.4917
1950.000000	73.085	171.2925
1975.000000	73.127	170.0867
2000.000000	73.155	168.8993
2030.000000	73.171	167.5040
2060.000000	73.165	166.1412
2090.000000	73.139	164.8431
2120.000000	73.095	163.6352
2140.000000	73.059	162.8767
2180.000000	72.970	161.4818
2200.000000	72.916	160.8600
2240.000000	72.795	159.7896
2270.000000	72.696	159.1337
2300.000000	72.593	158.5995
2330.000000	72.489	158.1954
2360.000000	72.386	157.9247
2400.000000	72.258	157.7587
2430.000000	72.172	157.7548
2470.000000	72.072	157.8962
2500.000000	72.010	158.0919
2540.000000	71.946	158.4509
2580.000000	71.905	158.8979
2620.000000	71.890	159.3883
2650.000000	71.895	159.7737
2690.000000	71.920	160.2970
2720.000000	71.952	160.6736
2760.000000	72.011	161.1313
2800.000000	72.088	161.5230
2850.000000	72.204	161.9047
2900.000000	72.338	162.1559
2950.000000	72.485	162.2617
3000.000000	72.640	162.2190
3040.000000	72.765	162.0638
3070.000000	72.858	161.8809
3110.000000	72.979	161.5665
3150.000000	73.095	161.1904
3200.000000	73.235	160.6411
3250.000000	73.371	159.9989
3300.000000	73.499	159.2367
3350.000000	73.608	158.3471
3400.000000	73.695	157.4046
3450.000000	73.766	156.4849
3500.000000	73.826	155.6468
3550.000000	73.881	154.8951
3600.000000	73.935	154.2177
3650.000000	73.993	153.5981
3700.000000	74.058	153.0016
3750.000000	74.131	152.4085
3820.000000	74.247	151.5469
3870.000000	74.338	150.8661
3950.000000	74.493	149.5836
4000.000000	74.592	148.6277
4060.000000	74.705	147.2930
4120.000000	74.809	145.7367
4180.000000	74.896	143.9117
4250.000000	74.957	141.3965
4310.000000	74.947	138.9264
4370.000000	74.855	136.2458
4440.000000	74.626	133.0647
4500.000000	74.328	130.5109
4550.000000	74.012	128.6366
4620.000000	73.480	126.5757
4680.000000	72.962	125.4514
4750.000000	72.317	124.9753
4820.000000	71.664	125.4284
4870.000000	71.210	126.2934
4940.000000	70.617	128.1857
5000.000000	70.167	130.3561
5080.000000	69.675	133.8422
5150.000000	69.359	137.2507
5220.000000	69.154	140.8182
5300.000000	69.052	144.8792
5380.000000	69.077	148.6994
5450.000000	69.182	151.6561
5520.000000	69.336	154.1651
5600.000000	69.537	156.5536
5700.000000	69.791	159.0129
5800.000000	70.042	161.0409
5900.000000	70.291	162.7538
6000.000000	70.532	164.2344
6080.000000	70.720	165.3034
6150.000000	70.885	166.1764
6220.000000	71.050	166.9962
6300.000000	71.237	167.8752
6400.000000	71.470	168.9448
6500.000000	71.707	170.0390
6600.000000	71.957	171.1781
6700.000000	72.235	172.3713
6800.000000	72.563	173.6112
6900.000000	72.969	174.8343
7000.000000	73.463	175.9239
7100.000000	74.040	176.7623
7200.000000	74.699	177.1992
7300.000000	75.435	177.0493
7400.000000	76.236	176.1691
7500.000000	77.105	174.4214
7620.000000	78.253	170.7935
7750.000000	79.542	163.9149
7880.000000	80.521	152.7009
8000.000000	80.816	139.0601
8120.000000	80.369	124.8729
8250.000000	79.137	112.2749
8380.000000	77.456	104.1847
8500.000000	75.807	100.2995
8620.000000	74.235	98.8767
8750.000000	72.684	99.1766
8850.000000	71.606	100.2737
9000.000000	70.167	102.8551
9120.000000	69.153	105.4827
9250.000000	68.170	108.6965
9380.000000	67.293	112.1680
9500.000000	66.563	115.5536
9620.000000	65.899	119.0565
9750.000000	65.249	122.9464
9880.000000	64.661	126.9325
10000.000000	64.169	130.6794
10150.000000	63.618	135.4142
10300.000000	63.140	140.1826
10440.000000	62.759	144.6340
10600.000000	62.391	149.6107
10750.000000	62.096	154.0438
10900.000000	61.819	158.1940
11060.000000	61.516	162.5719
11200.000000	61.294	166.5045
11380.000000	61.101	170.9852
11500.000000	60.957	173.3554
11720.000000	60.535	177.1512
11800.000000	60.323	178.5865
12060.000000	59.454	-175.6451
12200.000000	58.931	-171.4878
12410.000000	58.191	-163.8222
12500.000000	57.921	-160.1531
12650.000000	57.562	-153.7704
12800.000000	57.321	-147.2565
13150.000000	57.141	-132.4000
13200.000000	57.149	-130.3743
13400.000000	57.248	-122.5328
13600.000000	57.429	-115.0772
13800.000000	57.697	-107.8592
14000.000000	58.071	-100.8806
14300.000000	58.801	-90.9780
14500.000000	59.430	-84.7263
14750.000000	60.452	-77.3992
15000.000000	61.834	-71.1625
15250.000000	63.691	-67.3078
15500.000000	65.985	-68.1878
15750.000000	68.130	-77.1748
16000.000000	69.227	-94.5796
16250.000000	68.878	-113.4890
16500.000000	67.509	-127.1451
16750.000000	65.791	-135.6773
17000.000000	64.007	-141.4568
17250.000000	62.142	-145.5381
17500.000000	60.142	-147.8587
17750.000000	57.973	-147.9316
18000.000000	55.627	-144.9859
18250.000000	53.206	-138.3906
18500.000000	50.938	-128.4508
18750.000000	49.031	-116.3346
19000.000000	47.557	-103.1804
19250.000000	46.507	-89.8300
19500.000000	45.799	-77.1172
19750.000000	45.321	-65.6479
20000.000000	44.904	-55.4080
