* Measurement data measured by REW V5.20.5
* Source: ??? (Realtek(R) Audio), MICROPHONE (Master Volume), L, volume: 0.250
* Format: 128k Log Swept Sine, 4 sweeps at -12.0 dBFS with no timing reference
* Dated: 08-Apr-2022 02:07:03
* REW Settings:
*  C-weighting compensation: Off
*  Target level: 75.0 dB
* Note: 
* Measurement: AKG N5005 Mid High Filter L
* Smoothing: 1/24 octave
* Frequency Step: 1/48 octave
* Start Frequency: 20.300 Hz
*
* Freq(Hz)	SPL(dB)	Phase(degrees)
20.299999	75.340	-145.5408
20.600000	75.354	-145.9186
20.900000	75.381	-146.5921
21.200001	75.402	-147.2302
21.400000	75.413	-147.6387
21.799999	75.429	-148.4511
22.000000	75.436	-148.8634
22.400000	75.446	-149.6888
22.700001	75.453	-150.3070
23.000000	75.461	-150.9323
23.299999	75.471	-151.5700
23.600000	75.483	-152.2223
24.000000	75.501	-153.1107
24.299999	75.516	-153.7813
24.700001	75.537	-154.6651
25.000000	75.552	-155.3112
25.400000	75.573	-156.1449
25.799999	75.596	-156.9485
26.200001	75.619	-157.7268
26.500000	75.634	-158.2948
26.900000	75.651	-159.0293
27.200001	75.659	-159.5605
27.600000	75.668	-160.2411
28.000000	75.674	-160.8939
28.500000	75.681	-161.6877
29.000000	75.684	-162.4812
29.500000	75.683	-163.2866
30.000000	75.674	-164.0958
30.400000	75.663	-164.7340
30.700001	75.653	-165.2034
31.100000	75.640	-165.8175
31.500000	75.626	-166.4226
32.000000	75.610	-167.1738
32.500000	75.596	-167.9234
33.000000	75.583	-168.6719
33.500000	75.572	-169.4184
34.000000	75.564	-170.1588
34.500000	75.556	-170.8814
35.000000	75.546	-171.5747
35.500000	75.537	-172.2372
36.000000	75.528	-172.8798
36.500000	75.519	-173.5150
37.000000	75.507	-174.1464
37.500000	75.491	-174.7685
38.200001	75.460	-175.6100
38.700001	75.433	-176.1879
39.500000	75.388	-177.0946
40.000000	75.360	-177.6681
40.599998	75.322	-178.3672
41.200001	75.281	-179.0596
41.799999	75.239	-179.7328
42.500000	75.192	179.4930
43.099998	75.150	178.8353
43.700001	75.107	178.2118
44.400002	75.062	177.5425
45.000000	75.030	176.9765
45.500000	75.004	176.4799
46.200001	74.957	175.7758
46.799999	74.905	175.2358
47.500000	74.840	174.7397
48.200001	74.784	174.3741
48.700001	74.755	174.1557
49.400002	74.732	173.8226
50.000000	74.719	173.4372
50.799999	74.689	172.7870
51.500000	74.646	172.2100
52.200001	74.602	171.6758
53.000000	74.560	171.0299
53.799999	74.513	170.2999
54.500000	74.461	169.6668
55.200001	74.407	169.1002
56.000000	74.349	168.5008
57.000000	74.269	167.7979
58.000000	74.186	167.4151
59.000000	74.169	167.1022
60.000000	74.150	166.2143
60.799999	74.059	165.4604
61.500000	73.957	165.0791
62.200001	73.873	164.8421
63.000000	73.798	164.5291
64.000000	73.710	164.0462
65.000000	73.627	163.5133
66.000000	73.544	162.9658
67.000000	73.465	162.4599
68.000000	73.390	161.9726
69.000000	73.313	161.5093
70.000000	73.234	161.0823
71.000000	73.150	160.6699
72.000000	73.063	160.2936
73.000000	72.980	159.9327
74.000000	72.897	159.5562
75.000000	72.814	159.1975
76.199997	72.717	158.7938
77.500000	72.614	158.3568
78.800003	72.506	157.9570
80.000000	72.409	157.6244
81.199997	72.311	157.3076
82.500000	72.205	156.9946
83.800003	72.098	156.7057
85.000000	71.999	156.4565
86.199997	71.898	156.2071
87.500000	71.788	155.9315
88.500000	71.703	155.7305
90.000000	71.582	155.4603
91.199997	71.489	155.2736
92.500000	71.386	155.1279
93.800003	71.278	155.0373
95.000000	71.172	154.9760
96.199997	71.062	154.9186
97.500000	70.947	154.8477
98.800003	70.851	154.7805
100.000000	70.787	154.6911
101.500000	70.716	154.5511
103.000000	70.634	154.5187
104.400002	70.540	154.5513
106.000000	70.404	154.5648
107.500000	70.266	154.4958
109.000000	70.137	154.3404
110.599998	70.013	154.2099
112.000000	69.897	154.2225
113.800003	69.704	154.4803
115.000000	69.545	154.7381
117.199997	69.245	155.2282
118.000000	69.158	155.4479
120.599998	69.071	156.9788
122.000000	69.177	158.4956
124.099998	69.432	160.7825
125.000000	69.501	161.4262
126.500000	69.501	162.1053
128.000000	69.414	162.4433
131.500000	69.283	161.5432
132.000000	69.279	161.3181
134.000000	69.277	160.6850
136.000000	69.260	160.5121
138.000000	69.193	160.4341
140.000000	69.096	160.2184
143.000000	68.994	159.9285
145.000000	68.968	159.9564
147.500000	68.883	160.1594
150.000000	68.752	160.5674
152.500000	68.632	160.7707
155.000000	68.540	161.0140
157.500000	68.479	161.3875
160.000000	68.411	161.8699
162.500000	68.350	162.3739
165.000000	68.303	162.7743
167.500000	68.262	163.1007
170.000000	68.236	163.3354
172.500000	68.222	163.4294
175.000000	68.199	163.5719
177.500000	68.159	163.9024
180.000000	68.112	164.2617
182.500000	68.071	164.4133
185.000000	68.036	164.4031
187.500000	68.002	164.4795
190.000000	67.966	164.7323
192.500000	67.924	165.0345
195.000000	67.879	165.2539
197.500000	67.842	165.3835
200.000000	67.812	165.4831
203.000000	67.757	165.8146
206.000000	67.702	166.4001
209.000000	67.664	166.8929
212.000000	67.637	167.2634
214.000000	67.615	167.4756
218.000000	67.565	167.8871
220.000000	67.553	168.0687
224.000000	67.536	168.3711
227.000000	67.513	168.6409
230.000000	67.485	168.9250
233.000000	67.459	169.1935
236.000000	67.436	169.4613
240.000000	67.408	169.8343
243.000000	67.389	170.0966
247.000000	67.366	170.4027
250.000000	67.348	170.6216
254.000000	67.323	170.9033
258.000000	67.301	171.1738
262.000000	67.278	171.4473
265.000000	67.260	171.6559
269.000000	67.237	171.9435
272.000000	67.222	172.1696
276.000000	67.203	172.4592
280.000000	67.189	172.7305
285.000000	67.169	173.0853
290.000000	67.147	173.4313
295.000000	67.128	173.7875
300.000000	67.110	174.1285
304.000000	67.095	174.3629
307.000000	67.082	174.5352
311.000000	67.067	174.7788
315.000000	67.054	175.0312
320.000000	67.038	175.3334
325.000000	67.025	175.6364
330.000000	67.013	175.9452
335.000000	66.997	176.2201
340.000000	66.979	176.4926
345.000000	66.965	176.7864
350.000000	66.948	177.0761
355.000000	66.932	177.3384
360.000000	66.918	177.5952
365.000000	66.904	177.8615
370.000000	66.889	178.1180
375.000000	66.874	178.3718
382.000000	66.855	178.7476
387.000000	66.842	179.0212
395.000000	66.823	179.4493
400.000000	66.811	179.6896
406.000000	66.794	179.9696
412.000000	66.775	-179.7279
418.000000	66.755	-179.4146
425.000000	66.737	-179.0473
431.000000	66.725	-178.7387
437.000000	66.712	-178.4386
444.000000	66.695	-178.0913
450.000000	66.681	-177.7907
455.000000	66.671	-177.5397
462.000000	66.655	-177.1851
468.000000	66.641	-176.8877
475.000000	66.626	-176.5379
482.000000	66.612	-176.1631
487.000000	66.604	-175.8891
494.000000	66.592	-175.5258
500.000000	66.582	-175.2272
508.000000	66.568	-174.8185
515.000000	66.553	-174.4459
522.000000	66.538	-174.0728
530.000000	66.522	-173.6529
538.000000	66.510	-173.2440
545.000000	66.499	-172.8801
552.000000	66.486	-172.4967
560.000000	66.470	-172.0562
570.000000	66.449	-171.5067
580.000000	66.431	-170.9186
590.000000	66.413	-170.3213
600.000000	66.397	-169.7546
608.000000	66.385	-169.3032
615.000000	66.375	-168.8977
622.000000	66.367	-168.4942
630.000000	66.359	-168.0292
640.000000	66.348	-167.4121
650.000000	66.339	-166.7850
660.000000	66.331	-166.1606
670.000000	66.322	-165.5518
680.000000	66.317	-164.9221
690.000000	66.313	-164.2688
700.000000	66.312	-163.6033
710.000000	66.316	-162.9377
720.000000	66.321	-162.2893
730.000000	66.326	-161.6243
740.000000	66.334	-160.9391
750.000000	66.345	-160.2395
762.000000	66.357	-159.3917
775.000000	66.373	-158.4774
788.000000	66.395	-157.5585
800.000000	66.420	-156.6856
812.000000	66.450	-155.8075
825.000000	66.487	-154.8770
838.000000	66.531	-153.9604
850.000000	66.575	-153.0906
862.000000	66.622	-152.2185
875.000000	66.679	-151.2859
885.000000	66.726	-150.5730
900.000000	66.806	-149.5298
912.000000	66.876	-148.7216
925.000000	66.957	-147.8743
938.000000	67.043	-147.0523
950.000000	67.127	-146.3264
962.000000	67.213	-145.6279
975.000000	67.309	-144.8920
988.000000	67.409	-144.1964
1000.000000	67.503	-143.5940
1015.000000	67.622	-142.8860
1030.000000	67.742	-142.2207
1044.000000	67.855	-141.6396
1060.000000	67.983	-141.0256
1075.000000	68.098	-140.5065
1090.000000	68.210	-140.0253
1106.000000	68.331	-139.5448
1120.000000	68.436	-139.1525
1138.000000	68.570	-138.6987
1150.000000	68.657	-138.4223
1172.000000	68.816	-137.9546
1180.000000	68.874	-137.7981
1206.000000	69.066	-137.3328
1220.000000	69.175	-137.1112
1241.000000	69.341	-136.8169
1250.000000	69.413	-136.7019
1265.000000	69.533	-136.5198
1280.000000	69.651	-136.3449
1315.000000	69.921	-135.9745
1320.000000	69.959	-135.9264
1340.000000	70.111	-135.7531
1360.000000	70.266	-135.5987
1380.000000	70.423	-135.4573
1400.000000	70.580	-135.3236
1430.000000	70.815	-135.1382
1450.000000	70.970	-135.0421
1475.000000	71.164	-134.9482
1500.000000	71.356	-134.8681
1525.000000	71.540	-134.8049
1550.000000	71.716	-134.7711
1575.000000	71.888	-134.7617
1600.000000	72.060	-134.7758
1625.000000	72.229	-134.8201
1650.000000	72.400	-134.8745
1675.000000	72.570	-134.9591
1700.000000	72.743	-135.0828
1725.000000	72.920	-135.2429
1750.000000	73.099	-135.4379
1775.000000	73.277	-135.6743
1800.000000	73.456	-135.9467
1825.000000	73.635	-136.2630
1850.000000	73.815	-136.6358
1875.000000	73.994	-137.0665
1900.000000	74.168	-137.5586
1925.000000	74.338	-138.1068
1950.000000	74.505	-138.7164
1975.000000	74.665	-139.3918
2000.000000	74.819	-140.1234
2030.000000	74.994	-141.0699
2060.000000	75.156	-142.0914
2090.000000	75.304	-143.1677
2120.000000	75.438	-144.2870
2140.000000	75.519	-145.0619
2180.000000	75.658	-146.6821
2200.000000	75.714	-147.5155
2240.000000	75.799	-149.1915
2270.000000	75.838	-150.4203
2300.000000	75.857	-151.6014
2330.000000	75.860	-152.7210
2360.000000	75.849	-153.7632
2400.000000	75.819	-155.0248
2430.000000	75.788	-155.8802
2470.000000	75.736	-156.9098
2500.000000	75.691	-157.5948
2540.000000	75.622	-158.3830
2580.000000	75.546	-159.0180
2620.000000	75.473	-159.5054
2650.000000	75.421	-159.7858
2690.000000	75.357	-160.0663
2720.000000	75.315	-160.2119
2760.000000	75.267	-160.3388
2800.000000	75.227	-160.4141
2850.000000	75.185	-160.4587
2900.000000	75.148	-160.4505
2950.000000	75.112	-160.3230
3000.000000	75.083	-159.9460
3040.000000	75.089	-159.3970
3070.000000	75.132	-158.8851
3110.000000	75.258	-158.2822
3150.000000	75.444	-158.0808
3200.000000	75.682	-158.6215
3250.000000	75.852	-159.7785
3300.000000	75.937	-161.1110
3350.000000	75.960	-162.3665
3400.000000	75.944	-163.4546
3450.000000	75.907	-164.3543
3500.000000	75.860	-165.0803
3550.000000	75.811	-165.6647
3600.000000	75.765	-166.1463
3650.000000	75.721	-166.5589
3700.000000	75.680	-166.9183
3750.000000	75.644	-167.2275
3820.000000	75.601	-167.5723
3870.000000	75.582	-167.7649
3950.000000	75.578	-168.0408
4000.000000	75.586	-168.2297
4060.000000	75.601	-168.4692
4120.000000	75.622	-168.6999
4180.000000	75.655	-168.9339
4250.000000	75.712	-169.2915
4310.000000	75.769	-169.7394
4370.000000	75.824	-170.3418
4440.000000	75.873	-171.2340
4500.000000	75.896	-172.1516
4550.000000	75.895	-173.0061
4620.000000	75.854	-174.2697
4680.000000	75.780	-175.3442
4750.000000	75.650	-176.4920
4820.000000	75.474	-177.4503
4870.000000	75.323	-177.9867
4940.000000	75.088	-178.4843
5000.000000	74.872	-178.6550
5080.000000	74.581	-178.5120
5150.000000	74.337	-178.0674
5220.000000	74.109	-177.3575
5300.000000	73.882	-176.2654
5380.000000	73.696	-174.9458
5450.000000	73.567	-173.6678
5520.000000	73.467	-172.3316
5600.000000	73.391	-170.8010
5700.000000	73.349	-168.9614
5800.000000	73.352	-167.2533
5900.000000	73.389	-165.6731
6000.000000	73.453	-164.2294
6080.000000	73.522	-163.1699
6150.000000	73.593	-162.2988
6220.000000	73.671	-161.4797
6300.000000	73.769	-160.6029
6400.000000	73.901	-159.5408
6500.000000	74.053	-158.4739
6600.000000	74.229	-157.3976
6700.000000	74.439	-156.3169
6800.000000	74.695	-155.2481
6900.000000	75.011	-154.2194
7000.000000	75.400	-153.2945
7100.000000	75.866	-152.5624
7200.000000	76.417	-152.1396
7300.000000	77.061	-152.1692
7400.000000	77.807	-152.8510
7500.000000	78.654	-154.4782
7620.000000	79.777	-158.2525
7750.000000	80.994	-165.5864
7880.000000	81.927	-177.2642
8000.000000	82.215	168.6442
8120.000000	81.771	153.8874
8250.000000	80.544	140.5114
8380.000000	78.855	131.5077
8500.000000	77.178	126.7466
8620.000000	75.556	124.4958
8750.000000	73.939	123.9905
8850.000000	72.809	124.5426
9000.000000	71.291	126.4135
9120.000000	70.214	128.5665
9250.000000	69.172	131.3773
9380.000000	68.248	134.5644
9500.000000	67.490	137.7701
9620.000000	66.821	141.1372
9750.000000	66.198	144.8752
9880.000000	65.673	148.6152
10000.000000	65.262	151.9868
10150.000000	64.832	156.0945
10300.000000	64.482	160.1199
10440.000000	64.227	163.7860
10600.000000	64.032	167.8063
10750.000000	63.950	171.2716
10900.000000	63.957	174.2264
11060.000000	64.033	176.5620
11200.000000	64.111	177.7685
11380.000000	64.150	178.2822
11500.000000	64.126	178.1963
11720.000000	63.990	177.2339
11800.000000	63.890	176.5809
12060.000000	63.246	174.1700
12200.000000	62.695	173.5083
12410.000000	61.733	174.4443
12500.000000	61.316	175.6334
12650.000000	60.670	178.5188
12800.000000	60.131	-177.7383
13150.000000	59.386	-167.4584
13200.000000	59.336	-165.9376
13400.000000	59.267	-159.9122
13600.000000	59.410	-154.0942
13800.000000	59.803	-148.6771
14000.000000	60.425	-143.8650
14300.000000	61.736	-138.2556
14500.000000	62.875	-136.2292
14750.000000	64.533	-136.9516
15000.000000	66.170	-142.9973
15250.000000	67.260	-155.0894
15500.000000	67.360	-170.2736
15750.000000	66.502	176.8000
16000.000000	65.158	168.7664
16250.000000	63.846	164.4783
16500.000000	62.821	161.5319
16750.000000	62.045	157.9612
17000.000000	61.346	152.6638
17250.000000	60.483	145.0769
17500.000000	59.161	135.5090
17750.000000	57.194	125.5896
18000.000000	54.540	117.8729
18250.000000	51.263	114.7668
18500.000000	47.451	118.5076
18750.000000	43.279	131.7128
19000.000000	39.407	154.2276
19250.000000	37.243	-179.8203
19500.000000	37.123	-157.6268
19750.000000	37.696	-142.7159
20000.000000	38.036	-136.0381
