* Measurement data measured by REW V5.20.13
* Source: Input device not selected, no input selected, R, volume: no control. Timing signal peak level -54.6 dBFS, measurement signal peak level -18.0 dBFS
* Format: 128k Log Swept Sine, 1 sweep at -12.0 dBFS using an acoustic timing reference
* Dated: 2022. 10. 24 오후 10:49:34
* REW Settings:
*  C-weighting compensation: Off
*  Target level: 75.0 dB
* Note: Delay -1.1566 ms (-397 mm, -(1 ft 3.62 in)) using estimated IR delay relative to Acoustic reference played from  R with no timing offset
* Measurement: 수월우 무명 L -솜 +손누르기
* Smoothing: 1/24 octave
* Frequency Step: 1/48 octave
* Start Frequency: 20.300 Hz
*
* Freq(Hz)	SPL(dB)	Phase(degrees)
20.299999	69.242	-69.0253
20.600000	70.155	-70.3085
20.900000	71.556	-73.4015
21.200001	72.369	-78.2136
21.400000	72.687	-81.7611
21.799999	72.939	-88.5853
22.000000	72.946	-91.5317
22.400000	72.827	-96.5978
22.700001	72.666	-100.1133
23.000000	72.436	-103.7000
23.299999	72.096	-107.2370
23.600000	71.629	-110.2484
24.000000	70.876	-112.5217
24.299999	70.383	-112.6189
24.700001	70.107	-111.5081
25.000000	70.267	-111.1623
25.400000	70.780	-113.0130
25.799999	71.269	-117.8029
26.200001	71.505	-124.2356
26.500000	71.489	-129.0379
26.900000	71.262	-134.2885
27.200001	71.013	-136.8531
27.600000	70.711	-138.2450
28.000000	70.617	-137.8010
28.500000	70.933	-136.4337
29.000000	71.551	-136.4491
29.500000	72.094	-138.5896
30.000000	72.317	-141.3562
30.400000	72.311	-142.4874
30.700001	72.314	-142.3273
31.100000	72.453	-141.2723
31.500000	72.815	-140.3755
32.000000	73.380	-140.8713
32.500000	73.817	-142.9289
33.000000	74.094	-145.0859
33.500000	74.363	-146.7226
34.000000	74.712	-148.5211
34.500000	75.044	-151.1753
35.000000	75.236	-154.3201
35.500000	75.288	-156.9462
36.000000	75.316	-158.5488
36.500000	75.423	-159.4704
37.000000	75.609	-160.3284
37.500000	75.813	-161.3260
38.200001	76.075	-162.5378
38.700001	76.274	-162.9915
39.500000	76.717	-163.2602
40.000000	77.072	-163.6012
40.599998	77.515	-164.5385
41.200001	77.898	-165.9438
41.799999	78.199	-167.4383
42.500000	78.467	-168.9924
43.099998	78.633	-170.1514
43.700001	78.731	-171.0658
44.400002	78.776	-171.5031
45.000000	78.825	-171.1572
45.500000	78.945	-170.5847
46.200001	79.256	-170.2464
46.799999	79.557	-171.0708
47.500000	79.793	-173.0178
48.200001	79.916	-175.0410
48.700001	79.990	-176.3712
49.400002	80.081	-178.2473
50.000000	80.123	-179.5911
50.799999	80.230	179.5947
51.500000	80.476	179.2173
52.200001	80.776	178.3953
53.000000	81.063	177.3193
53.799999	81.328	176.5514
54.500000	81.543	175.8793
55.200001	81.712	175.3095
56.000000	81.904	174.9310
57.000000	82.170	174.0856
58.000000	82.372	172.9903
59.000000	82.642	171.9652
60.000000	82.922	170.0913
60.799999	83.063	168.6922
61.500000	83.206	167.9546
62.200001	83.398	167.2919
63.000000	83.611	166.3966
64.000000	83.835	165.5487
65.000000	84.077	164.9008
66.000000	84.290	164.0353
67.000000	84.472	163.2208
68.000000	84.660	162.1580
69.000000	84.779	160.9061
70.000000	84.906	160.1540
71.000000	85.118	159.2279
72.000000	85.286	157.9515
73.000000	85.435	157.0587
74.000000	85.628	156.2334
75.000000	85.810	155.2017
76.199997	85.991	154.0263
77.500000	86.210	152.8253
78.800003	86.404	151.2062
80.000000	86.534	149.9345
81.199997	86.696	148.7656
82.500000	86.854	147.2678
83.800003	86.950	145.8474
85.000000	87.033	144.9012
86.199997	87.144	143.9012
87.500000	87.238	142.7539
88.500000	87.314	141.9592
90.000000	87.426	140.6588
91.199997	87.494	139.7387
92.500000	87.588	138.9839
93.800003	87.724	138.1333
95.000000	87.832	137.0826
96.199997	87.896	136.0586
97.500000	87.943	135.2061
98.800003	88.008	134.5598
100.000000	88.079	133.8701
101.500000	88.134	132.9399
103.000000	88.159	132.1609
104.400002	88.180	131.5882
106.000000	88.212	130.8788
107.500000	88.229	130.1536
109.000000	88.243	129.5340
110.599998	88.283	128.9518
112.000000	88.324	128.4130
113.800003	88.363	127.8755
115.000000	88.394	127.6001
117.199997	88.441	126.9801
118.000000	88.446	126.7173
120.599998	88.412	126.0836
122.000000	88.399	125.9212
124.099998	88.385	125.6872
125.000000	88.383	125.6108
126.500000	88.392	125.4493
128.000000	88.404	125.2268
131.500000	88.427	125.0392
132.000000	88.435	125.0380
134.000000	88.456	124.9293
136.000000	88.445	124.7559
138.000000	88.433	124.6622
140.000000	88.446	124.5622
143.000000	88.440	124.4716
145.000000	88.424	124.7326
147.500000	88.421	125.1908
150.000000	88.429	125.5670
152.500000	88.420	125.7666
155.000000	88.402	125.9620
157.500000	88.395	126.1974
160.000000	88.399	126.5748
162.500000	88.396	127.1553
165.000000	88.394	127.8873
167.500000	88.410	128.5750
170.000000	88.445	129.0903
172.500000	88.466	129.5195
175.000000	88.460	130.0607
177.500000	88.449	130.7245
180.000000	88.459	131.4309
182.500000	88.483	132.1431
185.000000	88.493	132.8528
187.500000	88.485	133.5106
190.000000	88.485	134.0518
192.500000	88.498	134.5990
195.000000	88.507	135.3452
197.500000	88.505	136.2765
200.000000	88.507	137.1849
203.000000	88.517	138.1497
206.000000	88.532	139.1762
209.000000	88.552	140.2191
212.000000	88.576	141.2431
214.000000	88.597	141.9159
218.000000	88.628	143.1983
220.000000	88.642	143.8576
224.000000	88.680	145.2552
227.000000	88.701	146.3098
230.000000	88.725	147.3250
233.000000	88.758	148.3444
236.000000	88.787	149.4413
240.000000	88.817	150.9685
243.000000	88.839	152.1280
247.000000	88.866	153.6908
250.000000	88.891	154.8217
254.000000	88.947	156.2939
258.000000	88.998	157.7466
262.000000	89.031	159.2150
265.000000	89.068	160.3734
269.000000	89.133	161.9405
272.000000	89.181	163.0790
276.000000	89.232	164.5945
280.000000	89.284	166.1829
285.000000	89.367	168.0278
290.000000	89.454	169.8847
295.000000	89.546	171.8317
300.000000	89.647	173.6374
304.000000	89.731	175.0034
307.000000	89.808	176.0091
311.000000	89.932	177.2525
315.000000	90.071	178.2643
320.000000	90.249	178.9168
325.000000	90.373	178.6383
330.000000	90.264	177.7067
335.000000	89.844	177.7066
340.000000	89.347	-179.8616
345.000000	89.094	-175.9770
350.000000	89.091	-172.3503
355.000000	89.158	-169.6104
360.000000	89.201	-167.5405
365.000000	89.188	-165.7800
370.000000	89.067	-164.1498
375.000000	88.809	-162.1075
382.000000	88.360	-156.7189
387.000000	88.276	-151.2244
395.000000	88.711	-143.6577
400.000000	89.053	-140.6203
406.000000	89.384	-137.9203
412.000000	89.622	-135.5777
418.000000	89.802	-133.2814
425.000000	89.981	-130.5454
431.000000	90.107	-128.1844
437.000000	90.219	-125.8130
444.000000	90.344	-123.0225
450.000000	90.447	-120.6133
455.000000	90.530	-118.6144
462.000000	90.642	-115.8170
468.000000	90.731	-113.3782
475.000000	90.832	-110.5192
482.000000	90.934	-107.7063
487.000000	91.005	-105.6693
494.000000	91.106	-102.7624
500.000000	91.191	-100.2746
508.000000	91.302	-97.0346
515.000000	91.396	-94.2102
522.000000	91.488	-91.3343
530.000000	91.594	-88.0283
538.000000	91.701	-84.7414
545.000000	91.791	-81.8735
552.000000	91.888	-79.0511
560.000000	92.001	-75.8505
570.000000	92.135	-71.8223
580.000000	92.264	-67.8178
590.000000	92.392	-63.8582
600.000000	92.513	-59.9001
608.000000	92.609	-56.7607
615.000000	92.691	-54.0174
622.000000	92.770	-51.2458
630.000000	92.862	-48.0617
640.000000	92.982	-44.0873
650.000000	93.100	-40.1683
660.000000	93.213	-36.3277
670.000000	93.315	-32.4888
680.000000	93.407	-28.5900
690.000000	93.496	-24.6322
700.000000	93.582	-20.6111
710.000000	93.672	-16.5863
720.000000	93.772	-12.5634
730.000000	93.878	-8.5388
740.000000	93.986	-4.5472
750.000000	94.096	-0.5938
762.000000	94.224	4.0847
775.000000	94.352	9.0703
788.000000	94.472	14.0505
800.000000	94.571	18.6776
812.000000	94.666	23.3216
825.000000	94.771	28.3537
838.000000	94.872	33.4189
850.000000	94.958	38.1168
862.000000	95.043	42.8271
875.000000	95.137	47.9724
885.000000	95.214	51.9519
900.000000	95.334	57.9129
912.000000	95.428	62.6548
925.000000	95.528	67.7675
938.000000	95.629	72.8803
950.000000	95.722	77.6145
962.000000	95.812	82.3453
975.000000	95.907	87.4588
988.000000	96.002	92.5767
1000.000000	96.091	97.3113
1015.000000	96.205	103.2246
1030.000000	96.319	109.1219
1044.000000	96.422	114.6324
1060.000000	96.538	120.9388
1075.000000	96.647	126.8726
1090.000000	96.760	132.8356
1106.000000	96.884	139.2212
1120.000000	96.999	144.8229
1138.000000	97.162	152.0117
1150.000000	97.280	156.7657
1172.000000	97.508	165.3594
1180.000000	97.594	168.4341
1206.000000	97.875	178.1937
1220.000000	98.018	-176.6832
1241.000000	98.216	-169.1490
1250.000000	98.292	-165.9714
1265.000000	98.404	-160.7271
1280.000000	98.493	-155.5146
1315.000000	98.618	-143.1681
1320.000000	98.629	-141.3571
1340.000000	98.663	-133.9595
1360.000000	98.698	-126.2944
1380.000000	98.751	-118.4004
1400.000000	98.835	-110.3622
1430.000000	99.031	-98.2300
1450.000000	99.207	-90.2376
1475.000000	99.468	-80.5136
1500.000000	99.747	-71.1936
1525.000000	100.016	-62.2506
1550.000000	100.265	-53.5871
1575.000000	100.490	-45.1729
1600.000000	100.681	-37.0102
1625.000000	100.825	-29.0029
1650.000000	100.923	-21.0563
1675.000000	100.982	-13.0950
1700.000000	101.008	-5.1021
1725.000000	100.995	2.9486
1750.000000	100.950	11.1301
1775.000000	100.885	19.4513
1800.000000	100.804	27.8838
1825.000000	100.707	36.4129
1850.000000	100.592	45.0560
1875.000000	100.465	53.8445
1900.000000	100.331	62.7686
1925.000000	100.192	71.8080
1950.000000	100.045	80.9688
1975.000000	99.897	90.2593
2000.000000	99.752	99.6577
2030.000000	99.582	111.0573
2060.000000	99.417	122.5603
2090.000000	99.256	134.1605
2120.000000	99.101	145.8505
2140.000000	99.000	153.6746
2180.000000	98.803	169.4185
2200.000000	98.707	177.3425
2240.000000	98.521	-166.7208
2270.000000	98.384	-154.7097
2300.000000	98.248	-142.6162
2330.000000	98.118	-130.3873
2360.000000	98.009	-118.0632
2400.000000	97.893	-101.6063
2430.000000	97.823	-89.3125
2470.000000	97.743	-73.0096
2500.000000	97.687	-60.8356
2540.000000	97.612	-44.6542
2580.000000	97.538	-28.4961
2620.000000	97.462	-12.3890
2650.000000	97.400	-0.3334
2690.000000	97.311	15.7397
2720.000000	97.240	27.8127
2760.000000	97.143	43.9344
2800.000000	97.042	60.0893
2850.000000	96.913	80.3121
2900.000000	96.775	100.5875
2950.000000	96.631	120.9696
3000.000000	96.496	141.4597
3040.000000	96.397	157.8868
3070.000000	96.326	170.2063
3110.000000	96.235	-173.3809
3150.000000	96.146	-157.0112
3200.000000	96.029	-136.6348
3250.000000	95.893	-116.3749
3300.000000	95.698	-96.2891
3350.000000	95.358	-75.7809
3400.000000	94.990	-53.3579
3450.000000	94.937	-30.2528
3500.000000	95.034	-8.4546
3550.000000	95.082	12.5950
3600.000000	95.082	33.4879
3650.000000	95.053	54.4091
3700.000000	95.015	75.4321
3750.000000	94.981	96.5197
3820.000000	94.941	126.0112
3870.000000	94.901	147.0641
3950.000000	94.832	-179.0033
4000.000000	94.806	-157.6704
4060.000000	94.796	-132.0455
4120.000000	94.794	-106.4856
4180.000000	94.779	-80.8988
4250.000000	94.765	-50.7209
4310.000000	94.794	-24.6927
4370.000000	94.847	1.3223
4440.000000	94.914	31.8439
4500.000000	95.016	58.4373
4550.000000	95.194	80.7654
4620.000000	95.580	111.4414
4680.000000	95.921	136.9336
4750.000000	96.269	166.3363
4820.000000	96.618	-164.1899
4870.000000	96.896	-143.2013
4940.000000	97.311	-114.0635
5000.000000	97.682	-89.2925
5080.000000	98.205	-56.5852
5150.000000	98.675	-28.3105
5220.000000	99.157	-0.3232
5300.000000	99.726	31.3214
5380.000000	100.325	62.5432
5450.000000	100.880	89.3845
5520.000000	101.452	115.5820
5600.000000	102.081	144.5461
5700.000000	102.751	179.3682
5800.000000	103.243	-147.0476
5900.000000	103.489	-114.5398
6000.000000	103.412	-82.3511
6080.000000	103.140	-56.1074
6150.000000	102.795	-32.6001
6220.000000	102.375	-8.5906
6300.000000	101.820	19.4937
6400.000000	101.047	55.6069
6500.000000	100.235	92.8042
6600.000000	99.433	130.8591
6700.000000	98.653	169.3848
6800.000000	97.856	-151.7952
6900.000000	96.993	-112.5266
7000.000000	96.046	-72.2961
7100.000000	95.072	-30.7937
7200.000000	94.120	12.0942
7300.000000	93.276	56.6006
7400.000000	92.700	102.1633
7500.000000	92.462	147.6257
7620.000000	92.467	-159.7302
7750.000000	92.349	-104.9062
7880.000000	91.975	-48.9775
8000.000000	91.838	4.7412
8120.000000	92.138	58.0635
8250.000000	92.689	113.5674
8380.000000	93.248	166.7756
8500.000000	93.646	-146.0693
8620.000000	93.704	-100.4397
8750.000000	93.143	-48.0415
8850.000000	93.012	-2.0098
9000.000000	94.493	64.1270
9120.000000	95.572	107.9541
9250.000000	95.981	151.6392
9380.000000	95.731	-164.4487
9500.000000	95.067	-122.1765
9620.000000	94.111	-77.3601
9750.000000	92.946	-25.3774
9880.000000	91.920	29.5906
10000.000000	91.248	82.1038
10150.000000	90.964	148.9753
10300.000000	91.352	-145.6951
10440.000000	91.907	-88.0972
10600.000000	92.326	-25.3740
10750.000000	92.388	32.4551
10900.000000	92.200	91.1162
11060.000000	91.966	155.3213
11200.000000	91.876	-147.7861
11380.000000	91.937	-74.0908
11500.000000	92.193	-24.7969
11720.000000	93.155	63.0732
11800.000000	93.567	93.5845
12060.000000	94.549	-173.3179
12200.000000	94.572	-125.9106
12410.000000	93.763	-53.7793
12500.000000	93.196	-21.3882
12650.000000	92.172	34.6865
12800.000000	91.210	92.6226
13150.000000	89.530	-129.5942
13200.000000	89.342	-109.8955
13400.000000	88.669	-31.5132
13600.000000	87.956	46.1108
13800.000000	87.066	124.7480
14000.000000	86.292	-154.5898
14300.000000	85.884	-34.4775
14500.000000	85.820	42.6997
14750.000000	85.620	136.2378
15000.000000	85.101	-132.9409
15250.000000	84.113	-44.2178
15500.000000	82.307	44.4502
15750.000000	79.449	139.8428
16000.000000	76.040	-112.0532
16250.000000	73.912	6.9946
16500.000000	74.859	123.5156
16750.000000	76.877	-132.8267
17000.000000	78.204	-40.7207
17250.000000	78.469	47.3242
17500.000000	78.143	137.2363
17750.000000	77.858	-131.7930
18000.000000	77.652	-43.3486
18250.000000	77.162	41.5010
18500.000000	76.104	124.0166
18750.000000	74.368	-153.1782
19000.000000	72.097	-68.4150
19250.000000	69.579	17.7441
19500.000000	67.076	102.3047
19750.000000	64.803	176.3330
20000.000000	63.347	-141.7852
