* Measurement data measured by REW V5.20.13
* Source: Input device not selected, no input selected, R, volume: no control. Timing signal peak level -22.8 dBFS, measurement signal peak level -22.6 dBFS
* Format: 128k Log Swept Sine, 1 sweep at -12.0 dBFS using an acoustic timing reference
* Dated: 2022. 10. 24 오후 10:42:56
* REW Settings:
*  C-weighting compensation: Off
*  Target level: 75.0 dB
* Note: Delay -0.0385 ms (-13 mm, -0.52 in) using estimated IR delay relative to Acoustic reference played from  R with no timing offset
* Measurement: 수월우 무명  R +솜
* Smoothing: 1/24 octave
* Frequency Step: 1/48 octave
* Start Frequency: 20.300 Hz
*
* Freq(Hz)	SPL(dB)	Phase(degrees)
20.299999	66.391	-102.6824
20.600000	66.570	-102.1497
20.900000	67.023	-101.4793
21.200001	67.653	-101.7155
21.400000	68.110	-102.5954
21.799999	68.994	-105.9412
22.000000	69.377	-108.2303
22.400000	69.980	-113.4673
22.700001	70.298	-117.5496
23.000000	70.514	-121.4642
23.299999	70.648	-125.0443
23.600000	70.721	-128.1641
24.000000	70.767	-131.4532
24.299999	70.810	-133.2444
24.700001	70.944	-134.9316
25.000000	71.131	-135.9993
25.400000	71.479	-137.6691
25.799999	71.861	-139.9809
26.200001	72.192	-142.8221
26.500000	72.385	-145.0059
26.900000	72.594	-147.6288
27.200001	72.752	-149.2876
27.600000	73.005	-151.2449
28.000000	73.306	-153.2887
28.500000	73.673	-156.2812
29.000000	73.946	-159.3788
29.500000	74.146	-161.8990
30.000000	74.376	-163.6985
30.400000	74.620	-164.9771
30.700001	74.824	-166.0366
31.100000	75.091	-167.6453
31.500000	75.337	-169.3832
32.000000	75.622	-171.6087
32.500000	75.892	-174.0330
33.000000	76.099	-176.8595
33.500000	76.177	-179.8240
34.000000	76.129	177.8132
34.500000	76.068	176.5100
35.000000	76.121	175.8642
35.500000	76.301	174.9533
36.000000	76.496	173.3347
36.500000	76.619	171.3752
37.000000	76.679	169.7083
37.500000	76.746	168.5283
38.200001	76.917	167.1939
38.700001	77.064	166.2142
39.500000	77.309	164.9264
40.000000	77.511	164.3122
40.599998	77.813	163.3401
41.200001	78.106	161.7515
41.799999	78.302	159.7504
42.500000	78.382	157.7245
43.099998	78.410	156.8202
43.700001	78.517	156.4143
44.400002	78.740	155.5405
45.000000	78.884	154.1868
45.500000	78.931	153.2170
46.200001	79.019	152.7076
46.799999	79.236	152.3938
47.500000	79.540	150.9981
48.200001	79.734	149.0005
48.700001	79.832	147.7267
49.400002	79.972	145.9420
50.000000	80.029	144.2767
50.799999	80.019	143.0128
51.500000	80.167	142.7813
52.200001	80.448	141.5916
53.000000	80.585	139.1901
53.799999	80.599	138.2292
54.500000	80.822	138.1120
55.200001	81.147	136.8373
56.000000	81.343	134.3411
57.000000	81.374	132.2848
58.000000	81.455	131.3843
59.000000	81.595	130.6309
60.000000	81.753	129.7670
60.799999	81.866	128.9329
61.500000	81.951	128.2091
62.200001	82.040	127.5192
63.000000	82.153	126.6297
64.000000	82.271	125.3958
65.000000	82.385	124.3757
66.000000	82.529	123.3413
67.000000	82.661	122.2690
68.000000	82.812	121.2668
69.000000	82.957	119.9492
70.000000	83.047	118.7261
71.000000	83.183	117.8149
72.000000	83.366	116.5377
73.000000	83.504	115.0529
74.000000	83.622	113.8259
75.000000	83.735	112.7414
76.199997	83.837	111.7722
77.500000	83.957	111.1511
78.800003	84.096	110.5128
80.000000	84.222	109.7297
81.199997	84.360	108.7011
82.500000	84.468	107.1835
83.800003	84.523	106.1398
85.000000	84.646	105.5583
86.199997	84.791	104.7422
87.500000	84.899	103.7822
88.500000	84.963	103.1830
90.000000	85.072	102.2060
91.199997	85.151	101.3340
92.500000	85.262	100.3740
93.800003	85.380	99.2582
95.000000	85.472	98.2818
96.199997	85.554	97.4903
97.500000	85.645	96.8045
98.800003	85.741	96.1172
100.000000	85.819	95.3407
101.500000	85.875	94.3180
103.000000	85.918	93.4575
104.400002	85.976	92.7404
106.000000	86.069	91.9380
107.500000	86.168	91.0859
109.000000	86.252	90.2367
110.599998	86.331	89.3959
112.000000	86.379	88.7537
113.800003	86.456	88.1767
115.000000	86.529	87.6934
117.199997	86.640	86.6561
118.000000	86.683	86.3399
120.599998	86.851	85.0532
122.000000	86.908	84.2496
124.099998	86.980	83.2393
125.000000	87.016	82.8505
126.500000	87.077	82.2480
128.000000	87.141	81.7496
131.500000	87.289	80.6562
132.000000	87.310	80.4745
134.000000	87.384	79.6288
136.000000	87.448	78.8379
138.000000	87.531	78.1764
140.000000	87.607	77.4852
143.000000	87.661	76.6271
145.000000	87.713	76.1259
147.500000	87.787	75.3680
150.000000	87.868	74.6168
152.500000	87.953	73.8120
155.000000	88.025	73.0539
157.500000	88.092	72.4605
160.000000	88.157	71.8787
162.500000	88.216	71.2036
165.000000	88.273	70.5561
167.500000	88.340	70.0052
170.000000	88.405	69.5098
172.500000	88.460	68.9582
175.000000	88.513	68.3309
177.500000	88.582	67.7733
180.000000	88.677	67.2947
182.500000	88.759	66.7476
185.000000	88.805	66.1638
187.500000	88.837	65.5845
190.000000	88.871	65.0891
192.500000	88.920	64.6648
195.000000	88.971	64.2004
197.500000	89.021	63.6855
200.000000	89.066	63.1923
203.000000	89.122	62.7269
206.000000	89.177	62.3000
209.000000	89.230	61.7612
212.000000	89.286	61.1435
214.000000	89.322	60.8062
218.000000	89.388	60.3179
220.000000	89.412	60.0437
224.000000	89.457	59.3497
227.000000	89.500	58.8303
230.000000	89.542	58.3766
233.000000	89.568	57.9417
236.000000	89.584	57.5458
240.000000	89.599	57.1252
243.000000	89.608	56.9325
247.000000	89.644	56.6850
250.000000	89.687	56.4943
254.000000	89.757	56.3775
258.000000	89.815	56.2545
262.000000	89.876	55.9770
265.000000	89.931	55.6953
269.000000	90.000	55.3188
272.000000	90.048	55.0465
276.000000	90.117	54.6750
280.000000	90.186	54.2621
285.000000	90.250	53.7686
290.000000	90.297	53.3188
295.000000	90.338	52.8612
300.000000	90.366	52.5432
304.000000	90.391	52.3679
307.000000	90.413	52.3035
311.000000	90.456	52.3468
315.000000	90.521	52.4469
320.000000	90.642	52.5764
325.000000	90.817	52.5012
330.000000	91.018	51.7852
335.000000	91.169	50.4310
340.000000	91.221	48.9708
345.000000	91.214	47.8950
350.000000	91.207	47.1176
355.000000	91.202	46.2504
360.000000	91.170	45.1888
365.000000	91.060	44.1683
370.000000	90.858	43.6988
375.000000	90.649	44.1917
382.000000	90.535	45.8052
387.000000	90.594	46.7988
395.000000	90.768	47.5915
400.000000	90.867	47.7872
406.000000	90.977	47.8273
412.000000	91.078	47.7492
418.000000	91.168	47.6854
425.000000	91.256	47.5583
431.000000	91.330	47.3802
437.000000	91.406	47.1533
444.000000	91.486	46.9090
450.000000	91.544	46.7240
455.000000	91.594	46.5580
462.000000	91.659	46.3182
468.000000	91.712	46.1442
475.000000	91.771	45.9985
482.000000	91.825	45.8502
487.000000	91.864	45.7105
494.000000	91.917	45.4896
500.000000	91.962	45.3293
508.000000	92.022	45.1555
515.000000	92.081	44.9986
522.000000	92.142	44.8312
530.000000	92.207	44.6526
538.000000	92.270	44.4290
545.000000	92.326	44.2278
552.000000	92.382	44.0666
560.000000	92.451	43.8965
570.000000	92.536	43.6138
580.000000	92.618	43.3163
590.000000	92.691	42.9556
600.000000	92.762	42.5397
608.000000	92.813	42.1775
615.000000	92.850	41.8450
622.000000	92.879	41.5192
630.000000	92.906	41.1732
640.000000	92.930	40.7899
650.000000	92.941	40.4861
660.000000	92.937	40.2565
670.000000	92.932	40.1674
680.000000	92.940	40.2505
690.000000	92.970	40.3955
700.000000	93.019	40.5112
710.000000	93.081	40.5671
720.000000	93.147	40.5593
730.000000	93.213	40.4861
740.000000	93.282	40.3483
750.000000	93.351	40.1346
762.000000	93.422	39.7796
775.000000	93.475	39.3546
788.000000	93.505	39.0116
800.000000	93.524	38.8295
812.000000	93.544	38.7488
825.000000	93.576	38.7087
838.000000	93.616	38.6486
850.000000	93.654	38.5715
862.000000	93.694	38.5061
875.000000	93.742	38.4595
885.000000	93.780	38.4096
900.000000	93.838	38.2920
912.000000	93.881	38.1573
925.000000	93.924	37.9816
938.000000	93.963	37.7897
950.000000	93.991	37.6213
962.000000	94.010	37.4916
975.000000	94.021	37.4178
988.000000	94.030	37.4135
1000.000000	94.043	37.4673
1015.000000	94.065	37.5807
1030.000000	94.094	37.7416
1044.000000	94.128	37.9115
1060.000000	94.177	38.0887
1075.000000	94.232	38.2517
1090.000000	94.294	38.4194
1106.000000	94.365	38.5695
1120.000000	94.429	38.6653
1138.000000	94.517	38.7452
1150.000000	94.578	38.7801
1172.000000	94.689	38.8113
1180.000000	94.731	38.8087
1206.000000	94.869	38.7012
1220.000000	94.940	38.5574
1241.000000	95.037	38.2689
1250.000000	95.072	38.1351
1265.000000	95.120	37.9216
1280.000000	95.155	37.7466
1315.000000	95.221	37.5928
1320.000000	95.231	37.6030
1340.000000	95.278	37.7056
1360.000000	95.338	37.8689
1380.000000	95.411	38.0540
1400.000000	95.496	38.2494
1430.000000	95.655	38.5293
1450.000000	95.780	38.6496
1475.000000	95.952	38.6631
1500.000000	96.136	38.4655
1525.000000	96.316	38.0568
1550.000000	96.479	37.5068
1575.000000	96.628	36.8694
1600.000000	96.769	36.1615
1625.000000	96.900	35.3590
1650.000000	97.012	34.4956
1675.000000	97.109	33.6151
1700.000000	97.200	32.7036
1725.000000	97.280	31.7372
1750.000000	97.342	30.7286
1775.000000	97.388	29.7097
1800.000000	97.422	28.6830
1825.000000	97.440	27.6320
1850.000000	97.437	26.5839
1875.000000	97.417	25.5895
1900.000000	97.385	24.6573
1925.000000	97.341	23.7803
1950.000000	97.283	22.9752
1975.000000	97.216	22.2653
2000.000000	97.144	21.6400
2030.000000	97.051	20.9724
2060.000000	96.951	20.4016
2090.000000	96.849	19.9606
2120.000000	96.749	19.6196
2140.000000	96.683	19.4282
2180.000000	96.551	19.1630
2200.000000	96.488	19.0860
2240.000000	96.363	19.0164
2270.000000	96.274	19.0643
2300.000000	96.191	19.1671
2330.000000	96.114	19.3243
2360.000000	96.046	19.5309
2400.000000	95.968	19.8240
2430.000000	95.915	20.0843
2470.000000	95.854	20.4971
2500.000000	95.822	20.8244
2540.000000	95.790	21.2131
2580.000000	95.762	21.5556
2620.000000	95.733	21.8534
2650.000000	95.704	22.0972
2690.000000	95.666	22.5254
2720.000000	95.644	22.8961
2760.000000	95.621	23.4558
2800.000000	95.615	24.1116
2850.000000	95.648	24.9471
2900.000000	95.720	25.6931
2950.000000	95.826	26.1978
3000.000000	95.938	26.3594
3040.000000	96.015	26.2920
3070.000000	96.061	26.1497
3110.000000	96.098	25.9000
3150.000000	96.114	25.6592
3200.000000	96.110	25.2769
3250.000000	96.019	24.9288
3300.000000	95.858	25.6060
3350.000000	95.867	27.2227
3400.000000	96.050	28.1222
3450.000000	96.221	28.0865
3500.000000	96.321	27.7001
3550.000000	96.370	27.3157
3600.000000	96.391	27.0378
3650.000000	96.398	26.8847
3700.000000	96.407	26.8247
3750.000000	96.416	26.7943
3820.000000	96.428	26.8293
3870.000000	96.441	26.9216
3950.000000	96.486	27.0538
4000.000000	96.519	27.0419
4060.000000	96.550	26.9729
4120.000000	96.571	26.8656
4180.000000	96.566	26.7333
4250.000000	96.521	26.9096
4310.000000	96.506	27.4720
4370.000000	96.545	28.1710
4440.000000	96.650	28.8802
4500.000000	96.767	29.3321
4550.000000	96.880	29.6288
4620.000000	97.064	29.9118
4680.000000	97.244	29.9919
4750.000000	97.476	29.8597
4820.000000	97.734	29.4487
4870.000000	97.934	28.9046
4940.000000	98.207	27.6590
5000.000000	98.409	26.2258
5080.000000	98.633	24.0211
5150.000000	98.791	21.7333
5220.000000	98.883	19.1996
5300.000000	98.927	16.2537
5380.000000	98.915	13.1170
5450.000000	98.840	10.2433
5520.000000	98.701	7.3324
5600.000000	98.449	4.0258
5700.000000	97.976	0.3633
5800.000000	97.382	-2.2479
5900.000000	96.758	-3.7338
6000.000000	96.169	-4.3871
6080.000000	95.721	-4.4475
6150.000000	95.363	-4.1083
6220.000000	95.069	-3.5265
6300.000000	94.823	-2.8773
6400.000000	94.619	-2.5632
6500.000000	94.443	-3.1455
6600.000000	94.191	-4.4968
6700.000000	93.807	-6.1739
6800.000000	93.267	-7.7296
6900.000000	92.553	-8.5311
7000.000000	91.714	-7.7537
7100.000000	90.899	-4.9866
7200.000000	90.309	-0.7488
7300.000000	90.042	3.6014
7400.000000	89.995	6.9012
7500.000000	89.985	8.9369
7620.000000	89.874	10.5369
7750.000000	89.642	12.3532
7880.000000	89.383	14.7452
8000.000000	89.194	17.4471
8120.000000	89.096	20.4626
8250.000000	89.154	23.7537
8380.000000	89.370	26.1346
8500.000000	89.569	27.1428
8620.000000	89.672	27.5983
8750.000000	89.729	28.1867
8850.000000	89.786	28.5366
9000.000000	89.825	28.5052
9120.000000	89.764	28.4932
9250.000000	89.678	28.9196
9380.000000	89.612	29.2585
9500.000000	89.459	29.4838
9620.000000	89.220	30.7081
9750.000000	89.058	33.3681
9880.000000	89.100	36.7827
10000.000000	89.390	40.0988
10150.000000	90.084	43.1281
10300.000000	90.953	43.9548
10440.000000	91.787	42.7291
10600.000000	92.652	39.0521
10750.000000	93.278	33.7475
10900.000000	93.663	27.3582
11060.000000	93.845	20.0482
11200.000000	93.828	13.2919
11380.000000	93.503	4.4219
11500.000000	93.080	-1.0621
11720.000000	91.982	-8.8306
11800.000000	91.538	-10.8013
12060.000000	90.175	-14.7479
12200.000000	89.578	-15.8502
12410.000000	88.945	-17.6819
12500.000000	88.730	-18.9839
12650.000000	88.317	-21.8739
12800.000000	87.742	-24.8524
13150.000000	86.076	-27.6780
13200.000000	85.866	-27.6254
13400.000000	85.212	-26.9204
13600.000000	84.867	-26.5256
13800.000000	84.745	-27.0601
14000.000000	84.824	-29.1742
14300.000000	84.923	-37.0988
14500.000000	84.672	-44.5283
14750.000000	83.935	-54.1654
15000.000000	82.847	-62.5324
15250.000000	81.621	-69.5787
15500.000000	80.267	-75.2462
15750.000000	78.960	-79.0928
16000.000000	77.883	-82.5171
16250.000000	76.967	-86.4648
16500.000000	76.071	-91.2213
16750.000000	75.079	-95.9256
17000.000000	74.149	-99.7042
17250.000000	73.458	-103.8212
17500.000000	72.961	-109.4612
17750.000000	72.605	-117.3981
18000.000000	72.246	-128.6975
18250.000000	71.625	-143.3158
18500.000000	70.652	-160.2388
18750.000000	69.427	-179.9779
19000.000000	67.894	155.7597
19250.000000	65.767	126.8972
19500.000000	62.811	95.7303
19750.000000	59.016	67.2415
20000.000000	55.581	50.9696
