* Measurement data measured by REW V5.20.13
* Source: Input device not selected, no input selected, R, volume: no control. Timing signal peak level -57.4 dBFS, measurement signal peak level -19.7 dBFS
* Format: 128k Log Swept Sine, 1 sweep at -12.0 dBFS using an acoustic timing reference
* Dated: 2022. 10. 24 오후 10:47:55
* REW Settings:
*  C-weighting compensation: Off
*  Target level: 75.0 dB
* Note: Delay -1.1263 ms (-386 mm, -(1 ft 3.21 in)) using estimated IR delay relative to Acoustic reference played from  R with no timing offset Clock adjustment: 0.1 ppm
* Measurement: 수월우 무명 L - 솜
* Smoothing: 1/24 octave
* Frequency Step: 1/48 octave
* Start Frequency: 20.300 Hz
*
* Freq(Hz)	SPL(dB)	Phase(degrees)
20.299999	57.949	-58.1135
20.600000	57.218	-65.6460
20.900000	55.335	-77.4766
21.200001	52.657	-81.1818
21.400000	50.376	-73.4383
21.799999	47.581	-40.4629
22.000000	47.948	-22.8254
22.400000	51.513	-6.9066
22.700001	53.478	-14.0667
23.000000	54.704	-27.5139
23.299999	55.428	-40.4836
23.600000	55.839	-51.0810
24.000000	56.266	-60.5585
24.299999	56.801	-64.5084
24.700001	57.999	-67.4404
25.000000	59.135	-69.7307
25.400000	60.632	-74.3806
25.799999	61.835	-80.7141
26.200001	62.652	-87.5828
26.500000	63.021	-92.4211
26.900000	63.221	-97.9153
27.200001	63.182	-101.0150
27.600000	62.937	-103.3586
28.000000	62.608	-103.2261
28.500000	62.463	-100.1426
29.000000	62.930	-97.1234
29.500000	63.667	-97.9004
30.000000	64.036	-102.8676
30.400000	63.852	-107.5040
30.700001	63.453	-109.7418
31.100000	62.819	-109.6626
31.500000	62.517	-106.6199
32.000000	63.055	-102.6659
32.500000	64.083	-102.9001
33.000000	64.863	-107.2252
33.500000	65.254	-112.5444
34.000000	65.439	-116.7557
34.500000	65.591	-119.9739
35.000000	65.683	-122.7856
35.500000	65.645	-124.6236
36.000000	65.624	-124.4956
36.500000	65.915	-123.0211
37.000000	66.551	-122.5017
37.500000	67.219	-124.3231
38.200001	67.810	-129.0437
38.700001	68.066	-132.0515
39.500000	68.502	-136.2827
40.000000	68.700	-139.1750
40.599998	68.762	-141.8095
41.200001	68.840	-142.3925
41.799999	69.143	-142.1610
42.500000	69.545	-142.9752
43.099998	69.679	-143.7416
43.700001	69.747	-143.1810
44.400002	69.996	-141.8288
45.000000	70.283	-141.6222
45.500000	70.452	-142.1376
46.200001	70.589	-143.0787
46.799999	70.711	-143.9054
47.500000	70.911	-145.4356
48.200001	71.092	-147.7006
48.700001	71.179	-149.2265
49.400002	71.370	-150.3232
50.000000	71.762	-150.7364
50.799999	72.455	-152.7225
51.500000	72.826	-155.5923
52.200001	72.973	-157.1019
53.000000	73.247	-156.9182
53.799999	73.612	-157.2337
54.500000	73.791	-157.8936
55.200001	73.930	-158.0391
56.000000	74.173	-158.4534
57.000000	74.428	-160.2801
58.000000	74.618	-162.2585
59.000000	74.857	-164.2445
60.000000	75.094	-166.0387
60.799999	75.281	-166.8744
61.500000	75.490	-167.0571
62.200001	75.774	-167.1548
63.000000	76.110	-167.9229
64.000000	76.353	-169.6541
65.000000	76.431	-171.0826
66.000000	76.484	-171.9768
67.000000	76.649	-172.5340
68.000000	76.967	-173.6569
69.000000	77.300	-175.4963
70.000000	77.606	-177.3996
71.000000	77.865	-179.1683
72.000000	78.063	179.5179
73.000000	78.247	178.5922
74.000000	78.414	177.6620
75.000000	78.548	176.5786
76.199997	78.660	175.1212
77.500000	78.776	173.5554
78.800003	78.907	171.9822
80.000000	79.082	170.8419
81.199997	79.330	169.4647
82.500000	79.549	167.5852
83.800003	79.694	165.9789
85.000000	79.830	164.8820
86.199997	79.998	163.8669
87.500000	80.177	162.5961
88.500000	80.288	161.6622
90.000000	80.446	160.4325
91.199997	80.567	159.5503
92.500000	80.715	158.5278
93.800003	80.843	157.3008
95.000000	80.942	156.1543
96.199997	81.017	155.0710
97.500000	81.089	154.1228
98.800003	81.169	153.2269
100.000000	81.228	152.2746
101.500000	81.266	151.0817
103.000000	81.330	149.9227
104.400002	81.429	148.6027
106.000000	81.537	146.9336
107.500000	81.593	145.7540
109.000000	81.635	145.3038
110.599998	81.700	145.1716
112.000000	81.760	144.8605
113.800003	81.809	143.6895
115.000000	81.799	142.6984
117.199997	81.814	141.5947
118.000000	81.857	141.4115
120.599998	81.967	140.7906
122.000000	81.924	140.6717
124.099998	81.844	140.6457
125.000000	81.838	140.5393
126.500000	81.882	140.1174
128.000000	81.951	139.5296
131.500000	82.029	138.9693
132.000000	82.019	138.9559
134.000000	81.954	139.1029
136.000000	81.950	139.1123
138.000000	82.010	138.7663
140.000000	82.079	138.2504
143.000000	82.088	137.5099
145.000000	82.069	137.3553
147.500000	82.092	137.5574
150.000000	82.145	137.9492
152.500000	82.158	137.8623
155.000000	82.129	137.6248
157.500000	82.171	137.6948
160.000000	82.250	138.1078
162.500000	82.265	138.6287
165.000000	82.220	138.9747
167.500000	82.193	138.9745
170.000000	82.200	139.0346
172.500000	82.222	139.4827
175.000000	82.209	139.9146
177.500000	82.166	140.0357
180.000000	82.140	140.0718
182.500000	82.147	140.4180
185.000000	82.126	141.0806
187.500000	82.070	141.8038
190.000000	82.008	142.4626
192.500000	81.982	143.2992
195.000000	81.982	144.2478
197.500000	81.973	145.1645
200.000000	81.976	146.0247
203.000000	82.035	146.8973
206.000000	82.096	147.6891
209.000000	82.135	148.7205
212.000000	82.172	149.8519
214.000000	82.189	150.5647
218.000000	82.190	151.8546
220.000000	82.183	152.5006
224.000000	82.182	154.0007
227.000000	82.192	155.2808
230.000000	82.200	156.4040
233.000000	82.212	157.3043
236.000000	82.248	158.2288
240.000000	82.324	159.5965
243.000000	82.365	160.5910
247.000000	82.405	162.0843
250.000000	82.439	163.3055
254.000000	82.470	164.7510
258.000000	82.484	166.1843
262.000000	82.558	167.7866
265.000000	82.642	168.9955
269.000000	82.722	170.6451
272.000000	82.757	171.8097
276.000000	82.799	173.2830
280.000000	82.844	174.7904
285.000000	82.924	176.6629
290.000000	83.024	178.6802
295.000000	83.124	-179.4803
300.000000	83.242	-177.7619
304.000000	83.349	-176.3378
307.000000	83.431	-175.2597
311.000000	83.538	-173.8920
315.000000	83.658	-172.5271
320.000000	83.839	-171.0014
325.000000	84.049	-170.1726
330.000000	84.205	-170.4739
335.000000	84.135	-171.1717
340.000000	83.810	-170.6947
345.000000	83.466	-168.6896
350.000000	83.306	-166.0458
355.000000	83.269	-163.5822
360.000000	83.259	-161.6963
365.000000	83.210	-160.4500
370.000000	83.023	-159.4310
375.000000	82.625	-157.7925
382.000000	81.934	-151.5959
387.000000	81.848	-144.7717
395.000000	82.451	-136.3052
400.000000	82.865	-133.3588
406.000000	83.252	-130.9279
412.000000	83.512	-128.7996
418.000000	83.696	-126.7031
425.000000	83.883	-124.1829
431.000000	84.004	-121.8883
437.000000	84.110	-119.5854
444.000000	84.232	-116.9737
450.000000	84.334	-114.7008
455.000000	84.414	-112.7773
462.000000	84.522	-110.0545
468.000000	84.609	-107.6891
475.000000	84.709	-104.9217
482.000000	84.805	-102.0764
487.000000	84.869	-99.9745
494.000000	84.960	-97.0050
500.000000	85.033	-94.4724
508.000000	85.136	-91.1882
515.000000	85.229	-88.4610
522.000000	85.314	-85.7012
530.000000	85.411	-82.4698
538.000000	85.521	-79.1695
545.000000	85.609	-76.2596
552.000000	85.695	-73.4034
560.000000	85.786	-70.1458
570.000000	85.912	-66.0434
580.000000	86.053	-62.0338
590.000000	86.178	-58.0928
600.000000	86.295	-54.1186
608.000000	86.390	-50.9075
615.000000	86.467	-48.1507
622.000000	86.542	-45.4655
630.000000	86.630	-42.4039
640.000000	86.731	-38.4789
650.000000	86.818	-34.5020
660.000000	86.893	-30.5551
670.000000	86.957	-26.5340
680.000000	87.030	-22.4041
690.000000	87.113	-18.2269
700.000000	87.200	-14.0163
710.000000	87.303	-9.7849
720.000000	87.414	-5.5501
730.000000	87.531	-1.3828
740.000000	87.646	2.6963
750.000000	87.752	6.6872
762.000000	87.865	11.4066
775.000000	87.988	16.5478
788.000000	88.114	21.7677
800.000000	88.218	26.6560
812.000000	88.317	31.5499
825.000000	88.428	36.8139
838.000000	88.542	42.0654
850.000000	88.640	46.9550
862.000000	88.739	51.8718
875.000000	88.850	57.1969
885.000000	88.942	61.2960
900.000000	89.091	67.4157
912.000000	89.204	72.2437
925.000000	89.316	77.4336
938.000000	89.421	82.6365
950.000000	89.516	87.4607
962.000000	89.610	92.3175
975.000000	89.706	97.5992
988.000000	89.804	102.9056
1000.000000	89.901	107.8283
1015.000000	90.022	113.9815
1030.000000	90.142	120.1425
1044.000000	90.256	125.9179
1060.000000	90.384	132.5006
1075.000000	90.506	138.6656
1090.000000	90.631	144.8759
1106.000000	90.766	151.5093
1120.000000	90.892	157.3119
1138.000000	91.062	164.7680
1150.000000	91.179	169.7320
1172.000000	91.400	178.7846
1180.000000	91.483	-177.9348
1206.000000	91.756	-167.3470
1220.000000	91.903	-161.6965
1241.000000	92.122	-153.2903
1250.000000	92.214	-149.7158
1265.000000	92.363	-143.7845
1280.000000	92.505	-137.8583
1315.000000	92.813	-123.9653
1320.000000	92.855	-121.9681
1340.000000	93.024	-113.9339
1360.000000	93.193	-105.8182
1380.000000	93.369	-97.5990
1400.000000	93.561	-89.2825
1430.000000	93.902	-76.7859
1450.000000	94.158	-68.5547
1475.000000	94.502	-58.3884
1500.000000	94.870	-48.4149
1525.000000	95.246	-38.7044
1550.000000	95.612	-29.1963
1575.000000	95.980	-19.7814
1600.000000	96.358	-10.5391
1625.000000	96.734	-1.5232
1650.000000	97.098	7.2804
1675.000000	97.446	15.9433
1700.000000	97.787	24.4735
1725.000000	98.116	32.8167
1750.000000	98.425	40.9810
1775.000000	98.713	49.0444
1800.000000	98.984	57.0035
1825.000000	99.237	64.8046
1850.000000	99.462	72.4581
1875.000000	99.651	80.0166
1900.000000	99.807	87.5402
1925.000000	99.934	95.0255
1950.000000	100.028	102.4784
1975.000000	100.084	109.9658
2000.000000	100.109	117.5600
2030.000000	100.114	126.8163
2060.000000	100.093	136.1602
2090.000000	100.041	145.6131
2120.000000	99.962	155.2364
2140.000000	99.900	161.7363
2180.000000	99.753	174.9080
2200.000000	99.666	-178.4048
2240.000000	99.475	-164.7941
2270.000000	99.321	-154.4080
2300.000000	99.155	-143.8331
2330.000000	98.987	-133.0106
2360.000000	98.834	-121.9913
2400.000000	98.658	-107.1544
2430.000000	98.542	-95.9840
2470.000000	98.403	-81.0842
2500.000000	98.300	-69.9373
2540.000000	98.156	-55.0377
2580.000000	98.010	-40.0633
2620.000000	97.861	-25.0516
2650.000000	97.747	-13.7369
2690.000000	97.592	1.4188
2720.000000	97.473	12.8497
2760.000000	97.317	28.1674
2800.000000	97.165	43.5472
2850.000000	96.979	62.8352
2900.000000	96.790	82.2001
2950.000000	96.599	101.6735
3000.000000	96.411	121.2514
3040.000000	96.265	136.9985
3070.000000	96.159	148.8308
3110.000000	96.017	164.6427
3150.000000	95.883	-179.4998
3200.000000	95.723	-159.7457
3250.000000	95.542	-140.1260
3300.000000	95.298	-120.4990
3350.000000	94.952	-100.2565
3400.000000	94.634	-78.4148
3450.000000	94.605	-56.2336
3500.000000	94.691	-35.3330
3550.000000	94.717	-15.1042
3600.000000	94.695	5.0046
3650.000000	94.639	25.1356
3700.000000	94.565	45.3962
3750.000000	94.490	65.7867
3820.000000	94.401	94.4626
3870.000000	94.338	114.9818
3950.000000	94.248	148.0406
4000.000000	94.210	168.7649
4060.000000	94.179	-166.3389
4120.000000	94.158	-141.4463
4180.000000	94.129	-116.4906
4250.000000	94.110	-87.0042
4310.000000	94.158	-61.6101
4370.000000	94.242	-36.4080
4440.000000	94.327	-7.1279
4500.000000	94.386	18.2732
4550.000000	94.485	39.8040
4620.000000	94.764	69.9493
4680.000000	95.083	95.2356
4750.000000	95.462	124.1655
4820.000000	95.841	152.8459
4870.000000	96.132	173.2081
4940.000000	96.559	-158.5991
5000.000000	96.931	-134.7152
5080.000000	97.440	-103.1736
5150.000000	97.899	-75.9598
5220.000000	98.349	-49.1553
5300.000000	98.845	-18.8225
5380.000000	99.342	11.1694
5450.000000	99.782	37.0842
5520.000000	100.234	62.5984
5600.000000	100.737	90.9600
5700.000000	101.243	125.2642
5800.000000	101.590	158.8745
5900.000000	101.777	-168.2065
6000.000000	101.726	-135.7163
6080.000000	101.498	-109.4126
6150.000000	101.204	-85.8970
6220.000000	100.848	-61.9077
6300.000000	100.388	-33.8467
6400.000000	99.801	2.0903
6500.000000	99.242	38.4971
6600.000000	98.683	74.9917
6700.000000	98.070	111.5759
6800.000000	97.389	148.4536
6900.000000	96.630	-174.3928
7000.000000	95.737	-136.5317
7100.000000	94.755	-97.2729
7200.000000	93.789	-56.6621
7300.000000	92.892	-14.8550
7400.000000	92.128	27.8484
7500.000000	91.499	71.0557
7620.000000	90.943	123.4602
7750.000000	90.600	179.9370
7880.000000	90.334	-123.9609
8000.000000	90.239	-71.4927
8120.000000	90.414	-19.6599
8250.000000	90.682	35.2271
8380.000000	91.070	89.6968
8500.000000	91.632	138.5854
8620.000000	92.111	-175.5588
8750.000000	91.994	-126.8574
8850.000000	91.681	-85.5220
9000.000000	92.268	-21.7283
9120.000000	92.984	23.9958
9250.000000	93.310	70.6377
9380.000000	93.248	117.1152
9500.000000	92.944	160.2981
9620.000000	92.338	-155.7542
9750.000000	91.356	-105.3638
9880.000000	90.335	-51.3298
10000.000000	89.604	1.2893
10150.000000	89.319	69.6392
10300.000000	89.963	137.7646
10440.000000	91.122	-161.5208
10600.000000	92.675	-96.4409
10750.000000	94.046	-39.5757
10900.000000	95.140	14.1738
11060.000000	95.932	69.5205
11200.000000	96.331	117.2725
11380.000000	96.513	178.7583
11500.000000	96.506	-139.9849
11720.000000	96.293	-64.5879
11800.000000	96.107	-37.3057
12060.000000	95.027	53.1670
12200.000000	94.313	103.4346
12410.000000	93.184	-179.8970
12500.000000	92.676	-146.5103
12650.000000	91.833	-90.2266
12800.000000	91.004	-33.3682
13150.000000	89.035	102.5674
13200.000000	88.778	122.5396
13400.000000	87.996	-156.8384
13600.000000	87.596	-76.6387
13800.000000	87.361	2.9639
14000.000000	87.428	82.7627
14300.000000	88.284	-161.9731
14500.000000	88.821	-90.1094
14750.000000	88.999	-4.2163
15000.000000	88.488	80.1929
15250.000000	87.396	165.8760
15500.000000	85.980	-106.5630
15750.000000	84.357	-17.8120
16000.000000	82.382	72.7930
16250.000000	79.950	169.0566
16500.000000	77.710	-85.0669
16750.000000	77.723	23.9551
17000.000000	79.348	120.7764
17250.000000	80.069	-156.6074
17500.000000	79.248	-77.0229
17750.000000	77.215	9.3125
18000.000000	74.918	104.4307
18250.000000	73.620	-157.3472
18500.000000	73.490	-64.0049
18750.000000	73.491	21.8706
19000.000000	73.087	102.5952
19250.000000	72.367	179.3760
19500.000000	71.411	-110.5352
19750.000000	70.082	-53.1162
20000.000000	68.930	-21.7554
