* Measurement data measured by REW V5.20.7
* Source: Mic in at rear panel (Pink)(Realtek(R) Audio), MICROPHONE (마스), L, volume: 1.000
* Format: 128k Log Swept Sine, 1 sweep at -12.0 dBFS with no timing reference
* Dated: 2022. 5. 13 오후 9:48:17
* REW Settings:
*  C-weighting compensation: Off
*  Target level: 75.0 dB
* Note: 
* Measurement: L
* Smoothing: 1/24 octave
* Frequency Step: 1/48 octave
* Start Frequency: 20.300 Hz
*
* Freq(Hz)	SPL(dB)	Phase(degrees)
20.299999	87.122	-150.2222
20.600000	87.131	-150.6566
20.900000	87.144	-151.4025
21.200001	87.148	-152.0339
21.400000	87.149	-152.4028
21.799999	87.149	-153.1047
22.000000	87.150	-153.4711
22.400000	87.153	-154.2575
22.700001	87.158	-154.8929
23.000000	87.166	-155.5592
23.299999	87.170	-156.2390
23.600000	87.170	-156.9173
24.000000	87.166	-157.7966
24.299999	87.165	-158.4230
24.700001	87.167	-159.2044
25.000000	87.174	-159.7551
25.400000	87.194	-160.4653
25.799999	87.227	-161.1907
26.200001	87.268	-161.9668
26.500000	87.295	-162.5834
26.900000	87.319	-163.4263
27.200001	87.325	-164.0425
27.600000	87.318	-164.8022
28.000000	87.302	-165.4650
28.500000	87.277	-166.1716
29.000000	87.258	-166.8152
29.500000	87.249	-167.4748
30.000000	87.236	-168.1874
30.400000	87.217	-168.7806
30.700001	87.201	-169.2213
31.100000	87.182	-169.7807
31.500000	87.164	-170.2972
32.000000	87.150	-170.8953
32.500000	87.151	-171.4860
33.000000	87.163	-172.1228
33.500000	87.175	-172.8234
34.000000	87.178	-173.5541
34.500000	87.172	-174.2527
35.000000	87.164	-174.8835
35.500000	87.159	-175.4611
36.000000	87.156	-176.0183
36.500000	87.146	-176.5532
37.000000	87.131	-177.0410
37.500000	87.114	-177.4930
38.200001	87.093	-178.1583
38.700001	87.072	-178.6525
39.500000	87.025	-179.3104
40.000000	87.002	-179.6946
40.599998	86.975	179.7132
41.200001	86.922	179.0672
41.799999	86.869	178.5874
42.500000	86.877	178.0004
43.099998	86.912	176.9696
43.700001	86.872	175.6436
44.400002	86.726	174.7079
45.000000	86.630	174.7381
45.500000	86.628	174.9130
46.200001	86.684	174.7879
46.799999	86.714	174.4019
47.500000	86.724	173.9816
48.200001	86.733	173.5731
48.700001	86.729	173.2399
49.400002	86.695	172.7922
50.000000	86.655	172.4443
50.799999	86.598	171.8977
51.500000	86.528	171.3521
52.200001	86.450	170.9139
53.000000	86.397	170.5669
53.799999	86.388	170.1353
54.500000	86.379	169.6408
55.200001	86.361	169.1985
56.000000	86.349	168.7488
57.000000	86.313	168.1115
58.000000	86.243	167.7321
59.000000	86.199	167.2991
60.000000	86.120	166.6806
60.799999	86.067	166.3994
61.500000	86.057	166.0462
62.200001	86.035	165.4886
63.000000	85.975	164.9855
64.000000	85.933	164.7451
65.000000	85.950	164.3676
66.000000	85.942	163.7944
67.000000	85.904	163.3833
68.000000	85.869	162.9775
69.000000	85.793	162.4903
70.000000	85.703	162.2736
71.000000	85.670	162.0026
72.000000	85.631	161.3963
73.000000	85.554	160.9673
74.000000	85.510	160.8309
75.000000	85.506	160.5652
76.199997	85.474	159.9512
77.500000	85.352	159.4278
78.800003	85.250	159.2786
80.000000	85.151	158.8232
81.199997	85.040	158.7946
82.500000	85.026	158.4426
83.800003	84.949	157.8684
85.000000	84.916	157.8401
86.199997	84.906	157.4974
87.500000	84.827	157.2034
88.500000	84.783	157.1636
90.000000	84.725	156.8091
91.199997	84.664	156.5586
92.500000	84.609	156.2270
93.800003	84.545	155.9953
95.000000	84.515	155.8376
96.199997	84.491	155.5542
97.500000	84.463	155.1401
98.800003	84.400	154.6784
100.000000	84.336	154.5044
101.500000	84.276	154.1955
103.000000	84.166	154.0060
104.400002	84.094	153.9926
106.000000	84.034	153.6891
107.500000	83.981	153.2958
109.000000	83.930	153.0997
110.599998	83.899	153.2105
112.000000	83.855	153.2787
113.800003	83.722	153.2306
115.000000	83.636	152.9302
117.199997	83.547	150.7458
118.000000	83.500	149.5045
120.599998	83.155	148.1439
122.000000	83.180	149.6284
124.099998	83.287	150.9082
125.000000	83.268	151.3739
126.500000	83.232	152.0158
128.000000	83.202	151.8131
131.500000	83.003	151.1461
132.000000	83.004	151.1482
134.000000	82.992	150.8664
136.000000	82.895	150.8768
138.000000	82.846	151.0767
140.000000	82.804	150.7557
143.000000	82.656	150.6645
145.000000	82.589	150.7119
147.500000	82.503	150.5757
150.000000	82.424	150.5811
152.500000	82.367	150.6867
155.000000	82.312	150.6544
157.500000	82.257	150.5811
160.000000	82.235	150.5225
162.500000	82.187	150.4140
165.000000	82.109	150.5284
167.500000	82.053	150.5845
170.000000	81.979	150.4217
172.500000	81.871	150.0640
175.000000	81.722	149.8582
177.500000	81.661	150.1693
180.000000	81.671	150.3482
182.500000	81.640	150.4787
185.000000	81.565	150.5826
187.500000	81.485	150.6462
190.000000	81.423	150.6746
192.500000	81.365	150.6487
195.000000	81.306	150.6098
197.500000	81.266	150.6710
200.000000	81.253	150.6837
203.000000	81.222	150.6069
206.000000	81.172	150.6057
209.000000	81.100	150.6640
212.000000	81.025	150.7580
214.000000	80.995	150.7935
218.000000	80.948	150.8138
220.000000	80.908	150.8382
224.000000	80.821	150.8916
227.000000	80.772	150.9335
230.000000	80.720	151.0396
233.000000	80.666	151.1941
236.000000	80.617	151.3566
240.000000	80.558	151.4974
243.000000	80.519	151.5163
247.000000	80.478	151.6486
250.000000	80.438	151.8138
254.000000	80.365	151.8404
258.000000	80.291	151.8400
262.000000	80.228	151.9561
265.000000	80.188	152.0432
269.000000	80.140	152.2586
272.000000	80.100	152.4531
276.000000	80.043	152.6259
280.000000	79.993	152.7566
285.000000	79.938	152.9370
290.000000	79.869	153.2004
295.000000	79.811	153.4256
300.000000	79.761	153.6078
304.000000	79.706	153.8126
307.000000	79.664	153.9449
311.000000	79.614	154.1057
315.000000	79.577	154.2916
320.000000	79.543	154.4872
325.000000	79.500	154.7312
330.000000	79.449	155.0475
335.000000	79.397	155.3674
340.000000	79.359	155.5824
345.000000	79.333	155.7053
350.000000	79.308	155.8995
355.000000	79.274	156.2061
360.000000	79.234	156.4736
365.000000	79.182	156.6694
370.000000	79.132	156.9171
375.000000	79.091	157.2313
382.000000	79.039	157.6656
387.000000	79.005	157.9393
395.000000	78.971	158.2624
400.000000	78.948	158.4272
406.000000	78.908	158.7962
412.000000	78.871	159.1169
418.000000	78.843	159.3271
425.000000	78.821	159.6696
431.000000	78.800	159.9318
437.000000	78.771	160.2478
444.000000	78.731	160.6094
450.000000	78.697	160.8839
455.000000	78.675	161.0898
462.000000	78.656	161.3908
468.000000	78.637	161.6902
475.000000	78.622	162.0950
482.000000	78.605	162.4263
487.000000	78.588	162.6253
494.000000	78.569	162.9921
500.000000	78.557	163.3278
508.000000	78.529	163.7500
515.000000	78.506	164.1206
522.000000	78.488	164.4260
530.000000	78.473	164.7169
538.000000	78.456	165.0785
545.000000	78.434	165.4296
552.000000	78.419	165.8168
560.000000	78.405	166.3303
570.000000	78.405	166.7950
580.000000	78.415	167.1693
590.000000	78.386	167.6666
600.000000	78.356	168.1787
608.000000	78.348	168.5742
615.000000	78.347	168.9164
622.000000	78.349	169.2722
630.000000	78.353	169.6740
640.000000	78.356	170.1554
650.000000	78.364	170.6736
660.000000	78.370	171.2351
670.000000	78.374	171.7455
680.000000	78.383	172.1518
690.000000	78.389	172.6092
700.000000	78.391	173.1925
710.000000	78.397	173.7094
720.000000	78.406	174.1671
730.000000	78.419	174.6721
740.000000	78.444	175.1249
750.000000	78.479	175.5772
762.000000	78.513	176.1771
775.000000	78.536	176.8269
788.000000	78.573	177.4733
800.000000	78.615	178.0837
812.000000	78.662	178.6522
825.000000	78.704	179.2967
838.000000	78.767	179.9925
850.000000	78.822	-179.4403
862.000000	78.866	-178.9427
875.000000	78.916	-178.3699
885.000000	78.961	-177.9231
900.000000	79.036	-177.2656
912.000000	79.098	-176.7879
925.000000	79.173	-176.2417
938.000000	79.250	-175.7224
950.000000	79.324	-175.2834
962.000000	79.394	-174.8208
975.000000	79.466	-174.3495
988.000000	79.546	-173.9951
1000.000000	79.630	-173.6400
1015.000000	79.742	-172.9262
1030.000000	79.859	-172.3044
1044.000000	79.968	-171.8848
1060.000000	80.089	-171.4016
1075.000000	80.211	-171.0110
1090.000000	80.336	-170.6873
1106.000000	80.478	-170.3114
1120.000000	80.608	-170.0050
1138.000000	80.778	-169.7200
1150.000000	80.890	-169.5667
1172.000000	81.083	-169.3863
1180.000000	81.149	-169.3454
1206.000000	81.364	-169.1929
1220.000000	81.469	-169.1421
1241.000000	81.617	-169.2384
1250.000000	81.681	-169.3188
1265.000000	81.803	-169.4778
1280.000000	81.951	-169.6599
1315.000000	82.347	-170.0795
1320.000000	82.404	-170.1514
1340.000000	82.616	-170.4907
1360.000000	82.803	-170.8297
1380.000000	82.959	-171.0853
1400.000000	83.091	-171.2867
1430.000000	83.256	-171.5948
1450.000000	83.359	-171.8145
1475.000000	83.498	-172.0517
1500.000000	83.637	-172.2556
1525.000000	83.768	-172.4684
1550.000000	83.896	-172.6870
1575.000000	84.038	-172.9178
1600.000000	84.186	-173.1618
1625.000000	84.329	-173.4265
1650.000000	84.472	-173.6808
1675.000000	84.611	-173.9851
1700.000000	84.754	-174.3182
1725.000000	84.898	-174.6049
1750.000000	85.037	-174.9123
1775.000000	85.167	-175.2242
1800.000000	85.294	-175.5325
1825.000000	85.417	-175.8549
1850.000000	85.533	-176.1135
1875.000000	85.646	-176.2280
1900.000000	85.762	-176.1880
1925.000000	85.909	-175.9670
1950.000000	86.114	-175.6813
1975.000000	86.382	-175.6625
2000.000000	86.675	-176.1364
2030.000000	86.989	-177.2424
2060.000000	87.235	-178.6625
2090.000000	87.422	179.8527
2120.000000	87.573	178.4810
2140.000000	87.663	177.6345
2180.000000	87.827	176.0771
2200.000000	87.904	175.3601
2240.000000	88.070	173.9443
2270.000000	88.204	172.7891
2300.000000	88.329	171.5126
2330.000000	88.437	170.1448
2360.000000	88.526	168.7549
2400.000000	88.611	166.9415
2430.000000	88.656	165.6129
2470.000000	88.700	163.9063
2500.000000	88.721	162.6940
2540.000000	88.739	161.1135
2580.000000	88.744	159.5591
2620.000000	88.735	158.0433
2650.000000	88.720	156.9293
2690.000000	88.685	155.5068
2720.000000	88.649	154.4824
2760.000000	88.596	153.1648
2800.000000	88.535	151.8970
2850.000000	88.437	150.3630
2900.000000	88.323	148.8638
2950.000000	88.164	147.5264
3000.000000	87.978	146.5709
3040.000000	87.833	146.1047
3070.000000	87.737	145.8282
3110.000000	87.632	145.4434
3150.000000	87.538	144.9945
3200.000000	87.404	144.3262
3250.000000	87.229	143.7050
3300.000000	87.008	143.4026
3350.000000	86.775	143.7003
3400.000000	86.605	144.5557
3450.000000	86.528	145.5765
3500.000000	86.516	146.3765
3550.000000	86.540	146.9085
3600.000000	86.575	147.2480
3650.000000	86.607	147.4583
3700.000000	86.640	147.5944
3750.000000	86.674	147.6493
3820.000000	86.717	147.5754
3870.000000	86.746	147.4689
3950.000000	86.782	147.1818
4000.000000	86.805	147.0076
4060.000000	86.836	146.8307
4120.000000	86.864	146.6112
4180.000000	86.887	146.3954
4250.000000	86.909	146.0689
4310.000000	86.919	145.6143
4370.000000	86.931	145.0700
4440.000000	86.961	144.3465
4500.000000	87.001	143.6116
4550.000000	87.038	142.9216
4620.000000	87.084	141.8230
4680.000000	87.108	140.7695
4750.000000	87.115	139.4595
4820.000000	87.089	138.0552
4870.000000	87.049	137.0212
4940.000000	86.969	135.5809
5000.000000	86.872	134.3584
5080.000000	86.698	132.7681
5150.000000	86.515	131.4952
5220.000000	86.309	130.3530
5300.000000	86.043	129.2488
5380.000000	85.750	128.4117
5450.000000	85.478	127.8766
5520.000000	85.205	127.5160
5600.000000	84.905	127.3370
5700.000000	84.533	127.3547
5800.000000	84.146	127.6255
5900.000000	83.765	128.2992
6000.000000	83.418	129.2820
6080.000000	83.176	130.2892
6150.000000	82.988	131.3091
6220.000000	82.815	132.3995
6300.000000	82.632	133.7490
6400.000000	82.431	135.6768
6500.000000	82.272	137.8224
6600.000000	82.159	140.1316
6700.000000	82.099	142.5540
6800.000000	82.094	145.0356
6900.000000	82.140	147.5702
7000.000000	82.246	150.1371
7100.000000	82.416	152.6320
7200.000000	82.668	155.0329
7300.000000	83.012	157.2285
7400.000000	83.441	159.0342
7500.000000	83.937	160.3670
7620.000000	84.594	161.0633
7750.000000	85.324	160.2840
7880.000000	85.953	157.6008
8000.000000	86.341	153.1857
8120.000000	86.460	147.1398
8250.000000	86.196	139.7418
8380.000000	85.515	132.8170
8500.000000	84.596	127.9191
8620.000000	83.510	124.9088
8750.000000	82.252	123.6631
8850.000000	81.286	123.9092
9000.000000	79.932	125.7932
9120.000000	78.951	128.3419
9250.000000	77.982	131.8459
9380.000000	77.115	135.8833
9500.000000	76.400	140.0636
9620.000000	75.748	144.5392
9750.000000	75.108	149.6482
9880.000000	74.547	154.9651
10000.000000	74.096	159.9542
10150.000000	73.613	166.3450
10300.000000	73.242	172.9502
10440.000000	72.984	179.2839
10600.000000	72.763	-173.2100
10750.000000	72.634	-165.9323
10900.000000	72.605	-158.3242
11060.000000	72.747	-149.6503
11200.000000	73.085	-141.5286
11380.000000	73.949	-130.4013
11500.000000	74.904	-123.0232
11720.000000	77.567	-112.2495
11800.000000	78.753	-110.0830
12060.000000	82.675	-112.7848
12200.000000	84.440	-121.2392
12410.000000	85.957	-142.5189
12500.000000	86.039	-153.3266
12650.000000	85.380	-169.9268
12800.000000	83.928	178.4037
13150.000000	79.560	171.2646
13200.000000	78.976	171.7951
13400.000000	76.868	176.0463
13600.000000	75.110	-177.5312
13800.000000	73.680	-169.9665
14000.000000	72.561	-161.7251
14300.000000	71.424	-148.5250
14500.000000	70.972	-139.5443
14750.000000	70.712	-128.4634
15000.000000	70.740	-117.9226
15250.000000	71.066	-108.2648
15500.000000	71.720	-100.0121
15750.000000	72.824	-94.3331
16000.000000	74.396	-93.0915
16250.000000	75.938	-99.1892
16500.000000	76.611	-113.0337
16750.000000	75.910	-128.4577
17000.000000	74.060	-137.8356
17250.000000	71.765	-139.5534
17500.000000	69.643	-136.1549
17750.000000	67.888	-130.1117
18000.000000	66.514	-122.7626
18250.000000	65.490	-115.5144
18500.000000	64.603	-110.1071
18750.000000	63.330	-103.2598
19000.000000	61.940	-89.8621
19250.000000	61.382	-77.9151
19500.000000	60.911	-69.7533
19750.000000	60.125	-63.2495
20000.000000	59.429	-59.5226
