* Measurement data measured by REW V5.20.5
* Source: Mic in at rear panel (Pink)(Realtek(R) Audio), MICROPHONE (마스), L, volume: 1.000
* Format: 128k Log Swept Sine, 1 sweep at -12.0 dBFS with no timing reference
* Dated: 2022. 4. 11 오후 1:12:30
* REW Settings:
*  C-weighting compensation: Off
*  Target level: 75.0 dB
* Note: 
* Measurement: L
* Smoothing: 1/24 octave
* Frequency Step: 1/48 octave
* Start Frequency: 20.300 Hz
*
* Freq(Hz)	SPL(dB)	Phase(degrees)
20.299999	77.303	-145.7666
20.600000	77.301	-146.1672
20.900000	77.293	-146.8371
21.200001	77.278	-147.3549
21.400000	77.270	-147.6325
21.799999	77.264	-148.1529
22.000000	77.267	-148.4529
22.400000	77.280	-149.2011
22.700001	77.287	-149.8892
23.000000	77.286	-150.6325
23.299999	77.272	-151.3404
23.600000	77.251	-151.9462
24.000000	77.236	-152.5567
24.299999	77.252	-152.9231
24.700001	77.318	-153.4518
25.000000	77.388	-153.9953
25.400000	77.480	-154.9760
25.799999	77.538	-156.1349
26.200001	77.551	-157.2184
26.500000	77.538	-157.8382
26.900000	77.518	-158.3474
27.200001	77.518	-158.5585
27.600000	77.550	-158.7985
28.000000	77.603	-159.2061
28.500000	77.645	-160.0524
29.000000	77.623	-161.0350
29.500000	77.550	-161.8205
30.000000	77.473	-162.3050
30.400000	77.434	-162.6127
30.700001	77.424	-162.8990
31.100000	77.425	-163.4405
31.500000	77.421	-164.1570
32.000000	77.390	-165.1467
32.500000	77.340	-166.0239
33.000000	77.303	-166.7043
33.500000	77.292	-167.2852
34.000000	77.301	-167.8617
34.500000	77.318	-168.3797
35.000000	77.354	-168.7686
35.500000	77.424	-169.1396
36.000000	77.506	-169.6955
36.500000	77.557	-170.4314
37.000000	77.559	-171.0971
37.500000	77.536	-171.5574
38.200001	77.497	-172.2087
38.700001	77.416	-172.7711
39.500000	77.162	-172.6062
40.000000	77.085	-171.6169
40.599998	77.203	-170.8026
41.200001	77.373	-171.6771
41.799999	77.372	-173.6424
42.500000	77.175	-175.3982
43.099998	77.028	-176.0473
43.700001	76.968	-176.5730
44.400002	76.939	-177.2849
45.000000	76.931	-177.7492
45.500000	76.952	-178.0714
46.200001	77.003	-178.6135
46.799999	77.035	-179.1001
47.500000	77.063	-179.5681
48.200001	77.079	-179.9927
48.700001	77.070	179.7460
49.400002	77.030	179.5093
50.000000	76.981	179.3717
50.799999	76.900	179.1961
51.500000	76.826	179.0736
52.200001	76.776	178.8502
53.000000	76.732	178.2915
53.799999	76.669	177.6314
54.500000	76.621	177.2038
55.200001	76.614	176.8530
56.000000	76.666	176.2591
57.000000	76.743	174.9300
58.000000	76.723	173.2982
59.000000	76.593	172.1555
60.000000	76.460	171.9495
60.799999	76.425	171.9915
61.500000	76.395	171.7750
62.200001	76.296	171.6390
63.000000	76.151	172.2176
64.000000	76.121	173.5837
65.000000	76.252	174.0604
66.000000	76.331	173.2394
67.000000	76.251	172.1555
68.000000	76.124	171.6216
69.000000	76.040	171.1510
70.000000	75.953	170.5424
71.000000	75.869	170.0558
72.000000	75.806	169.7004
73.000000	75.764	169.4413
74.000000	75.741	169.2033
75.000000	75.727	168.9342
76.199997	75.703	168.4995
77.500000	75.612	167.9568
78.800003	75.492	167.8148
80.000000	75.403	167.6006
81.199997	75.269	167.4688
82.500000	75.178	167.7948
83.800003	75.191	167.8182
85.000000	75.194	167.5422
86.199997	75.176	167.3115
87.500000	75.126	167.0360
88.500000	75.055	166.9438
90.000000	74.966	167.0696
91.199997	74.928	166.9431
92.500000	74.856	166.6184
93.800003	74.778	166.7854
95.000000	74.808	167.2297
96.199997	74.864	167.1491
97.500000	74.831	167.1149
98.800003	74.807	167.1857
100.000000	74.752	166.7328
101.500000	74.606	165.9554
103.000000	74.474	165.3042
104.400002	74.421	164.7321
106.000000	74.380	164.3857
107.500000	74.380	164.7667
109.000000	74.409	165.1808
110.599998	74.389	165.2752
112.000000	74.291	164.9268
113.800003	74.065	164.7717
115.000000	73.967	165.0018
117.199997	73.928	165.3129
118.000000	73.926	165.3774
120.599998	73.910	165.7489
122.000000	73.888	165.9493
124.099998	73.848	166.1725
125.000000	73.828	166.1810
126.500000	73.796	166.0649
128.000000	73.761	165.7032
131.500000	73.624	165.2341
132.000000	73.628	165.2509
134.000000	73.677	164.9866
136.000000	73.666	164.5220
138.000000	73.594	164.3806
140.000000	73.510	164.4543
143.000000	73.379	164.3262
145.000000	73.257	163.9458
147.500000	73.103	163.7117
150.000000	73.061	163.6976
152.500000	73.038	163.7597
155.000000	72.974	164.0067
157.500000	72.901	164.1140
160.000000	72.862	163.9836
162.500000	72.854	164.0839
165.000000	72.860	164.3943
167.500000	72.801	164.4909
170.000000	72.677	164.5613
172.500000	72.577	164.7200
175.000000	72.535	164.7704
177.500000	72.498	164.7871
180.000000	72.427	164.9474
182.500000	72.318	165.2977
185.000000	72.192	165.5696
187.500000	72.102	165.6686
190.000000	72.053	165.6393
192.500000	72.004	165.8469
195.000000	71.939	166.1612
197.500000	71.851	166.2721
200.000000	71.780	166.2419
203.000000	71.755	166.3488
206.000000	71.759	166.6792
209.000000	71.694	166.9103
212.000000	71.586	167.0887
214.000000	71.545	167.1848
218.000000	71.542	167.4630
220.000000	71.540	167.5631
224.000000	71.447	167.8646
227.000000	71.367	168.2667
230.000000	71.299	168.2671
233.000000	71.232	168.0266
236.000000	71.199	168.3103
240.000000	71.164	169.2953
243.000000	71.088	169.6540
247.000000	70.981	169.8578
250.000000	70.917	170.1102
254.000000	70.862	170.1711
258.000000	70.826	170.2881
262.000000	70.778	170.9902
265.000000	70.745	171.5092
269.000000	70.686	172.1309
272.000000	70.631	172.3484
276.000000	70.564	172.2144
280.000000	70.529	172.3765
285.000000	70.490	173.1327
290.000000	70.419	173.7577
295.000000	70.328	174.0755
300.000000	70.304	174.5682
304.000000	70.306	174.9747
307.000000	70.271	175.1622
311.000000	70.186	175.3821
315.000000	70.120	175.7275
320.000000	70.076	176.3604
325.000000	70.054	176.9822
330.000000	70.022	177.4627
335.000000	69.939	178.0213
340.000000	69.925	178.5583
345.000000	69.921	178.8054
350.000000	69.881	179.0912
355.000000	69.842	179.5822
360.000000	69.784	179.9680
365.000000	69.728	-179.6672
370.000000	69.697	-179.1369
375.000000	69.682	-178.5832
382.000000	69.662	-178.0157
387.000000	69.629	-177.6121
395.000000	69.574	-176.7617
400.000000	69.546	-176.4295
406.000000	69.531	-175.7699
412.000000	69.511	-174.9352
418.000000	69.475	-174.4745
425.000000	69.430	-174.0276
431.000000	69.418	-173.5261
437.000000	69.385	-173.0814
444.000000	69.364	-172.6087
450.000000	69.339	-172.1282
455.000000	69.309	-171.7610
462.000000	69.289	-171.1082
468.000000	69.279	-170.4218
475.000000	69.259	-169.7526
482.000000	69.251	-169.1352
487.000000	69.256	-168.6530
494.000000	69.232	-168.0664
500.000000	69.208	-167.6584
508.000000	69.200	-167.0675
515.000000	69.199	-166.4229
522.000000	69.188	-165.8263
530.000000	69.162	-165.2762
538.000000	69.134	-164.6142
545.000000	69.102	-163.9675
552.000000	69.058	-163.2612
560.000000	69.013	-162.4127
570.000000	69.038	-161.7183
580.000000	69.047	-160.9408
590.000000	69.004	-160.1804
600.000000	68.960	-159.4450
608.000000	68.945	-158.7434
615.000000	68.944	-158.1920
622.000000	68.950	-157.6366
630.000000	68.971	-156.9183
640.000000	68.968	-155.9027
650.000000	68.936	-155.1044
660.000000	68.912	-154.3808
670.000000	68.907	-153.7183
680.000000	68.913	-153.0305
690.000000	68.907	-152.1541
700.000000	68.904	-151.2377
710.000000	68.898	-150.5210
720.000000	68.888	-149.8840
730.000000	68.918	-149.1363
740.000000	68.942	-148.3705
750.000000	68.946	-147.5193
762.000000	68.975	-146.2663
775.000000	69.024	-144.9531
788.000000	69.094	-144.0134
800.000000	69.179	-143.2990
812.000000	69.254	-142.4019
825.000000	69.304	-141.5118
838.000000	69.336	-140.5522
850.000000	69.385	-139.5384
862.000000	69.442	-138.6391
875.000000	69.498	-137.7840
885.000000	69.552	-137.1680
900.000000	69.631	-136.2222
912.000000	69.685	-135.4609
925.000000	69.751	-134.5567
938.000000	69.832	-133.6125
950.000000	69.896	-132.7907
962.000000	69.956	-132.1516
975.000000	70.021	-131.6603
988.000000	70.089	-131.3414
1000.000000	70.179	-130.9671
1015.000000	70.289	-129.7065
1030.000000	70.379	-128.5247
1044.000000	70.467	-127.6673
1060.000000	70.575	-126.8645
1075.000000	70.681	-126.2208
1090.000000	70.781	-125.5758
1106.000000	70.876	-124.8636
1120.000000	70.969	-124.4160
1138.000000	71.084	-124.0603
1150.000000	71.149	-123.7260
1172.000000	71.282	-123.0962
1180.000000	71.332	-122.8336
1206.000000	71.473	-121.7932
1220.000000	71.541	-121.2537
1241.000000	71.639	-120.5412
1250.000000	71.689	-120.2766
1265.000000	71.794	-119.7645
1280.000000	71.923	-119.1913
1315.000000	72.282	-118.2700
1320.000000	72.337	-118.1595
1340.000000	72.559	-117.7663
1360.000000	72.784	-117.4964
1380.000000	72.986	-117.2163
1400.000000	73.136	-116.9853
1430.000000	73.329	-116.6916
1450.000000	73.439	-116.5611
1475.000000	73.577	-116.4581
1500.000000	73.704	-116.2659
1525.000000	73.818	-116.2013
1550.000000	73.928	-116.0637
1575.000000	74.029	-115.8527
1600.000000	74.127	-115.5897
1625.000000	74.216	-115.0730
1650.000000	74.303	-114.4481
1675.000000	74.396	-113.6875
1700.000000	74.528	-112.6380
1725.000000	74.745	-111.5384
1750.000000	75.032	-110.8239
1775.000000	75.314	-110.6900
1800.000000	75.554	-110.9989
1825.000000	75.750	-111.4631
1850.000000	75.900	-111.8873
1875.000000	76.024	-112.1727
1900.000000	76.144	-112.3222
1925.000000	76.282	-112.3507
1950.000000	76.427	-112.3724
1975.000000	76.575	-112.4657
2000.000000	76.722	-112.6544
2030.000000	76.889	-113.0107
2060.000000	77.044	-113.3722
2090.000000	77.184	-113.7373
2120.000000	77.325	-114.1833
2140.000000	77.418	-114.5163
2180.000000	77.608	-115.2360
2200.000000	77.702	-115.6102
2240.000000	77.859	-116.4119
2270.000000	77.967	-117.0420
2300.000000	78.067	-117.6621
2330.000000	78.161	-118.3311
2360.000000	78.251	-119.0672
2400.000000	78.367	-120.0626
2430.000000	78.444	-120.7250
2470.000000	78.533	-121.6384
2500.000000	78.585	-122.3830
2540.000000	78.634	-123.3473
2580.000000	78.672	-124.2757
2620.000000	78.694	-125.1792
2650.000000	78.706	-125.8147
2690.000000	78.721	-126.6902
2720.000000	78.727	-127.4557
2760.000000	78.711	-128.5401
2800.000000	78.668	-129.6202
2850.000000	78.533	-130.8655
2900.000000	78.331	-131.6606
2950.000000	78.123	-131.7443
3000.000000	77.982	-131.1827
3040.000000	77.942	-130.5820
3070.000000	77.930	-130.2576
3110.000000	77.924	-130.0624
3150.000000	77.932	-130.0631
3200.000000	77.948	-130.1640
3250.000000	77.944	-130.2691
3300.000000	77.929	-130.3550
3350.000000	77.910	-130.4285
3400.000000	77.897	-130.4223
3450.000000	77.900	-130.4279
3500.000000	77.917	-130.5460
3550.000000	77.932	-130.7977
3600.000000	77.921	-131.0662
3650.000000	77.886	-131.2898
3700.000000	77.833	-131.3424
3750.000000	77.786	-131.1799
3820.000000	77.771	-130.9343
3870.000000	77.794	-130.7751
3950.000000	77.862	-130.7260
4000.000000	77.914	-130.9433
4060.000000	77.986	-131.2383
4120.000000	78.034	-131.5062
4180.000000	78.040	-131.9279
4250.000000	78.044	-132.5750
4310.000000	78.048	-133.1109
4370.000000	78.056	-133.7434
4440.000000	78.076	-134.6658
4500.000000	78.107	-135.5155
4550.000000	78.135	-136.2618
4620.000000	78.167	-137.4744
4680.000000	78.181	-138.6504
4750.000000	78.179	-140.0277
4820.000000	78.155	-141.4479
4870.000000	78.117	-142.4783
4940.000000	78.038	-143.9620
5000.000000	77.958	-145.2640
5080.000000	77.816	-146.9740
5150.000000	77.658	-148.3873
5220.000000	77.480	-149.6937
5300.000000	77.240	-150.9732
5380.000000	76.982	-152.0311
5450.000000	76.757	-152.7137
5520.000000	76.551	-153.2066
5600.000000	76.337	-153.6621
5700.000000	76.076	-154.1717
5800.000000	75.793	-154.6393
5900.000000	75.506	-154.9794
6000.000000	75.247	-154.9474
6080.000000	75.066	-154.7224
6150.000000	74.934	-154.4721
6220.000000	74.821	-154.1417
6300.000000	74.708	-153.6786
6400.000000	74.585	-153.0624
6500.000000	74.499	-152.2867
6600.000000	74.459	-151.3333
6700.000000	74.462	-150.4135
6800.000000	74.524	-149.4515
6900.000000	74.629	-148.4441
7000.000000	74.791	-147.6301
7100.000000	75.010	-147.0055
7200.000000	75.283	-146.5060
7300.000000	75.634	-146.3559
7400.000000	76.057	-146.7568
7500.000000	76.527	-147.7401
7620.000000	77.117	-149.8525
7750.000000	77.684	-153.7421
7880.000000	78.063	-159.4652
8000.000000	78.156	-166.1889
8120.000000	77.925	-173.6768
8250.000000	77.304	178.3655
8380.000000	76.380	171.6768
8500.000000	75.365	167.1352
8620.000000	74.285	164.2282
8750.000000	73.113	162.6854
8850.000000	72.247	162.3456
9000.000000	71.057	162.8336
9120.000000	70.208	163.9836
9250.000000	69.367	165.8663
9380.000000	68.616	168.0798
9500.000000	68.002	170.3667
9620.000000	67.460	172.9046
9750.000000	66.940	175.7706
9880.000000	66.497	178.6861
10000.000000	66.141	-178.6198
10150.000000	65.747	-175.1995
10300.000000	65.493	-171.4394
10440.000000	65.365	-167.8159
10600.000000	65.301	-163.7019
10750.000000	65.343	-159.8997
10900.000000	65.492	-156.1310
11060.000000	65.806	-152.0246
11200.000000	66.260	-148.3213
11380.000000	67.148	-143.6149
11500.000000	68.016	-140.7371
11720.000000	70.312	-137.9777
11800.000000	71.325	-138.6329
12060.000000	74.404	-150.8033
12200.000000	75.434	-163.5110
12410.000000	75.857	174.3558
12500.000000	75.652	165.1986
12650.000000	74.870	151.7383
12800.000000	73.676	141.3195
13150.000000	70.343	129.3361
13200.000000	69.877	128.7603
13400.000000	68.125	128.2383
13600.000000	66.597	129.6459
13800.000000	65.318	132.2992
14000.000000	64.326	135.5064
14300.000000	63.404	140.6682
14500.000000	63.089	144.4968
14750.000000	63.015	148.9324
15000.000000	63.258	152.4761
15250.000000	63.767	154.4906
15500.000000	64.634	154.5612
15750.000000	65.951	151.0233
16000.000000	67.471	141.1088
16250.000000	68.473	123.0898
16500.000000	68.257	100.5897
16750.000000	66.767	81.5211
17000.000000	64.553	69.7385
17250.000000	62.298	64.0214
17500.000000	60.360	61.4527
17750.000000	58.772	60.3432
18000.000000	57.392	60.1370
18250.000000	56.259	60.7008
18500.000000	55.306	61.7221
18750.000000	54.450	62.3637
19000.000000	53.634	62.2626
19250.000000	52.911	57.7758
19500.000000	52.108	22.5111
19750.000000	51.236	-109.3995
20000.000000	50.704	90.1755
