* Measurement data measured by REW V5.20.5
* Source: Mic in at rear panel (Pink)(Realtek(R) Audio), MICROPHONE (마스), L, volume: 1.000
* Format: 128k Log Swept Sine, 1 sweep at -12.0 dBFS with no timing reference
* Dated: 2022. 4. 11 오후 3:48:11
* REW Settings:
*  C-weighting compensation: Off
*  Target level: 75.0 dB
* Note: 
* Measurement: 4월 11
* Smoothing: 1/24 octave
* Frequency Step: 1/48 octave
* Start Frequency: 20.300 Hz
*
* Freq(Hz)	SPL(dB)	Phase(degrees)
20.299999	78.699	-149.9461
20.600000	78.715	-150.3183
20.900000	78.736	-150.9801
21.200001	78.729	-151.5899
21.400000	78.704	-151.9266
21.799999	78.614	-152.3345
22.000000	78.560	-152.3553
22.400000	78.475	-151.9700
22.700001	78.473	-151.4474
23.000000	78.545	-151.0115
23.299999	78.665	-150.9448
23.600000	78.793	-151.3761
24.000000	78.909	-152.6686
24.299999	78.922	-153.9010
24.700001	78.840	-155.4329
25.000000	78.736	-156.2759
25.400000	78.595	-156.9783
25.799999	78.494	-157.4766
26.200001	78.421	-158.0357
26.500000	78.361	-158.4814
26.900000	78.269	-158.9300
27.200001	78.209	-159.0525
27.600000	78.186	-158.9938
28.000000	78.254	-159.0395
28.500000	78.416	-159.8316
29.000000	78.542	-161.5259
29.500000	78.564	-163.5543
30.000000	78.494	-165.2280
30.400000	78.420	-166.1133
30.700001	78.381	-166.5427
31.100000	78.368	-166.9403
31.500000	78.399	-167.2961
32.000000	78.471	-167.8613
32.500000	78.549	-168.5803
33.000000	78.614	-169.3352
33.500000	78.663	-170.0590
34.000000	78.688	-170.7493
34.500000	78.676	-171.2644
35.000000	78.653	-171.3518
35.500000	78.686	-171.0685
36.000000	78.801	-170.9890
36.500000	78.918	-171.5916
37.000000	78.929	-172.5887
37.500000	78.838	-173.2699
38.200001	78.715	-173.5986
38.700001	78.633	-174.1298
39.500000	78.220	-174.3674
40.000000	77.943	-172.3894
40.599998	78.072	-168.9581
41.200001	78.611	-168.3203
41.799999	78.947	-171.3737
42.500000	78.767	-175.4977
43.099998	78.444	-176.7835
43.700001	78.304	-177.0414
44.400002	78.291	-177.9053
45.000000	78.239	-178.7879
45.500000	78.200	-179.1306
46.200001	78.231	-179.4485
46.799999	78.281	179.9445
47.500000	78.276	179.1528
48.200001	78.223	178.7319
48.700001	78.178	178.6782
49.400002	78.126	178.8197
50.000000	78.104	178.9281
50.799999	78.086	178.6753
51.500000	78.034	178.1298
52.200001	77.957	177.5899
53.000000	77.895	177.0502
53.799999	77.875	176.4254
54.500000	77.874	175.7825
55.200001	77.871	175.0959
56.000000	77.843	174.4382
57.000000	77.795	174.2803
58.000000	77.825	174.5603
59.000000	77.891	174.3818
60.000000	77.897	173.8027
60.799999	77.867	173.3193
61.500000	77.833	172.8686
62.200001	77.782	172.3568
63.000000	77.696	171.9098
64.000000	77.626	171.7363
65.000000	77.614	171.2969
66.000000	77.529	170.9058
67.000000	77.476	171.2410
68.000000	77.518	171.1348
69.000000	77.466	170.3109
70.000000	77.306	169.8487
71.000000	77.204	169.7972
72.000000	77.173	169.2751
73.000000	77.083	168.4805
74.000000	76.981	168.3187
75.000000	76.978	168.3714
76.199997	76.980	168.1491
77.500000	76.955	168.1613
78.800003	76.898	167.8582
80.000000	76.730	167.6959
81.199997	76.596	167.9812
82.500000	76.554	167.6679
83.800003	76.540	166.8712
85.000000	76.557	166.0146
86.199997	76.547	165.2540
87.500000	76.481	164.9879
88.500000	76.418	165.2355
90.000000	76.335	165.5690
91.199997	76.221	165.4242
92.500000	76.088	165.1106
93.800003	76.004	164.5403
95.000000	75.967	164.1111
96.199997	75.974	163.9224
97.500000	75.970	164.0372
98.800003	75.926	164.3425
100.000000	75.816	164.5025
101.500000	75.636	164.5519
103.000000	75.517	164.1944
104.400002	75.490	163.9338
106.000000	75.543	163.9470
107.500000	75.508	164.2805
109.000000	75.338	165.0520
110.599998	75.164	165.8089
112.000000	75.158	165.6355
113.800003	75.248	165.0518
115.000000	75.309	165.9873
117.199997	75.405	172.4238
118.000000	75.552	176.2838
120.599998	76.538	-179.5060
122.000000	76.168	174.6406
124.099998	75.112	168.2687
125.000000	74.920	166.8203
126.500000	74.929	165.5894
128.000000	75.024	165.5726
131.500000	74.826	167.9872
132.000000	74.782	168.1909
134.000000	74.681	168.2542
136.000000	74.711	167.6523
138.000000	74.751	167.3086
140.000000	74.732	167.2737
143.000000	74.668	166.9862
145.000000	74.632	166.7254
147.500000	74.582	166.7107
150.000000	74.520	166.7664
152.500000	74.503	166.5199
155.000000	74.475	166.0848
157.500000	74.418	166.1023
160.000000	74.377	166.1642
162.500000	74.306	165.9260
165.000000	74.192	165.8306
167.500000	74.128	166.0972
170.000000	74.103	166.2613
172.500000	74.051	166.2237
175.000000	73.952	166.2919
177.500000	73.861	166.7099
180.000000	73.794	166.9886
182.500000	73.711	166.8943
185.000000	73.633	166.6200
187.500000	73.564	166.4426
190.000000	73.506	166.4987
192.500000	73.477	166.6356
195.000000	73.456	166.6969
197.500000	73.414	166.8882
200.000000	73.357	167.0413
203.000000	73.260	167.1708
206.000000	73.206	167.5684
209.000000	73.185	167.8592
212.000000	73.145	168.0216
214.000000	73.119	168.1320
218.000000	73.022	168.5846
220.000000	72.956	168.8690
224.000000	72.841	169.0464
227.000000	72.749	169.0072
230.000000	72.680	169.2447
233.000000	72.689	169.6469
236.000000	72.712	169.7658
240.000000	72.628	169.8897
243.000000	72.570	170.3682
247.000000	72.508	171.1208
250.000000	72.452	171.4771
254.000000	72.409	171.8380
258.000000	72.366	171.9878
262.000000	72.326	172.1024
265.000000	72.299	172.4072
269.000000	72.241	172.8663
272.000000	72.197	173.1340
276.000000	72.125	173.5043
280.000000	72.067	173.7261
285.000000	72.016	174.0386
290.000000	71.937	174.4650
295.000000	71.884	174.9368
300.000000	71.839	175.2177
304.000000	71.802	175.5140
307.000000	71.793	175.6447
311.000000	71.775	175.8589
315.000000	71.716	176.3376
320.000000	71.625	176.8400
325.000000	71.572	177.2149
330.000000	71.543	177.4641
335.000000	71.507	177.9848
340.000000	71.466	178.6454
345.000000	71.452	179.3106
350.000000	71.424	179.9495
355.000000	71.355	-179.4971
360.000000	71.322	-179.1210
365.000000	71.319	-178.8025
370.000000	71.285	-178.4354
375.000000	71.234	-177.9443
382.000000	71.241	-177.4235
387.000000	71.221	-177.1412
395.000000	71.128	-176.3330
400.000000	71.097	-175.8455
406.000000	71.064	-175.4169
412.000000	71.014	-174.8527
418.000000	70.998	-174.3106
425.000000	70.996	-173.8972
431.000000	70.962	-173.4493
437.000000	70.922	-172.7267
444.000000	70.860	-171.9986
450.000000	70.822	-171.4278
455.000000	70.807	-170.9336
462.000000	70.797	-170.5016
468.000000	70.783	-170.1810
475.000000	70.773	-169.6793
482.000000	70.772	-169.1433
487.000000	70.767	-168.7589
494.000000	70.740	-168.1652
500.000000	70.727	-167.6718
508.000000	70.708	-166.9026
515.000000	70.685	-166.3662
522.000000	70.670	-165.9012
530.000000	70.648	-165.2431
538.000000	70.641	-164.6207
545.000000	70.630	-164.0696
552.000000	70.605	-163.4733
560.000000	70.577	-162.8770
570.000000	70.603	-162.1889
580.000000	70.618	-161.3435
590.000000	70.580	-160.5394
600.000000	70.555	-159.6977
608.000000	70.547	-158.9759
615.000000	70.554	-158.2930
622.000000	70.572	-157.7024
630.000000	70.576	-157.2045
640.000000	70.552	-156.6030
650.000000	70.532	-155.7460
660.000000	70.515	-154.7686
670.000000	70.524	-153.9444
680.000000	70.532	-153.2091
690.000000	70.551	-152.3235
700.000000	70.580	-151.5345
710.000000	70.594	-150.9442
720.000000	70.593	-150.2163
730.000000	70.584	-149.5507
740.000000	70.587	-148.9988
750.000000	70.553	-148.3292
762.000000	70.491	-147.0716
775.000000	70.527	-145.4024
788.000000	70.604	-144.1387
800.000000	70.712	-143.2682
812.000000	70.781	-142.3636
825.000000	70.810	-141.4182
838.000000	70.833	-140.5718
850.000000	70.854	-139.8454
862.000000	70.907	-139.0042
875.000000	70.974	-138.0794
885.000000	71.032	-137.4167
900.000000	71.115	-136.3016
912.000000	71.175	-135.4308
925.000000	71.265	-134.7068
938.000000	71.344	-133.8780
950.000000	71.406	-133.0044
962.000000	71.475	-132.2964
975.000000	71.570	-131.7150
988.000000	71.710	-131.0081
1000.000000	71.828	-130.2572
1015.000000	71.849	-129.5215
1030.000000	71.890	-128.8719
1044.000000	71.990	-128.1440
1060.000000	72.097	-127.3102
1075.000000	72.193	-126.6373
1090.000000	72.281	-126.0291
1106.000000	72.388	-125.2674
1120.000000	72.499	-124.5640
1138.000000	72.641	-123.7762
1150.000000	72.727	-123.3051
1172.000000	72.864	-122.5786
1180.000000	72.917	-122.3015
1206.000000	73.109	-121.3969
1220.000000	73.209	-120.9141
1241.000000	73.362	-120.2178
1250.000000	73.432	-119.9780
1265.000000	73.557	-119.7145
1280.000000	73.707	-119.5481
1315.000000	74.131	-119.0361
1320.000000	74.189	-118.9618
1340.000000	74.415	-118.7532
1360.000000	74.615	-118.6640
1380.000000	74.772	-118.5349
1400.000000	74.886	-118.4510
1430.000000	75.017	-118.3318
1450.000000	75.107	-118.1664
1475.000000	75.236	-117.9669
1500.000000	75.371	-117.7413
1525.000000	75.480	-117.4886
1550.000000	75.588	-117.2252
1575.000000	75.709	-117.0012
1600.000000	75.836	-116.7797
1625.000000	75.968	-116.5670
1650.000000	76.088	-116.3267
1675.000000	76.201	-116.0785
1700.000000	76.312	-115.8798
1725.000000	76.429	-115.6957
1750.000000	76.561	-115.5439
1775.000000	76.689	-115.3829
1800.000000	76.825	-115.2160
1825.000000	76.965	-115.0301
1850.000000	77.096	-114.8960
1875.000000	77.238	-114.8576
1900.000000	77.387	-114.8700
1925.000000	77.520	-114.8816
1950.000000	77.646	-114.8430
1975.000000	77.776	-114.8118
2000.000000	77.893	-114.8623
2030.000000	78.033	-115.0221
2060.000000	78.181	-115.1650
2090.000000	78.324	-115.3596
2120.000000	78.448	-115.5472
2140.000000	78.518	-115.6405
2180.000000	78.646	-115.7343
2200.000000	78.709	-115.6291
2240.000000	78.867	-115.0282
2270.000000	79.054	-114.4678
2300.000000	79.316	-114.1248
2330.000000	79.623	-114.3255
2360.000000	79.918	-115.1163
2400.000000	80.230	-116.7723
2430.000000	80.391	-118.1606
2470.000000	80.534	-119.9767
2500.000000	80.610	-121.2368
2540.000000	80.685	-122.7517
2580.000000	80.744	-124.1887
2620.000000	80.794	-125.6642
2650.000000	80.818	-126.7628
2690.000000	80.830	-128.1545
2720.000000	80.824	-129.1438
2760.000000	80.787	-130.4137
2800.000000	80.724	-131.5813
2850.000000	80.623	-132.7585
2900.000000	80.513	-133.6448
2950.000000	80.430	-134.3948
3000.000000	80.375	-135.2503
3040.000000	80.327	-136.0141
3070.000000	80.285	-136.5755
3110.000000	80.215	-137.2705
3150.000000	80.126	-137.9170
3200.000000	80.008	-138.6247
3250.000000	79.889	-139.2083
3300.000000	79.763	-139.7230
3350.000000	79.638	-140.1458
3400.000000	79.511	-140.4944
3450.000000	79.387	-140.8023
3500.000000	79.260	-141.0196
3550.000000	79.142	-141.1531
3600.000000	79.031	-141.1936
3650.000000	78.921	-141.1416
3700.000000	78.817	-141.0931
3750.000000	78.728	-141.0894
3820.000000	78.613	-141.0213
3870.000000	78.525	-140.9405
3950.000000	78.405	-140.7418
4000.000000	78.349	-140.6115
4060.000000	78.276	-140.4483
4120.000000	78.199	-140.3133
4180.000000	78.122	-140.2337
4250.000000	78.027	-140.1281
4310.000000	77.954	-140.0163
4370.000000	77.895	-139.9235
4440.000000	77.840	-139.8235
4500.000000	77.809	-139.7780
4550.000000	77.795	-139.8055
4620.000000	77.785	-139.9101
4680.000000	77.777	-140.0173
4750.000000	77.758	-140.1963
4820.000000	77.742	-140.4400
4870.000000	77.731	-140.6074
4940.000000	77.712	-140.8618
5000.000000	77.698	-141.0542
5080.000000	77.687	-141.2613
5150.000000	77.669	-141.5465
5220.000000	77.645	-141.8782
5300.000000	77.613	-142.2989
5380.000000	77.584	-142.7535
5450.000000	77.579	-143.1705
5520.000000	77.575	-143.7363
5600.000000	77.545	-144.5614
5700.000000	77.473	-145.5318
5800.000000	77.393	-146.3888
5900.000000	77.312	-147.2133
6000.000000	77.231	-147.9225
6080.000000	77.182	-148.5062
6150.000000	77.152	-149.0593
6220.000000	77.127	-149.5430
6300.000000	77.105	-150.0461
6400.000000	77.083	-150.6641
6500.000000	77.054	-151.1504
6600.000000	77.037	-151.5341
6700.000000	77.038	-151.8994
6800.000000	77.061	-152.2215
6900.000000	77.123	-152.5532
7000.000000	77.215	-152.8994
7100.000000	77.342	-153.2766
7200.000000	77.514	-153.8206
7300.000000	77.729	-154.6360
7400.000000	77.979	-155.7481
7500.000000	78.256	-157.2061
7620.000000	78.594	-159.4729
7750.000000	78.917	-162.7998
7880.000000	79.123	-167.2829
8000.000000	79.149	-172.4021
8120.000000	78.995	-178.3894
8250.000000	78.606	174.6512
8380.000000	77.985	167.8542
8500.000000	77.230	162.1097
8620.000000	76.326	157.2923
8750.000000	75.221	153.2748
8850.000000	74.335	151.0031
9000.000000	72.999	148.8985
9120.000000	71.941	148.2461
9250.000000	70.828	148.4730
9380.000000	69.785	149.5100
9500.000000	68.869	150.9081
9620.000000	68.017	152.5936
9750.000000	67.169	154.8502
9880.000000	66.362	157.5153
10000.000000	65.671	160.1922
10150.000000	64.901	163.6246
10300.000000	64.209	167.2079
10440.000000	63.643	170.7570
10600.000000	63.089	174.8022
10750.000000	62.581	178.9866
10900.000000	62.114	-176.1744
11060.000000	61.713	-170.5889
11200.000000	61.449	-165.4395
11380.000000	61.256	-158.2260
11500.000000	61.258	-152.6776
11720.000000	61.681	-141.8015
11800.000000	62.035	-137.9040
12060.000000	63.824	-127.7887
12200.000000	64.953	-125.1843
12410.000000	66.501	-124.9907
12500.000000	67.070	-125.6214
12650.000000	67.895	-126.7889
12800.000000	68.660	-127.8166
13150.000000	70.656	-129.6831
13200.000000	70.981	-130.0257
13400.000000	72.420	-132.1905
13600.000000	74.085	-136.7649
13800.000000	75.807	-145.9002
14000.000000	77.131	-161.1090
14300.000000	77.358	169.2462
14500.000000	76.277	152.4547
14750.000000	74.214	139.5620
15000.000000	72.156	133.4221
15250.000000	70.484	130.6902
15500.000000	69.186	129.3080
15750.000000	68.227	127.8691
16000.000000	67.659	125.5951
16250.000000	67.363	122.2950
16500.000000	67.145	117.7252
16750.000000	66.877	111.4383
17000.000000	66.420	104.2037
17250.000000	65.747	97.1693
17500.000000	64.857	91.1779
17750.000000	63.769	86.7431
18000.000000	62.642	84.1152
18250.000000	61.549	83.2934
18500.000000	60.530	83.8500
18750.000000	59.696	85.5498
19000.000000	59.053	88.1104
19250.000000	58.536	90.9907
19500.000000	58.073	94.1110
19750.000000	57.654	96.6461
20000.000000	57.383	97.6240
