* Measurement data measured by REW V5.20.7
* Source: ???(Realtek High Definition Audi, no input selected, L, volume: no control
* Format: 128k Log Swept Sine, 1 sweep at -12.0 dBFS with no timing reference
* Dated: 13-Oct-2022 22:55:41
* REW Settings:
*  C-weighting compensation: Off
*  Target level: 75.0 dB
* Note: ; 
* Measurement: Phonak PFE111 (Gray filter) R
* Smoothing: 1/24 octave
* Frequency Step: 1/48 octave
* Start Frequency: 20.300 Hz
*
* Freq(Hz)	SPL(dB)	Phase(degrees)
20.299999	69.157	33.2750
20.600000	69.228	33.2660
20.900000	69.359	33.1296
21.200001	69.454	32.7385
21.400000	69.491	32.4131
21.799999	69.519	31.8064
22.000000	69.521	31.5952
22.400000	69.522	31.3706
22.700001	69.538	31.2645
23.000000	69.568	31.0810
23.299999	69.597	30.7609
23.600000	69.612	30.3314
24.000000	69.602	29.7207
24.299999	69.577	29.3569
24.700001	69.546	29.0624
25.000000	69.540	28.9238
25.400000	69.559	28.6880
25.799999	69.590	28.2585
26.200001	69.602	27.6766
26.500000	69.591	27.2549
26.900000	69.557	26.8515
27.200001	69.534	26.7013
27.600000	69.527	26.6404
28.000000	69.555	26.5839
28.500000	69.622	26.3274
29.000000	69.689	25.8223
29.500000	69.737	25.1526
30.000000	69.757	24.4318
30.400000	69.752	23.8987
30.700001	69.739	23.5641
31.100000	69.719	23.2331
31.500000	69.706	23.0127
32.000000	69.710	22.7831
32.500000	69.728	22.4715
33.000000	69.741	22.0513
33.500000	69.739	21.6163
34.000000	69.727	21.2734
34.500000	69.719	21.0500
35.000000	69.726	20.9002
35.500000	69.750	20.7449
36.000000	69.786	20.5077
36.500000	69.822	20.1439
37.000000	69.839	19.6878
37.500000	69.829	19.2699
38.200001	69.793	19.0249
38.700001	69.795	19.0755
39.500000	69.868	18.9326
40.000000	69.908	18.5078
40.599998	69.903	17.9307
41.200001	69.870	17.6709
41.799999	69.871	17.6339
42.500000	69.913	17.3660
43.099998	69.921	16.9363
43.700001	69.901	16.6930
44.400002	69.909	16.6814
45.000000	69.955	16.5463
45.500000	69.988	16.2425
46.200001	69.998	15.7636
46.799999	69.990	15.4845
47.500000	69.988	15.2463
48.200001	69.987	15.0257
48.700001	69.988	14.8937
49.400002	69.996	14.7074
50.000000	70.005	14.4796
50.799999	70.000	14.1215
51.500000	69.986	13.8625
52.200001	69.975	13.6454
53.000000	69.965	13.3868
53.799999	69.955	13.1392
54.500000	69.948	12.9486
55.200001	69.947	12.7570
56.000000	69.949	12.5220
57.000000	69.954	12.2275
58.000000	69.962	11.9211
59.000000	69.963	11.6076
60.000000	69.959	11.3758
60.799999	69.961	11.2339
61.500000	69.966	11.0928
62.200001	69.969	10.9340
63.000000	69.968	10.7557
64.000000	69.962	10.5606
65.000000	69.956	10.4277
66.000000	69.958	10.3496
67.000000	69.974	10.2736
68.000000	70.000	10.1342
69.000000	70.022	9.9033
70.000000	70.031	9.6452
71.000000	70.030	9.4093
72.000000	70.028	9.1917
73.000000	70.026	8.9488
74.000000	70.019	8.6718
75.000000	70.007	8.4203
76.199997	69.998	8.1681
77.500000	69.994	7.9009
78.800003	69.989	7.6628
80.000000	69.982	7.4750
81.199997	69.974	7.2926
82.500000	69.960	7.0806
83.800003	69.946	6.8776
85.000000	69.938	6.6748
86.199997	69.935	6.4519
87.500000	69.935	6.2224
88.500000	69.937	6.0597
90.000000	69.939	5.8476
91.199997	69.939	5.7164
92.500000	69.940	5.5684
93.800003	69.937	5.3727
95.000000	69.925	5.1791
96.199997	69.910	5.0261
97.500000	69.898	4.9025
98.800003	69.891	4.7873
100.000000	69.885	4.6648
101.500000	69.871	4.5181
103.000000	69.857	4.3846
104.400002	69.846	4.2348
106.000000	69.831	4.0557
107.500000	69.822	3.9187
109.000000	69.818	3.7796
110.599998	69.812	3.5989
112.000000	69.799	3.4399
113.800003	69.781	3.2839
115.000000	69.774	3.1727
117.199997	69.760	2.9233
118.000000	69.752	2.8385
120.599998	69.726	2.6065
122.000000	69.713	2.4942
124.099998	69.699	2.3144
125.000000	69.694	2.2353
126.500000	69.686	2.1078
128.000000	69.676	1.9982
131.500000	69.647	1.7588
132.000000	69.641	1.7271
134.000000	69.619	1.6117
136.000000	69.599	1.5069
138.000000	69.580	1.4118
140.000000	69.558	1.3286
143.000000	69.527	1.1946
145.000000	69.507	1.1048
147.500000	69.485	1.0214
150.000000	69.463	0.9323
152.500000	69.437	0.8290
155.000000	69.412	0.7194
157.500000	69.389	0.6317
160.000000	69.369	0.5714
162.500000	69.342	0.5067
165.000000	69.312	0.4734
167.500000	69.287	0.4265
170.000000	69.265	0.3566
172.500000	69.244	0.2898
175.000000	69.225	0.2356
177.500000	69.208	0.1932
180.000000	69.193	0.1622
182.500000	69.181	0.1547
185.000000	69.173	0.1506
187.500000	69.163	0.1548
190.000000	69.156	0.1552
192.500000	69.154	0.1151
195.000000	69.150	0.0496
197.500000	69.137	-0.0231
200.000000	69.115	-0.0885
203.000000	69.084	-0.1659
206.000000	69.057	-0.2256
209.000000	69.036	-0.2447
212.000000	69.018	-0.2541
214.000000	69.006	-0.2778
218.000000	68.975	-0.3591
220.000000	68.958	-0.3879
224.000000	68.922	-0.4184
227.000000	68.897	-0.4482
230.000000	68.868	-0.4763
233.000000	68.832	-0.4987
236.000000	68.800	-0.4997
240.000000	68.776	-0.4854
243.000000	68.756	-0.4995
247.000000	68.724	-0.5155
250.000000	68.701	-0.4910
254.000000	68.668	-0.4496
258.000000	68.636	-0.4349
262.000000	68.610	-0.4190
265.000000	68.589	-0.3869
269.000000	68.555	-0.3292
272.000000	68.528	-0.2857
276.000000	68.492	-0.1947
280.000000	68.459	-0.0778
285.000000	68.421	0.0408
290.000000	68.390	0.1271
295.000000	68.361	0.2274
300.000000	68.335	0.3370
304.000000	68.312	0.4419
307.000000	68.292	0.5167
311.000000	68.265	0.5918
315.000000	68.241	0.6730
320.000000	68.212	0.8224
325.000000	68.183	0.9667
330.000000	68.158	1.0886
335.000000	68.130	1.2440
340.000000	68.099	1.4349
345.000000	68.070	1.6319
350.000000	68.045	1.8305
355.000000	68.018	2.0186
360.000000	67.991	2.1901
365.000000	67.964	2.3974
370.000000	67.929	2.6334
375.000000	67.894	2.8935
382.000000	67.860	3.3041
387.000000	67.842	3.6244
395.000000	67.832	4.1371
400.000000	67.834	4.3821
406.000000	67.838	4.5668
412.000000	67.830	4.6791
418.000000	67.815	4.7908
425.000000	67.794	4.9705
431.000000	67.769	5.1527
437.000000	67.740	5.3237
444.000000	67.712	5.5555
450.000000	67.690	5.7810
455.000000	67.668	5.9743
462.000000	67.639	6.2607
468.000000	67.624	6.5264
475.000000	67.610	6.8139
482.000000	67.595	7.0653
487.000000	67.580	7.2834
494.000000	67.565	7.6172
500.000000	67.558	7.8634
508.000000	67.543	8.1948
515.000000	67.526	8.5461
522.000000	67.508	8.9050
530.000000	67.485	9.2947
538.000000	67.466	9.6914
545.000000	67.453	10.0349
552.000000	67.440	10.3898
560.000000	67.425	10.8289
570.000000	67.401	11.3542
580.000000	67.375	11.8897
590.000000	67.353	12.3890
600.000000	67.332	12.9077
608.000000	67.318	13.3477
615.000000	67.309	13.7479
622.000000	67.300	14.1474
630.000000	67.292	14.5911
640.000000	67.282	15.1198
650.000000	67.273	15.6508
660.000000	67.270	16.2070
670.000000	67.272	16.7722
680.000000	67.273	17.3553
690.000000	67.274	17.9086
700.000000	67.278	18.4663
710.000000	67.285	19.0545
720.000000	67.293	19.6720
730.000000	67.304	20.2805
740.000000	67.317	20.8486
750.000000	67.327	21.4133
762.000000	67.343	22.1521
775.000000	67.369	22.9424
788.000000	67.393	23.7193
800.000000	67.421	24.4700
812.000000	67.456	25.2436
825.000000	67.493	26.0309
838.000000	67.535	26.7838
850.000000	67.580	27.5149
862.000000	67.627	28.2668
875.000000	67.673	29.0297
885.000000	67.711	29.5851
900.000000	67.779	30.4287
912.000000	67.837	31.0929
925.000000	67.904	31.7943
938.000000	67.975	32.4975
950.000000	68.047	33.1130
962.000000	68.120	33.6755
975.000000	68.199	34.2701
988.000000	68.277	34.8459
1000.000000	68.356	35.3432
1015.000000	68.460	35.9298
1030.000000	68.564	36.4728
1044.000000	68.658	36.9553
1060.000000	68.764	37.4637
1075.000000	68.862	37.8567
1090.000000	68.954	38.2176
1106.000000	69.050	38.5913
1120.000000	69.134	38.8651
1138.000000	69.246	39.1644
1150.000000	69.320	39.3487
1172.000000	69.452	39.6441
1180.000000	69.502	39.7322
1206.000000	69.663	39.9485
1220.000000	69.749	40.0152
1241.000000	69.880	40.0650
1250.000000	69.935	40.0852
1265.000000	70.027	40.1326
1280.000000	70.113	40.1743
1315.000000	70.303	40.2422
1320.000000	70.328	40.2501
1340.000000	70.426	40.2729
1360.000000	70.525	40.2906
1380.000000	70.624	40.3444
1400.000000	70.725	40.3977
1430.000000	70.872	40.4626
1450.000000	70.964	40.5070
1475.000000	71.076	40.5711
1500.000000	71.181	40.6565
1525.000000	71.278	40.7501
1550.000000	71.369	40.8528
1575.000000	71.454	40.9417
1600.000000	71.534	41.0433
1625.000000	71.615	41.1460
1650.000000	71.698	41.2763
1675.000000	71.776	41.4022
1700.000000	71.856	41.5170
1725.000000	71.937	41.6190
1750.000000	72.017	41.7238
1775.000000	72.096	41.8239
1800.000000	72.172	41.9315
1825.000000	72.245	42.0397
1850.000000	72.312	42.1390
1875.000000	72.371	42.2572
1900.000000	72.424	42.4127
1925.000000	72.470	42.6209
1950.000000	72.508	42.9356
1975.000000	72.540	43.4112
2000.000000	72.568	44.0959
2030.000000	72.621	45.2936
2060.000000	72.743	46.9397
2090.000000	72.994	48.7962
2120.000000	73.398	50.2465
2140.000000	73.719	50.6796
2180.000000	74.329	50.0608
2200.000000	74.576	49.2351
2240.000000	74.938	47.2778
2270.000000	75.123	45.8624
2300.000000	75.264	44.5957
2330.000000	75.382	43.4841
2360.000000	75.488	42.4940
2400.000000	75.621	41.2779
2430.000000	75.717	40.3895
2470.000000	75.837	39.1948
2500.000000	75.918	38.2959
2540.000000	76.014	37.0984
2580.000000	76.096	35.9136
2620.000000	76.162	34.7301
2650.000000	76.202	33.8372
2690.000000	76.241	32.6575
2720.000000	76.262	31.7853
2760.000000	76.276	30.6426
2800.000000	76.276	29.5441
2850.000000	76.252	28.2372
2900.000000	76.200	27.0422
2950.000000	76.124	26.0394
3000.000000	76.035	25.2997
3040.000000	75.968	24.9518
3070.000000	75.931	24.8351
3110.000000	75.915	24.8087
3150.000000	75.947	24.7722
3200.000000	76.040	24.4142
3250.000000	76.140	23.5433
3300.000000	76.194	22.2973
3350.000000	76.188	20.9489
3400.000000	76.136	19.7175
3450.000000	76.055	18.6804
3500.000000	75.962	17.8443
3550.000000	75.870	17.1533
3600.000000	75.786	16.5567
3650.000000	75.707	16.0048
3700.000000	75.628	15.4623
3750.000000	75.540	14.9173
3820.000000	75.398	14.2428
3870.000000	75.294	13.8768
3950.000000	75.135	13.4563
4000.000000	75.039	13.2958
4060.000000	74.928	13.1745
4120.000000	74.818	13.1226
4180.000000	74.709	13.1498
4250.000000	74.586	13.3526
4310.000000	74.501	13.6821
4370.000000	74.448	14.0586
4440.000000	74.425	14.4156
4500.000000	74.430	14.5632
4550.000000	74.441	14.5457
4620.000000	74.455	14.3076
4680.000000	74.453	13.9122
4750.000000	74.422	13.2601
4820.000000	74.346	12.5018
4870.000000	74.261	11.9671
4940.000000	74.094	11.3364
5000.000000	73.919	10.9993
5080.000000	73.664	10.9501
5150.000000	73.447	11.2836
5220.000000	73.261	11.8889
5300.000000	73.102	12.7156
5380.000000	72.989	13.4703
5450.000000	72.902	13.9853
5520.000000	72.811	14.3709
5600.000000	72.689	14.7085
5700.000000	72.504	15.1049
5800.000000	72.292	15.6401
5900.000000	72.059	16.4280
6000.000000	71.814	17.5380
6080.000000	71.621	18.7035
6150.000000	71.466	19.9489
6220.000000	71.331	21.3992
6300.000000	71.218	23.2847
6400.000000	71.155	25.7977
6500.000000	71.175	28.2002
6600.000000	71.250	30.3437
6700.000000	71.357	32.2691
6800.000000	71.480	34.1395
6900.000000	71.648	36.0558
7000.000000	71.881	37.8374
7100.000000	72.160	39.3560
7200.000000	72.463	40.6165
7300.000000	72.776	41.6972
7400.000000	73.115	42.7764
7500.000000	73.515	43.7883
7620.000000	74.061	44.6097
7750.000000	74.712	45.1090
7880.000000	75.491	45.2165
8000.000000	76.394	44.4900
8120.000000	77.487	42.1452
8250.000000	78.786	36.4994
8380.000000	79.917	26.2658
8500.000000	80.440	12.7931
8620.000000	80.212	-2.1930
8750.000000	79.138	-16.2385
8850.000000	77.917	-23.9238
9000.000000	75.867	-30.4766
9120.000000	74.286	-32.5883
9250.000000	72.749	-32.8947
9380.000000	71.413	-31.8636
9500.000000	70.348	-30.1727
9620.000000	69.422	-28.0364
9750.000000	68.558	-25.3972
9880.000000	67.825	-22.5220
10000.000000	67.253	-19.7325
10150.000000	66.658	-16.2140
10300.000000	66.181	-12.7175
10440.000000	65.836	-9.5503
10600.000000	65.544	-6.0528
10750.000000	65.376	-2.9337
10900.000000	65.301	-0.1867
11060.000000	65.295	2.2527
11200.000000	65.353	3.9771
11380.000000	65.499	5.4822
11500.000000	65.628	5.9780
11720.000000	65.895	5.7075
11800.000000	65.990	5.2057
12060.000000	66.222	2.1697
12200.000000	66.267	-0.2059
12410.000000	66.206	-4.2630
12500.000000	66.128	-6.0472
12650.000000	65.927	-8.8969
12800.000000	65.650	-11.4182
13150.000000	64.876	-15.4338
13200.000000	64.769	-15.7953
13400.000000	64.393	-16.8664
13600.000000	64.152	-17.4947
13800.000000	64.108	-17.9872
14000.000000	64.265	-18.6648
14300.000000	64.875	-20.7998
14500.000000	65.548	-23.7522
14750.000000	66.619	-30.7445
15000.000000	67.628	-43.5471
15250.000000	67.977	-62.5748
15500.000000	67.209	-83.6659
15750.000000	65.428	-101.0295
16000.000000	63.173	-112.7387
16250.000000	60.951	-120.4712
16500.000000	58.963	-126.3990
16750.000000	57.228	-131.8046
17000.000000	55.693	-137.7887
17250.000000	54.249	-145.1862
17500.000000	52.682	-154.3274
17750.000000	50.819	-165.1346
18000.000000	48.511	-177.3850
18250.000000	45.687	159.2105
18500.000000	42.422	32.4359
18750.000000	38.876	88.3044
19000.000000	35.514	114.4426
19250.000000	32.939	-40.6606
19500.000000	31.327	-77.3438
19750.000000	30.326	-6.0352
20000.000000	29.783	132.6367
