* Measurement data measured by REW V5.20.7
* Source: Input device not selected, no input selected, L, volume: no control
* Format: 128k Log Swept Sine, 1 sweep at -12.0 dBFS with no timing reference
* Dated: 2022. 5. 1 ¿ÀÈÄ 5:48:26
* REW Settings:
*  C-weighting compensation: Off
*  Target level: 75.0 dB
* Note: 
* Measurement: b_l
* Smoothing: 1/24 octave
* Frequency Step: 1/48 octave
* Start Frequency: 20.300 Hz
*
* Freq(Hz)	SPL(dB)	Phase(degrees)
20.299999	82.990	-122.9169
20.600000	82.999	-123.3925
20.900000	83.005	-124.1893
21.200001	82.986	-124.7883
21.400000	82.966	-125.0450
21.799999	82.929	-125.2777
22.000000	82.925	-125.2979
22.400000	82.957	-125.2635
22.700001	83.021	-125.2803
23.000000	83.113	-125.4407
23.299999	83.226	-125.8041
23.600000	83.349	-126.4042
24.000000	83.508	-127.5947
24.299999	83.605	-128.7451
24.700001	83.684	-130.4849
25.000000	83.700	-131.7834
25.400000	83.675	-133.2814
25.799999	83.630	-134.3570
26.200001	83.609	-135.0587
26.500000	83.622	-135.4706
26.900000	83.669	-136.0300
27.200001	83.713	-136.5029
27.600000	83.765	-137.1496
28.000000	83.812	-137.6887
28.500000	83.894	-138.1668
29.000000	84.024	-138.6958
29.500000	84.169	-139.5926
30.000000	84.265	-140.8199
30.400000	84.287	-141.7713
30.700001	84.282	-142.3287
31.100000	84.277	-142.8139
31.500000	84.301	-143.1167
32.000000	84.383	-143.5721
32.500000	84.483	-144.3917
33.000000	84.543	-145.5073
33.500000	84.544	-146.5905
34.000000	84.517	-147.3570
34.500000	84.508	-147.8012
35.000000	84.540	-148.1271
35.500000	84.607	-148.5590
36.000000	84.684	-149.1917
36.500000	84.748	-150.0052
37.000000	84.782	-150.9066
37.500000	84.783	-151.7567
38.200001	84.752	-152.6061
38.700001	84.746	-152.9638
39.500000	84.796	-153.5810
40.000000	84.837	-154.1994
40.599998	84.858	-155.0899
41.200001	84.849	-155.9081
41.799999	84.834	-156.5472
42.500000	84.836	-157.1077
43.099998	84.870	-157.5398
43.700001	84.927	-158.0739
44.400002	84.992	-158.9017
45.000000	85.020	-159.6491
45.500000	85.029	-160.1626
46.200001	85.046	-160.7005
46.799999	85.076	-161.1281
47.500000	85.112	-161.7331
48.200001	85.126	-162.4154
48.700001	85.122	-162.8625
49.400002	85.120	-163.3872
50.000000	85.136	-163.8837
50.799999	85.153	-164.8153
51.500000	85.129	-165.6502
52.200001	85.102	-166.2339
53.000000	85.111	-166.8118
53.799999	85.131	-167.5022
54.500000	85.143	-168.0760
55.200001	85.154	-168.6894
56.000000	85.118	-169.4128
57.000000	85.026	-169.6201
58.000000	85.058	-169.5604
59.000000	85.115	-170.5668
60.000000	85.034	-171.9154
60.799999	84.938	-172.5409
61.500000	84.899	-172.8903
62.200001	84.904	-173.3287
63.000000	84.920	-173.9499
64.000000	84.951	-174.5946
65.000000	85.012	-175.1607
66.000000	85.060	-175.7901
67.000000	85.080	-176.3585
68.000000	85.073	-177.0297
69.000000	85.008	-177.7032
70.000000	84.933	-178.1802
71.000000	84.873	-178.6420
72.000000	84.842	-178.7987
73.000000	84.941	-178.8857
74.000000	85.102	-179.8158
75.000000	85.169	178.6714
76.199997	85.112	176.7914
77.500000	84.824	175.2195
78.800003	84.451	175.6028
80.000000	84.362	177.1101
81.199997	84.597	177.8507
82.500000	84.884	176.6969
83.800003	84.986	175.1131
85.000000	84.953	174.1028
86.199997	84.831	173.5998
87.500000	84.647	173.4498
88.500000	84.539	173.5413
90.000000	84.530	172.8711
91.199997	84.507	171.5904
92.500000	84.449	170.8954
93.800003	84.479	171.0741
95.000000	84.555	171.2810
96.199997	84.583	171.4310
97.500000	84.620	171.6464
98.800003	84.698	171.0630
100.000000	84.694	169.8141
101.500000	84.573	168.4724
103.000000	84.381	167.7391
104.400002	84.162	167.5508
106.000000	83.961	167.4576
107.500000	83.872	166.9274
109.000000	83.862	166.3775
110.599998	83.908	166.2406
112.000000	83.853	166.3894
113.800003	83.663	166.7062
115.000000	83.549	165.7458
117.199997	83.554	161.4349
118.000000	83.677	159.5383
120.599998	83.913	156.3120
122.000000	83.852	158.4844
124.099998	83.549	162.3959
125.000000	83.314	163.5245
126.500000	83.054	164.0462
128.000000	83.123	162.4452
131.500000	83.745	160.4172
132.000000	83.726	161.0617
134.000000	83.412	165.3762
136.000000	82.993	168.9020
138.000000	83.058	166.9492
140.000000	83.362	162.2393
143.000000	83.981	160.4296
145.000000	83.978	160.2293
147.500000	83.520	159.7610
150.000000	83.283	158.7245
152.500000	83.320	158.2759
155.000000	83.354	158.0951
157.500000	83.295	156.9025
160.000000	83.276	155.4550
162.500000	83.224	154.6774
165.000000	83.085	154.9500
167.500000	82.944	154.7810
170.000000	82.837	153.9668
172.500000	82.742	153.5354
175.000000	82.602	153.9072
177.500000	82.464	154.4966
180.000000	82.413	154.2690
182.500000	82.434	153.7334
185.000000	82.480	153.5026
187.500000	82.459	153.3368
190.000000	82.397	152.8657
192.500000	82.376	151.9737
195.000000	82.372	151.2943
197.500000	82.275	151.5612
200.000000	82.113	152.5094
203.000000	81.955	152.8577
206.000000	81.890	152.4110
209.000000	81.802	152.6602
212.000000	81.707	153.4600
214.000000	81.683	153.2160
218.000000	81.657	151.7788
220.000000	81.619	151.3569
224.000000	81.450	150.3859
227.000000	81.332	149.1143
230.000000	81.269	148.8741
233.000000	81.268	149.5746
236.000000	81.233	149.8412
240.000000	81.161	149.4980
243.000000	81.104	149.4598
247.000000	80.986	149.7874
250.000000	80.909	149.8523
254.000000	80.850	149.6090
258.000000	80.786	149.4288
262.000000	80.702	149.1522
265.000000	80.628	149.0045
269.000000	80.560	149.1673
272.000000	80.519	149.2907
276.000000	80.426	149.3704
280.000000	80.303	149.5466
285.000000	80.191	149.6801
290.000000	80.129	149.6016
295.000000	80.045	149.4997
300.000000	79.960	149.5869
304.000000	79.903	149.9414
307.000000	79.872	150.0397
311.000000	79.840	149.8669
315.000000	79.791	149.7845
320.000000	79.702	149.8051
325.000000	79.610	149.7089
330.000000	79.535	149.7206
335.000000	79.511	149.6812
340.000000	79.470	149.6042
345.000000	79.425	149.4734
350.000000	79.354	149.4481
355.000000	79.240	149.5519
360.000000	79.121	149.7184
365.000000	79.032	149.9564
370.000000	78.970	150.1064
375.000000	78.933	150.1725
382.000000	78.893	150.5012
387.000000	78.829	150.6440
395.000000	78.695	150.7791
400.000000	78.624	150.8527
406.000000	78.597	151.0108
412.000000	78.560	151.2526
418.000000	78.455	151.4607
425.000000	78.374	151.6653
431.000000	78.354	151.7776
437.000000	78.305	152.0350
444.000000	78.221	152.3364
450.000000	78.184	152.6120
455.000000	78.173	152.9081
462.000000	78.132	153.4106
468.000000	78.043	153.4720
475.000000	77.948	153.4939
482.000000	77.889	153.8578
487.000000	77.841	154.1174
494.000000	77.772	154.6210
500.000000	77.749	155.2087
508.000000	77.723	155.5164
515.000000	77.699	155.6879
522.000000	77.670	156.0910
530.000000	77.584	156.4303
538.000000	77.504	156.6234
545.000000	77.468	156.9608
552.000000	77.442	157.3784
560.000000	77.426	157.9096
570.000000	77.424	158.2271
580.000000	77.350	158.4007
590.000000	77.271	158.9974
600.000000	77.212	159.5485
608.000000	77.183	159.8752
615.000000	77.170	160.1617
622.000000	77.158	160.5427
630.000000	77.146	161.1304
640.000000	77.146	161.8139
650.000000	77.149	162.2994
660.000000	77.157	162.7858
670.000000	77.147	163.3309
680.000000	77.099	163.9977
690.000000	77.053	164.4402
700.000000	77.042	164.8243
710.000000	77.052	165.3931
720.000000	77.068	165.9191
730.000000	77.059	166.4354
740.000000	77.041	167.0676
750.000000	77.038	167.7213
762.000000	77.065	168.4749
775.000000	77.159	169.1135
788.000000	77.154	169.6316
800.000000	77.128	170.2956
812.000000	77.139	170.9348
825.000000	77.157	171.5169
838.000000	77.182	172.0618
850.000000	77.237	172.6855
862.000000	77.294	173.2191
875.000000	77.349	173.9268
885.000000	77.410	174.6971
900.000000	77.492	175.7566
912.000000	77.541	176.2358
925.000000	77.599	176.5645
938.000000	77.669	177.0197
950.000000	77.721	177.5057
962.000000	77.753	177.9197
975.000000	77.858	178.3672
988.000000	78.038	179.2505
1000.000000	78.149	-179.9713
1015.000000	78.181	-179.9578
1030.000000	78.252	-179.7163
1044.000000	78.347	-179.2386
1060.000000	78.433	-178.7757
1075.000000	78.483	-178.3741
1090.000000	78.539	-178.0267
1106.000000	78.665	-177.8625
1120.000000	78.790	-177.7382
1138.000000	78.917	-177.2684
1150.000000	78.999	-176.8933
1172.000000	79.161	-176.5292
1180.000000	79.221	-176.4814
1206.000000	79.384	-176.1240
1220.000000	79.480	-175.8071
1241.000000	79.624	-175.4523
1250.000000	79.686	-175.2998
1265.000000	79.777	-175.0442
1280.000000	79.862	-174.8089
1315.000000	80.113	-174.5689
1320.000000	80.152	-174.5296
1340.000000	80.308	-174.1973
1360.000000	80.460	-173.6206
1380.000000	80.594	-173.3015
1400.000000	80.734	-173.2365
1430.000000	80.961	-172.8766
1450.000000	81.120	-172.7822
1475.000000	81.323	-172.6916
1500.000000	81.530	-172.5115
1525.000000	81.733	-172.4300
1550.000000	81.933	-172.3070
1575.000000	82.149	-172.1458
1600.000000	82.382	-172.1041
1625.000000	82.619	-172.1660
1650.000000	82.855	-172.2164
1675.000000	83.097	-172.3079
1700.000000	83.363	-172.4766
1725.000000	83.629	-172.6616
1750.000000	83.885	-173.0688
1775.000000	84.143	-173.5130
1800.000000	84.403	-173.9834
1825.000000	84.666	-174.5609
1850.000000	84.933	-175.2285
1875.000000	85.206	-176.0240
1900.000000	85.483	-176.9677
1925.000000	85.762	-177.9956
1950.000000	86.034	-179.2046
1975.000000	86.292	179.4037
2000.000000	86.539	177.9879
2030.000000	86.831	176.1824
2060.000000	87.101	174.0864
2090.000000	87.350	171.8015
2120.000000	87.564	169.4157
2140.000000	87.686	167.7294
2180.000000	87.892	164.2040
2200.000000	87.968	162.3761
2240.000000	88.064	158.6955
2270.000000	88.082	155.9873
2300.000000	88.052	153.3051
2330.000000	87.986	150.6839
2360.000000	87.890	148.2196
2400.000000	87.722	145.2562
2430.000000	87.584	143.2442
2470.000000	87.376	140.7844
2500.000000	87.203	139.1091
2540.000000	86.958	137.0960
2580.000000	86.684	135.3192
2620.000000	86.399	133.7749
2650.000000	86.191	132.7480
2690.000000	85.915	131.6223
2720.000000	85.705	130.9813
2760.000000	85.436	130.3354
2800.000000	85.182	129.9160
2850.000000	84.868	129.5958
2900.000000	84.568	129.4946
2950.000000	84.306	129.6329
3000.000000	84.080	129.9340
3040.000000	83.887	130.1461
3070.000000	83.754	130.3877
3110.000000	83.603	130.8021
3150.000000	83.460	131.1981
3200.000000	83.281	131.7686
3250.000000	83.130	132.5316
3300.000000	82.996	133.3719
3350.000000	82.894	134.3116
3400.000000	82.806	135.2841
3450.000000	82.739	136.3313
3500.000000	82.706	137.3393
3550.000000	82.705	138.3925
3600.000000	82.744	139.4406
3650.000000	82.814	140.3409
3700.000000	82.906	141.0764
3750.000000	83.008	141.6788
3820.000000	83.153	142.2849
3870.000000	83.279	142.5346
3950.000000	83.491	142.6010
4000.000000	83.624	142.4590
4060.000000	83.774	142.1074
4120.000000	83.923	141.6812
4180.000000	84.071	141.2067
4250.000000	84.224	140.4777
4310.000000	84.355	139.6819
4370.000000	84.507	138.5695
4440.000000	84.667	136.9806
4500.000000	84.773	135.4509
4550.000000	84.843	134.0453
4620.000000	84.913	131.9053
4680.000000	84.933	129.9279
4750.000000	84.903	127.5176
4820.000000	84.830	125.1091
4870.000000	84.756	123.3434
4940.000000	84.615	120.8306
5000.000000	84.448	118.7727
5080.000000	84.177	116.2829
5150.000000	83.911	114.2943
5220.000000	83.616	112.4290
5300.000000	83.255	110.3304
5380.000000	82.853	108.1873
5450.000000	82.433	106.2255
5520.000000	81.922	104.3315
5600.000000	81.200	102.9517
5700.000000	80.177	103.4386
5800.000000	79.246	106.0727
5900.000000	78.530	109.7374
6000.000000	78.001	113.6906
6080.000000	77.701	117.0667
6150.000000	77.503	119.9974
6220.000000	77.361	122.8040
6300.000000	77.248	125.8346
6400.000000	77.138	129.5557
6500.000000	77.088	133.2970
6600.000000	77.076	136.9832
6700.000000	77.091	140.7788
6800.000000	77.161	144.8900
6900.000000	77.322	149.4315
7000.000000	77.649	154.1010
7100.000000	78.174	158.2518
7200.000000	78.803	161.6496
7300.000000	79.494	164.2479
7400.000000	80.273	166.0400
7500.000000	81.159	166.9793
7620.000000	82.341	166.3376
7750.000000	83.668	162.4072
7880.000000	84.768	154.0902
8000.000000	85.246	142.5839
8120.000000	84.939	129.3876
8250.000000	83.640	117.2695
8380.000000	81.549	112.0720
8500.000000	79.582	113.7498
8620.000000	78.084	117.6417
8750.000000	76.762	122.3604
8850.000000	75.888	126.8727
9000.000000	74.904	134.5680
9120.000000	74.336	140.7986
9250.000000	73.835	147.6718
9380.000000	73.471	154.7639
9500.000000	73.282	161.2065
9620.000000	73.234	167.3506
9750.000000	73.286	174.0734
9880.000000	73.471	-179.2449
10000.000000	73.817	-173.7640
10150.000000	74.438	-167.9614
10300.000000	75.192	-164.0830
10440.000000	75.883	-163.2500
10600.000000	76.218	-165.9680
10750.000000	75.548	-167.6109
10900.000000	74.299	-158.0165
11060.000000	74.952	-139.3057
11200.000000	76.854	-130.3736
11380.000000	78.898	-129.2104
11500.000000	80.048	-130.5197
11720.000000	81.723	-136.8876
11800.000000	82.081	-140.2055
12060.000000	82.559	-149.7434
12200.000000	82.628	-153.9183
12410.000000	82.473	-159.3764
12500.000000	82.319	-161.1708
12650.000000	81.987	-163.3693
12800.000000	81.591	-164.4449
13150.000000	80.918	-162.6266
13200.000000	80.904	-162.2167
13400.000000	81.068	-162.1835
13600.000000	81.145	-167.0509
13800.000000	80.202	-174.2347
14000.000000	77.897	-171.9832
14300.000000	75.367	-143.9955
14500.000000	76.574	-126.1503
14750.000000	79.003	-114.5509
15000.000000	81.754	-110.5660
15250.000000	84.910	-114.2113
15500.000000	87.522	-131.3869
15750.000000	88.223	-161.1822
16000.000000	86.760	170.3583
16250.000000	83.838	151.9821
16500.000000	79.883	150.1874
16750.000000	76.819	154.8668
17000.000000	74.755	158.3969
17250.000000	73.617	164.5289
17500.000000	73.689	157.5702
17750.000000	72.455	137.1740
18000.000000	69.302	80.9582
18250.000000	65.019	48.9958
18500.000000	60.169	-7.1860
18750.000000	56.370	73.3945
19000.000000	56.319	24.5742
19250.000000	57.453	-46.5957
19500.000000	58.375	103.0361
19750.000000	58.860	-52.1631
20000.000000	59.086	-80.3945
