* Measurement data measured by REW V5.20.7
* Source: Input device not selected, no input selected, L, volume: no control
* Format: 128k Log Swept Sine, 1 sweep at -12.0 dBFS with no timing reference
* Dated: 2022. 5. 1 ¿ÀÈÄ 5:37:17
* REW Settings:
*  C-weighting compensation: Off
*  Target level: 75.0 dB
* Note: 
* Measurement: l
* Smoothing: 1/24 octave
* Frequency Step: 1/48 octave
* Start Frequency: 20.300 Hz
*
* Freq(Hz)	SPL(dB)	Phase(degrees)
20.299999	82.594	-121.2677
20.600000	82.715	-121.5220
20.900000	82.938	-122.1491
21.200001	83.095	-123.1601
21.400000	83.154	-123.9085
21.799999	83.194	-125.2462
22.000000	83.197	-125.7205
22.400000	83.223	-126.2817
22.700001	83.290	-126.6289
23.000000	83.388	-127.2193
23.299999	83.477	-128.1596
23.600000	83.523	-129.3321
24.000000	83.495	-130.8505
24.299999	83.431	-131.6197
24.700001	83.368	-132.0416
25.000000	83.383	-132.1595
25.400000	83.484	-132.5880
25.799999	83.589	-133.6618
26.200001	83.607	-135.0602
26.500000	83.560	-135.8902
26.900000	83.478	-136.3682
27.200001	83.463	-136.3795
27.600000	83.534	-136.4843
28.000000	83.632	-137.2744
28.500000	83.606	-138.9436
29.000000	83.372	-139.6491
29.500000	83.188	-138.3893
30.000000	83.352	-136.7204
30.400000	83.651	-136.7828
30.700001	83.838	-137.9435
31.100000	83.905	-140.2801
31.500000	83.751	-142.3026
32.000000	83.435	-142.9383
32.500000	83.334	-141.8776
33.000000	83.577	-141.3696
33.500000	83.914	-142.8804
34.000000	84.073	-145.7608
34.500000	84.026	-148.2681
35.000000	83.944	-149.5180
35.500000	83.995	-150.1097
36.000000	84.133	-151.1302
36.500000	84.183	-152.5635
37.000000	84.097	-153.1396
37.500000	84.061	-152.1022
38.200001	84.401	-150.3429
38.700001	84.661	-150.8852
39.500000	84.452	-151.0706
40.000000	84.373	-147.5134
40.599998	85.112	-142.4843
41.200001	86.203	-143.2880
41.799999	86.657	-149.9985
42.500000	86.071	-157.2546
43.099998	85.153	-157.9281
43.700001	84.666	-155.6745
44.400002	84.712	-154.7312
45.000000	84.775	-156.0477
45.500000	84.756	-157.4300
46.200001	84.734	-159.3253
46.799999	84.726	-161.1190
47.500000	84.682	-163.1177
48.200001	84.614	-164.7310
48.700001	84.542	-165.5552
49.400002	84.427	-165.8965
50.000000	84.397	-165.5032
50.799999	84.476	-165.0930
51.500000	84.519	-165.2116
52.200001	84.501	-165.1290
53.000000	84.535	-164.7007
53.799999	84.655	-164.9479
54.500000	84.705	-165.9965
55.200001	84.639	-167.0284
56.000000	84.547	-167.2238
57.000000	84.705	-166.7719
58.000000	85.110	-167.7080
59.000000	85.454	-170.6794
60.000000	85.466	-174.6870
60.799999	85.198	-177.0737
61.500000	84.853	-177.8719
62.200001	84.515	-177.3759
63.000000	84.309	-175.8311
64.000000	84.349	-175.1222
65.000000	84.190	-176.2051
66.000000	83.854	-175.1942
67.000000	83.930	-173.3103
68.000000	84.162	-173.4532
69.000000	84.272	-173.9748
70.000000	84.434	-173.8556
71.000000	84.703	-174.1440
72.000000	84.888	-175.2870
73.000000	84.952	-176.3351
74.000000	84.976	-177.4336
75.000000	84.881	-178.6616
76.199997	84.705	-179.1986
77.500000	84.687	-179.6459
78.800003	84.748	178.8134
80.000000	84.700	176.9495
81.199997	84.588	175.8904
82.500000	84.538	175.3723
83.800003	84.489	174.6864
85.000000	84.341	174.3212
86.199997	84.188	174.7261
87.500000	84.140	175.2258
88.500000	84.159	175.1056
90.000000	84.189	173.9961
91.199997	84.165	172.7035
92.500000	84.101	171.2135
93.800003	83.949	170.1061
95.000000	83.819	170.1133
96.199997	83.815	170.4771
97.500000	83.883	170.5254
98.800003	83.957	170.3408
100.000000	84.029	169.9873
101.500000	84.082	169.4546
103.000000	84.158	169.1391
104.400002	84.255	168.4445
106.000000	84.283	167.3813
107.500000	84.229	166.6715
109.000000	84.122	166.5695
110.599998	83.993	166.9176
112.000000	83.861	167.3514
113.800003	83.736	167.5857
115.000000	83.701	166.9973
117.199997	83.659	164.5573
118.000000	83.638	163.4814
120.599998	83.404	161.9449
122.000000	83.397	162.4642
124.099998	83.502	162.3621
125.000000	83.551	162.0834
126.500000	83.640	161.6549
128.000000	83.725	161.5509
131.500000	83.628	162.7929
132.000000	83.569	162.9901
134.000000	83.315	163.1636
136.000000	83.190	161.9849
138.000000	83.244	160.4209
140.000000	83.339	159.9452
143.000000	83.252	161.0311
145.000000	83.077	161.2237
147.500000	82.961	160.0961
150.000000	83.007	158.5775
152.500000	82.997	157.8285
155.000000	82.908	157.7110
157.500000	82.866	157.3354
160.000000	82.832	156.9555
162.500000	82.794	156.9823
165.000000	82.739	156.8270
167.500000	82.699	156.3760
170.000000	82.653	155.8262
172.500000	82.584	155.7578
175.000000	82.529	155.8315
177.500000	82.448	155.7444
180.000000	82.383	155.5987
182.500000	82.344	155.0521
185.000000	82.295	154.2893
187.500000	82.243	153.6373
190.000000	82.182	153.2449
192.500000	82.109	153.0083
195.000000	82.030	152.8137
197.500000	81.962	152.6163
200.000000	81.897	152.5013
203.000000	81.847	152.4894
206.000000	81.817	152.4234
209.000000	81.762	152.5382
212.000000	81.691	152.6384
214.000000	81.637	152.4313
218.000000	81.545	151.7605
220.000000	81.517	151.5230
224.000000	81.446	151.2746
227.000000	81.390	151.1511
230.000000	81.336	150.9103
233.000000	81.252	150.6367
236.000000	81.154	150.3440
240.000000	81.022	149.9528
243.000000	80.968	149.8653
247.000000	80.972	149.8955
250.000000	80.958	149.9388
254.000000	80.841	149.8839
258.000000	80.708	149.7080
262.000000	80.589	149.4373
265.000000	80.488	149.3005
269.000000	80.377	149.3208
272.000000	80.313	149.3316
276.000000	80.247	149.2820
280.000000	80.198	149.2308
285.000000	80.147	149.0662
290.000000	80.093	148.9734
295.000000	80.003	149.1385
300.000000	79.911	149.2397
304.000000	79.850	149.3943
307.000000	79.809	149.5154
311.000000	79.734	149.5947
315.000000	79.645	149.5995
320.000000	79.573	149.4554
325.000000	79.511	149.3215
330.000000	79.418	149.4420
335.000000	79.362	149.5136
340.000000	79.308	149.6076
345.000000	79.255	149.6249
350.000000	79.204	149.6356
355.000000	79.118	149.7029
360.000000	79.030	149.8929
365.000000	78.980	150.1141
370.000000	78.936	150.2585
375.000000	78.868	150.3820
382.000000	78.760	150.4986
387.000000	78.723	150.7895
395.000000	78.664	151.1088
400.000000	78.613	151.0414
406.000000	78.519	150.9635
412.000000	78.442	151.1547
418.000000	78.420	151.4195
425.000000	78.379	151.5038
431.000000	78.314	151.7497
437.000000	78.242	151.9310
444.000000	78.164	151.9278
450.000000	78.111	152.3162
455.000000	78.047	152.7495
462.000000	77.971	153.0048
468.000000	77.932	153.1912
475.000000	77.884	153.5677
482.000000	77.822	153.7275
487.000000	77.776	153.8921
494.000000	77.745	154.2272
500.000000	77.723	154.5504
508.000000	77.644	155.0319
515.000000	77.598	155.4587
522.000000	77.569	155.6997
530.000000	77.532	156.0322
538.000000	77.454	156.4426
545.000000	77.390	156.8385
552.000000	77.362	157.0847
560.000000	77.324	157.4197
570.000000	77.236	158.0939
580.000000	77.228	158.8170
590.000000	77.160	159.2662
600.000000	77.084	159.4669
608.000000	77.054	159.7306
615.000000	77.047	159.9560
622.000000	77.044	160.2509
630.000000	77.024	160.7378
640.000000	76.982	161.4005
650.000000	76.974	161.8588
660.000000	76.979	162.3138
670.000000	76.962	162.8327
680.000000	76.949	163.4624
690.000000	76.913	164.1588
700.000000	76.897	164.9359
710.000000	76.908	165.4270
720.000000	76.921	165.8840
730.000000	76.910	166.5160
740.000000	76.885	166.9867
750.000000	76.876	167.4167
762.000000	76.881	168.1226
775.000000	76.901	168.6855
788.000000	76.917	169.3292
800.000000	76.927	170.1550
812.000000	76.956	170.7861
825.000000	76.981	171.4322
838.000000	77.004	172.0493
850.000000	77.052	172.7739
862.000000	77.111	173.4612
875.000000	77.170	174.0915
885.000000	77.195	174.5691
900.000000	77.240	175.3067
912.000000	77.302	175.7103
925.000000	77.377	176.2247
938.000000	77.469	176.8225
950.000000	77.540	177.2209
962.000000	77.592	177.6294
975.000000	77.674	178.0802
988.000000	77.848	178.3266
1000.000000	77.993	178.6894
1015.000000	77.990	179.5644
1030.000000	77.998	-179.7704
1044.000000	78.061	-179.3812
1060.000000	78.137	-179.1707
1075.000000	78.213	-178.8758
1090.000000	78.317	-178.3142
1106.000000	78.425	-177.7932
1120.000000	78.531	-177.5206
1138.000000	78.669	-177.2293
1150.000000	78.739	-177.0190
1172.000000	78.848	-176.5032
1180.000000	78.890	-176.3369
1206.000000	79.123	-175.9394
1220.000000	79.224	-175.7520
1241.000000	79.310	-175.4605
1250.000000	79.354	-175.3419
1265.000000	79.447	-175.0857
1280.000000	79.552	-174.7486
1315.000000	79.795	-174.0928
1320.000000	79.825	-174.0196
1340.000000	79.938	-173.7920
1360.000000	80.040	-173.5843
1380.000000	80.176	-173.2756
1400.000000	80.329	-172.9380
1430.000000	80.548	-172.6066
1450.000000	80.695	-172.4263
1475.000000	80.858	-172.0508
1500.000000	81.030	-171.7692
1525.000000	81.236	-171.5555
1550.000000	81.427	-171.2751
1575.000000	81.623	-171.0710
1600.000000	81.864	-170.9237
1625.000000	82.094	-170.7905
1650.000000	82.302	-170.6241
1675.000000	82.528	-170.6419
1700.000000	82.754	-170.7108
1725.000000	82.982	-170.8302
1750.000000	83.221	-170.9894
1775.000000	83.463	-171.1387
1800.000000	83.716	-171.3821
1825.000000	83.977	-171.6968
1850.000000	84.231	-172.1226
1875.000000	84.495	-172.5910
1900.000000	84.771	-173.1213
1925.000000	85.049	-173.8129
1950.000000	85.315	-174.6353
1975.000000	85.578	-175.5418
2000.000000	85.839	-176.5437
2030.000000	86.147	-177.8939
2060.000000	86.444	-179.4057
2090.000000	86.732	178.9020
2120.000000	87.006	177.0319
2140.000000	87.173	175.6952
2180.000000	87.477	172.8348
2200.000000	87.615	171.2984
2240.000000	87.853	168.0750
2270.000000	87.993	165.5905
2300.000000	88.096	163.0218
2330.000000	88.161	160.4428
2360.000000	88.182	157.9152
2400.000000	88.159	154.5606
2430.000000	88.109	152.1210
2470.000000	87.995	149.0557
2500.000000	87.878	146.9076
2540.000000	87.688	144.2657
2580.000000	87.466	141.9589
2620.000000	87.222	139.9191
2650.000000	87.032	138.5249
2690.000000	86.766	136.9584
2720.000000	86.557	136.0052
2760.000000	86.272	134.9425
2800.000000	85.987	134.1485
2850.000000	85.639	133.5182
2900.000000	85.331	133.2741
2950.000000	85.049	133.4296
3000.000000	84.818	134.0251
3040.000000	84.661	134.4338
3070.000000	84.560	134.6222
3110.000000	84.450	134.7936
3150.000000	84.352	134.9299
3200.000000	84.220	135.1298
3250.000000	84.084	135.4252
3300.000000	83.967	135.8990
3350.000000	83.856	136.4014
3400.000000	83.743	136.9923
3450.000000	83.656	137.7800
3500.000000	83.613	138.6588
3550.000000	83.600	139.5813
3600.000000	83.623	140.4838
3650.000000	83.674	141.2611
3700.000000	83.736	141.9008
3750.000000	83.816	142.4047
3820.000000	83.977	142.8420
3870.000000	84.095	142.9952
3950.000000	84.290	142.9250
4000.000000	84.404	142.8041
4060.000000	84.531	142.5034
4120.000000	84.669	142.0439
4180.000000	84.811	141.4986
4250.000000	84.972	140.7386
4310.000000	85.106	139.8945
4370.000000	85.251	138.9142
4440.000000	85.408	137.5014
4500.000000	85.523	136.0474
4550.000000	85.600	134.6561
4620.000000	85.675	132.4670
4680.000000	85.710	130.4321
4750.000000	85.713	127.9080
4820.000000	85.673	125.2490
4870.000000	85.608	123.3628
4940.000000	85.454	120.8138
5000.000000	85.276	118.6880
5080.000000	85.005	116.0537
5150.000000	84.737	113.9283
5220.000000	84.433	111.9366
5300.000000	84.065	109.8730
5380.000000	83.675	107.8279
5450.000000	83.305	105.9254
5520.000000	82.859	104.0361
5600.000000	82.203	102.3803
5700.000000	81.206	101.9751
5800.000000	80.220	103.9989
5900.000000	79.442	107.4421
6000.000000	78.907	111.2667
6080.000000	78.613	114.2303
6150.000000	78.423	116.8247
6220.000000	78.271	119.5075
6300.000000	78.111	122.5722
6400.000000	77.963	126.2798
6500.000000	77.894	129.9869
6600.000000	77.874	133.7435
6700.000000	77.886	137.5383
6800.000000	77.976	141.5182
6900.000000	78.133	145.5189
7000.000000	78.377	149.5912
7100.000000	78.773	153.9078
7200.000000	79.365	158.0215
7300.000000	80.100	161.3068
7400.000000	80.953	163.5882
7500.000000	81.928	164.6951
7620.000000	83.237	163.9360
7750.000000	84.725	159.4616
7880.000000	85.951	149.6462
8000.000000	86.410	136.2267
8120.000000	85.951	121.6746
8250.000000	84.476	108.8818
8380.000000	82.241	102.5615
8500.000000	79.944	103.8805
8620.000000	78.110	109.2704
8750.000000	76.745	115.5102
8850.000000	75.867	120.2927
9000.000000	74.739	128.5198
9120.000000	74.111	135.4297
9250.000000	73.625	142.7332
9380.000000	73.230	150.1039
9500.000000	72.980	156.8678
9620.000000	72.860	163.4670
9750.000000	72.879	170.4489
9880.000000	73.034	177.2638
10000.000000	73.275	-176.6962
10150.000000	73.728	-170.1960
10300.000000	74.381	-164.9867
10440.000000	75.098	-162.0257
10600.000000	75.787	-162.1146
10750.000000	75.803	-164.9510
10900.000000	74.755	-163.7976
11060.000000	73.578	-148.4836
11200.000000	74.642	-131.1826
11380.000000	77.112	-120.5179
11500.000000	78.585	-118.3895
11720.000000	81.183	-118.9071
11800.000000	81.997	-120.9937
12060.000000	83.618	-131.6694
12200.000000	84.069	-136.7388
12410.000000	84.629	-143.8659
12500.000000	84.760	-147.2589
12650.000000	84.747	-152.7934
12800.000000	84.479	-157.2589
13150.000000	83.467	-160.9850
13200.000000	83.355	-160.8356
13400.000000	83.150	-159.7694
13600.000000	83.334	-159.9912
13800.000000	83.490	-164.4913
14000.000000	82.798	-171.6075
14300.000000	79.842	-167.0897
14500.000000	78.698	-150.8456
14750.000000	80.400	-132.5914
15000.000000	83.372	-127.0092
15250.000000	86.247	-134.7758
15500.000000	87.880	-157.4947
15750.000000	87.275	173.5287
16000.000000	84.692	153.4348
16250.000000	81.304	143.8094
16500.000000	77.646	143.1239
16750.000000	74.051	153.6227
17000.000000	71.869	162.5419
17250.000000	70.094	175.7264
17500.000000	70.309	-170.3709
17750.000000	71.237	-174.0058
18000.000000	70.942	153.8092
18250.000000	68.886	-37.3324
18500.000000	64.993	-63.5195
18750.000000	60.149	-120.6802
19000.000000	58.698	-21.9619
19250.000000	60.033	10.5391
19500.000000	60.974	-10.6885
19750.000000	61.617	-60.5625
20000.000000	61.893	-67.5801
