* Measurement data measured by REW V5.20.7
* Source: Input device not selected, no input selected, L, volume: no control
* Format: 128k Log Swept Sine, 1 sweep at -12.0 dBFS with no timing reference
* Dated: 2022. 5. 1 ¿ÀÈÄ 5:51:50
* REW Settings:
*  C-weighting compensation: Off
*  Target level: 75.0 dB
* Note: 
* Measurement: b_r
* Smoothing: 1/24 octave
* Frequency Step: 1/48 octave
* Start Frequency: 20.300 Hz
*
* Freq(Hz)	SPL(dB)	Phase(degrees)
20.299999	82.865	-131.2306
20.600000	82.882	-131.6741
20.900000	82.911	-132.4238
21.200001	82.928	-133.0279
21.400000	82.935	-133.3608
21.799999	82.943	-133.9245
22.000000	82.949	-134.1719
22.400000	82.972	-134.5876
22.700001	83.013	-134.8665
23.000000	83.083	-135.2210
23.299999	83.177	-135.7798
23.600000	83.276	-136.6202
24.000000	83.378	-138.1667
24.299999	83.406	-139.4770
24.700001	83.376	-141.0635
25.000000	83.331	-141.9077
25.400000	83.303	-142.5167
25.799999	83.374	-142.8958
26.200001	83.536	-143.6389
26.500000	83.667	-144.6614
26.900000	83.782	-146.5665
27.200001	83.789	-148.0978
27.600000	83.695	-149.7512
28.000000	83.553	-150.5258
28.500000	83.459	-150.3680
29.000000	83.550	-150.0138
29.500000	83.740	-150.4501
30.000000	83.873	-151.7143
30.400000	83.894	-152.8477
30.700001	83.872	-153.5428
31.100000	83.828	-154.1739
31.500000	83.799	-154.5683
32.000000	83.798	-155.0035
32.500000	83.814	-155.5422
33.000000	83.832	-156.1454
33.500000	83.860	-156.7781
34.000000	83.905	-157.5442
34.500000	83.946	-158.5408
35.000000	83.956	-159.6906
35.500000	83.925	-160.7708
36.000000	83.869	-161.5866
36.500000	83.819	-162.0672
37.000000	83.806	-162.2773
37.500000	83.852	-162.4149
38.200001	83.992	-163.0341
38.700001	84.082	-163.9797
39.500000	84.094	-165.7436
40.000000	84.044	-166.4913
40.599998	84.002	-166.9983
41.200001	83.999	-167.4904
41.799999	83.996	-168.1241
42.500000	83.974	-168.8181
43.099998	83.962	-169.3384
43.700001	83.952	-169.9117
44.400002	83.924	-170.5463
45.000000	83.899	-170.9411
45.500000	83.890	-171.2309
46.200001	83.884	-171.6575
46.799999	83.881	-172.0188
47.500000	83.878	-172.5697
48.200001	83.822	-173.2398
48.700001	83.740	-173.4350
49.400002	83.671	-173.0239
50.000000	83.740	-172.6698
50.799999	83.907	-173.3983
51.500000	83.953	-174.8784
52.200001	83.900	-176.3027
53.000000	83.791	-177.5301
53.799999	83.689	-178.1957
54.500000	83.685	-178.5061
55.200001	83.750	-179.2228
56.000000	83.765	179.4301
57.000000	83.679	178.4998
58.000000	83.726	178.3092
59.000000	83.850	177.3204
60.000000	83.877	175.7277
60.799999	83.801	174.4024
61.500000	83.655	173.5559
62.200001	83.487	173.3503
63.000000	83.375	173.5908
64.000000	83.330	173.5720
65.000000	83.288	173.5565
66.000000	83.352	173.5606
67.000000	83.434	172.7463
68.000000	83.421	171.8800
69.000000	83.393	171.3292
70.000000	83.349	170.8463
71.000000	83.277	170.5232
72.000000	83.198	170.3611
73.000000	83.138	170.2028
74.000000	83.065	169.7346
75.000000	82.917	169.5445
76.199997	82.876	170.2769
77.500000	82.990	169.8071
78.800003	83.028	170.0505
80.000000	83.460	169.9283
81.199997	83.701	166.1624
82.500000	83.286	163.1090
83.800003	82.817	164.3263
85.000000	82.788	166.1914
86.199997	82.883	166.1257
87.500000	82.766	164.8375
88.500000	82.580	164.1848
90.000000	82.406	163.5270
91.199997	82.348	162.7325
92.500000	82.330	162.0947
93.800003	82.342	161.7636
95.000000	82.349	161.8384
96.199997	82.345	161.9046
97.500000	82.273	161.6167
98.800003	82.113	161.1823
100.000000	81.983	160.9800
101.500000	81.972	160.4146
103.000000	82.016	159.1109
104.400002	81.965	157.7477
106.000000	81.787	156.9417
107.500000	81.618	156.6248
109.000000	81.494	156.5583
110.599998	81.455	156.7013
112.000000	81.521	157.0365
113.800003	81.649	156.5876
115.000000	81.626	155.5997
117.199997	81.415	154.0980
118.000000	81.354	153.8958
120.599998	81.209	154.9550
122.000000	81.146	157.6653
124.099998	81.009	158.0006
125.000000	80.797	157.6570
126.500000	80.690	156.8150
128.000000	80.851	154.8972
131.500000	81.344	153.1287
132.000000	81.296	153.3712
134.000000	80.969	155.7010
136.000000	80.681	157.7434
138.000000	80.665	158.0018
140.000000	80.981	157.2797
143.000000	81.187	154.8714
145.000000	80.793	153.4099
147.500000	80.208	152.2502
150.000000	80.268	152.8283
152.500000	80.460	151.3378
155.000000	80.253	151.6819
157.500000	80.270	153.1922
160.000000	80.496	154.2208
162.500000	80.442	154.3115
165.000000	80.019	153.7651
167.500000	79.821	152.1317
170.000000	79.938	150.6059
172.500000	79.989	151.0841
175.000000	79.828	152.3012
177.500000	79.556	152.2935
180.000000	79.411	151.8867
182.500000	79.432	152.0961
185.000000	79.404	152.0935
187.500000	79.323	151.5897
190.000000	79.360	150.8300
192.500000	79.368	150.7247
195.000000	79.211	152.1338
197.500000	79.144	153.2617
200.000000	79.122	152.0884
203.000000	78.962	151.1646
206.000000	78.829	151.5413
209.000000	78.802	150.8019
212.000000	78.806	149.2955
214.000000	78.743	149.4053
218.000000	78.599	151.2344
220.000000	78.500	151.7399
224.000000	78.308	152.0206
227.000000	78.161	151.8893
230.000000	78.121	151.9956
233.000000	78.190	151.8959
236.000000	78.191	151.6434
240.000000	78.090	151.5825
243.000000	78.034	151.7448
247.000000	77.998	151.8237
250.000000	77.992	151.7210
254.000000	77.943	151.5302
258.000000	77.828	151.5492
262.000000	77.770	151.8598
265.000000	77.779	152.0266
269.000000	77.748	151.9947
272.000000	77.666	151.9731
276.000000	77.545	152.2795
280.000000	77.468	152.8222
285.000000	77.403	153.1480
290.000000	77.323	153.0872
295.000000	77.287	152.7916
300.000000	77.245	152.9991
304.000000	77.151	153.5452
307.000000	77.102	153.7837
311.000000	77.068	153.8852
315.000000	77.014	153.7436
320.000000	76.958	153.6892
325.000000	76.942	154.2745
330.000000	76.867	154.8465
335.000000	76.735	155.3218
340.000000	76.670	155.3338
345.000000	76.657	155.3514
350.000000	76.629	155.4348
355.000000	76.557	155.6346
360.000000	76.473	156.2890
365.000000	76.409	156.7036
370.000000	76.391	156.4100
375.000000	76.385	156.3121
382.000000	76.325	157.2351
387.000000	76.307	157.5639
395.000000	76.232	157.4526
400.000000	76.176	157.5923
406.000000	76.106	158.1298
412.000000	76.072	158.6364
418.000000	76.062	158.9161
425.000000	76.005	159.1522
431.000000	75.965	159.2783
437.000000	75.987	159.4672
444.000000	76.007	159.8678
450.000000	75.944	160.0584
455.000000	75.872	160.2939
462.000000	75.824	160.9115
468.000000	75.852	161.3884
475.000000	75.869	161.6669
482.000000	75.803	162.1266
487.000000	75.744	162.4951
494.000000	75.683	162.9470
500.000000	75.647	163.5348
508.000000	75.631	164.0298
515.000000	75.634	164.2625
522.000000	75.639	164.5515
530.000000	75.609	164.8699
538.000000	75.543	165.4048
545.000000	75.507	165.9610
552.000000	75.493	166.2505
560.000000	75.452	166.5240
570.000000	75.416	166.9167
580.000000	75.484	167.4738
590.000000	75.515	167.9031
600.000000	75.524	168.3188
608.000000	75.546	168.6959
615.000000	75.554	169.0430
622.000000	75.532	169.3653
630.000000	75.493	169.7314
640.000000	75.448	170.2664
650.000000	75.420	170.8827
660.000000	75.466	171.4574
670.000000	75.497	171.8617
680.000000	75.511	172.1562
690.000000	75.544	172.6182
700.000000	75.553	173.4026
710.000000	75.529	174.1710
720.000000	75.560	174.7057
730.000000	75.614	175.1266
740.000000	75.667	175.5788
750.000000	75.711	176.2152
762.000000	75.707	176.8104
775.000000	75.714	177.4036
788.000000	75.715	177.9405
800.000000	75.729	178.4181
812.000000	75.792	179.0210
825.000000	75.882	179.8007
838.000000	75.976	-179.5116
850.000000	76.055	-178.6946
862.000000	76.109	-178.1561
875.000000	76.145	-177.9655
885.000000	76.188	-177.6716
900.000000	76.280	-176.9660
912.000000	76.382	-176.5052
925.000000	76.494	-176.1477
938.000000	76.570	-175.6539
950.000000	76.614	-175.2767
962.000000	76.661	-174.9380
975.000000	76.737	-174.3511
988.000000	76.821	-173.3545
1000.000000	76.885	-172.3763
1015.000000	77.015	-172.3606
1030.000000	77.142	-172.5960
1044.000000	77.269	-172.4838
1060.000000	77.400	-172.0726
1075.000000	77.512	-171.7687
1090.000000	77.628	-171.3891
1106.000000	77.753	-171.0208
1120.000000	77.854	-170.7579
1138.000000	77.992	-170.4868
1150.000000	78.079	-170.3369
1172.000000	78.244	-169.9053
1180.000000	78.298	-169.8193
1206.000000	78.477	-169.7689
1220.000000	78.579	-169.6215
1241.000000	78.736	-169.3111
1250.000000	78.803	-169.1293
1265.000000	78.911	-168.8729
1280.000000	79.024	-168.7714
1315.000000	79.286	-168.3399
1320.000000	79.325	-168.2750
1340.000000	79.477	-168.1837
1360.000000	79.623	-168.1293
1380.000000	79.774	-167.9076
1400.000000	79.924	-167.5910
1430.000000	80.186	-167.4132
1450.000000	80.347	-167.3478
1475.000000	80.546	-167.0011
1500.000000	80.760	-166.7843
1525.000000	81.003	-166.7785
1550.000000	81.249	-166.7620
1575.000000	81.454	-166.6664
1600.000000	81.687	-166.6177
1625.000000	81.941	-166.6600
1650.000000	82.179	-166.8102
1675.000000	82.428	-167.0422
1700.000000	82.687	-167.2733
1725.000000	82.957	-167.5741
1750.000000	83.221	-167.9199
1775.000000	83.491	-168.2795
1800.000000	83.782	-168.8188
1825.000000	84.079	-169.5268
1850.000000	84.370	-170.2750
1875.000000	84.662	-171.1545
1900.000000	84.957	-172.1703
1925.000000	85.251	-173.3295
1950.000000	85.547	-174.6350
1975.000000	85.832	-176.0472
2000.000000	86.101	-177.6200
2030.000000	86.406	-179.7411
2060.000000	86.700	178.0022
2090.000000	86.969	175.5715
2120.000000	87.190	172.8638
2140.000000	87.318	170.9479
2180.000000	87.525	167.0103
2200.000000	87.592	165.0068
2240.000000	87.654	160.9328
2270.000000	87.655	157.8395
2300.000000	87.610	154.8513
2330.000000	87.516	152.0142
2360.000000	87.384	149.4031
2400.000000	87.162	146.3492
2430.000000	86.974	144.3154
2470.000000	86.713	141.8626
2500.000000	86.514	140.2679
2540.000000	86.258	138.4228
2580.000000	85.997	136.6981
2620.000000	85.705	135.1316
2650.000000	85.482	134.1453
2690.000000	85.186	132.9879
2720.000000	84.965	132.2873
2760.000000	84.671	131.5765
2800.000000	84.373	131.1145
2850.000000	84.022	130.8202
2900.000000	83.697	130.7965
2950.000000	83.402	130.9258
3000.000000	83.128	131.1268
3040.000000	82.928	131.5116
3070.000000	82.791	131.8815
3110.000000	82.625	132.4677
3150.000000	82.461	133.0915
3200.000000	82.265	133.8687
3250.000000	82.106	134.7108
3300.000000	81.954	135.6692
3350.000000	81.809	136.7889
3400.000000	81.697	138.0120
3450.000000	81.627	139.2689
3500.000000	81.567	140.5005
3550.000000	81.529	141.7015
3600.000000	81.515	143.0336
3650.000000	81.539	144.5078
3700.000000	81.605	145.9738
3750.000000	81.729	147.3144
3820.000000	81.961	148.7459
3870.000000	82.158	149.4366
3950.000000	82.496	150.0768
4000.000000	82.694	150.0962
4060.000000	82.913	150.0117
4120.000000	83.130	149.7942
4180.000000	83.334	149.4204
4250.000000	83.564	148.8175
4310.000000	83.763	148.2132
4370.000000	83.969	147.3565
4440.000000	84.210	146.0129
4500.000000	84.418	144.6230
4550.000000	84.582	143.2989
4620.000000	84.779	141.1722
4680.000000	84.922	139.0641
4750.000000	85.051	136.2485
4820.000000	85.109	133.1681
4870.000000	85.108	130.8653
4940.000000	85.032	127.5851
5000.000000	84.896	124.7664
5080.000000	84.627	121.2386
5150.000000	84.313	118.5314
5220.000000	83.944	116.2521
5300.000000	83.491	114.1498
5380.000000	83.042	112.5400
5450.000000	82.656	111.3729
5520.000000	82.273	110.3322
5600.000000	81.832	109.1541
5700.000000	81.186	107.6965
5800.000000	80.376	107.1649
5900.000000	79.519	108.5099
6000.000000	78.822	111.1464
6080.000000	78.361	113.6953
6150.000000	78.003	116.1927
6220.000000	77.712	118.9069
6300.000000	77.470	122.1327
6400.000000	77.262	126.1158
6500.000000	77.140	129.8775
6600.000000	77.107	133.6948
6700.000000	77.151	137.5340
6800.000000	77.245	141.1975
6900.000000	77.401	144.8454
7000.000000	77.652	148.3412
7100.000000	77.987	151.6208
7200.000000	78.359	154.5682
7300.000000	78.765	157.3234
7400.000000	79.282	160.2045
7500.000000	80.044	162.7682
7620.000000	81.259	163.5426
7750.000000	82.616	160.1600
7880.000000	83.639	151.8969
8000.000000	83.969	141.0231
8120.000000	83.580	129.7035
8250.000000	82.461	119.7025
8380.000000	80.795	113.1584
8500.000000	78.856	111.5001
8620.000000	76.799	115.7038
8750.000000	75.161	124.1111
8850.000000	74.424	130.2851
9000.000000	73.619	138.2781
9120.000000	72.994	144.4384
9250.000000	72.402	151.8676
9380.000000	71.944	160.1429
9500.000000	71.662	168.1961
9620.000000	71.527	176.1210
9750.000000	71.549	-175.4852
9880.000000	71.804	-166.8323
10000.000000	72.242	-158.7731
10150.000000	73.018	-149.1571
10300.000000	74.121	-140.5837
10440.000000	75.471	-133.7533
10600.000000	77.349	-128.6400
10750.000000	79.214	-128.3708
10900.000000	80.645	-133.7909
11060.000000	81.007	-142.0407
11200.000000	80.762	-142.0056
11380.000000	82.310	-135.4359
11500.000000	83.725	-138.7183
11720.000000	84.269	-154.3907
11800.000000	84.104	-158.2413
12060.000000	83.693	-168.6073
12200.000000	83.046	-173.9607
12410.000000	81.457	-173.8864
12500.000000	81.011	-171.4238
12650.000000	80.815	-167.7223
12800.000000	80.885	-166.4070
13150.000000	80.133	-165.8516
13200.000000	79.941	-164.8118
13400.000000	79.518	-157.9267
13600.000000	79.943	-151.0008
13800.000000	80.780	-148.1858
14000.000000	81.382	-149.5986
14300.000000	81.467	-152.1994
14500.000000	81.622	-154.2180
14750.000000	80.816	-157.5944
15000.000000	80.025	-147.0540
15250.000000	81.831	-139.3471
15500.000000	83.838	-146.8416
15750.000000	84.354	-165.9143
16000.000000	82.961	177.8143
16250.000000	80.950	170.4653
16500.000000	79.218	166.3294
16750.000000	77.682	165.1451
17000.000000	77.273	163.5173
17250.000000	77.785	144.5960
17500.000000	76.570	67.9980
17750.000000	72.493	-28.2310
18000.000000	66.157	-127.5720
18250.000000	59.022	51.9541
18500.000000	56.125	67.0879
18750.000000	57.152	-33.7109
19000.000000	57.811	-5.0215
19250.000000	58.202	-130.5820
19500.000000	59.477	-171.0586
19750.000000	60.635	-8.6406
20000.000000	61.075	-57.3848
