* Measurement data measured by REW V5.20.7
* Source: Input device not selected, no input selected, L, volume: no control
* Format: 128k Log Swept Sine, 1 sweep at -12.0 dBFS with no timing reference
* Dated: 2022. 5. 1 ¿ÀÈÄ 6:07:45
* REW Settings:
*  C-weighting compensation: Off
*  Target level: 75.0 dB
* Note: 
* Measurement: b_l
* Smoothing: 1/24 octave
* Frequency Step: 1/48 octave
* Start Frequency: 20.300 Hz
*
* Freq(Hz)	SPL(dB)	Phase(degrees)
20.299999	82.922	-123.3086
20.600000	82.916	-123.9043
20.900000	82.896	-124.7910
21.200001	82.867	-125.1690
21.400000	82.861	-125.1902
21.799999	82.903	-125.0242
22.000000	82.954	-125.0027
22.400000	83.092	-125.3183
22.700001	83.197	-125.9270
23.000000	83.279	-126.8222
23.299999	83.324	-127.8909
23.600000	83.331	-129.0067
24.000000	83.286	-130.3556
24.299999	83.232	-131.1269
24.700001	83.171	-131.7756
25.000000	83.163	-132.0615
25.400000	83.217	-132.4183
25.799999	83.324	-133.0415
26.200001	83.431	-134.0138
26.500000	83.487	-134.8366
26.900000	83.524	-135.7877
27.200001	83.547	-136.2529
27.600000	83.611	-136.5653
28.000000	83.742	-136.8275
28.500000	83.959	-137.6224
29.000000	84.129	-139.0499
29.500000	84.186	-140.6027
30.000000	84.164	-141.6776
30.400000	84.145	-142.1052
30.700001	84.152	-142.2726
31.100000	84.195	-142.4842
31.500000	84.266	-142.8321
32.000000	84.364	-143.5669
32.500000	84.440	-144.5960
33.000000	84.472	-145.7190
33.500000	84.470	-146.6729
34.000000	84.476	-147.3385
34.500000	84.527	-147.9242
35.000000	84.605	-148.7285
35.500000	84.651	-149.7391
36.000000	84.645	-150.5752
36.500000	84.634	-150.9628
37.000000	84.671	-151.0916
37.500000	84.749	-151.3528
38.200001	84.830	-151.9968
38.700001	84.861	-152.2789
39.500000	84.996	-152.5866
40.000000	85.114	-153.3391
40.599998	85.173	-154.9009
41.200001	85.093	-156.3665
41.799999	84.961	-157.1051
42.500000	84.886	-157.3447
43.099998	84.900	-157.6534
43.700001	84.930	-158.1938
44.400002	84.958	-158.8841
45.000000	84.986	-159.4426
45.500000	85.010	-159.9197
46.200001	85.030	-160.5854
46.799999	85.034	-161.1199
47.500000	85.017	-161.8149
48.200001	84.927	-162.5168
48.700001	84.809	-162.6642
49.400002	84.678	-161.9700
50.000000	84.728	-161.0702
50.799999	84.999	-161.1819
51.500000	85.188	-163.0094
52.200001	85.193	-165.4201
53.000000	85.032	-167.3902
53.799999	84.900	-167.9944
54.500000	84.937	-168.1478
55.200001	85.044	-168.8551
56.000000	85.068	-170.0275
57.000000	85.005	-170.2267
58.000000	85.136	-169.7797
59.000000	85.307	-170.7206
60.000000	85.255	-172.0615
60.799999	85.175	-172.2404
61.500000	85.208	-172.3402
62.200001	85.256	-173.1510
63.000000	85.179	-174.2061
64.000000	85.075	-174.1719
65.000000	85.173	-174.3067
66.000000	85.209	-175.3551
67.000000	85.150	-176.1479
68.000000	85.075	-176.6385
69.000000	85.032	-176.9987
70.000000	85.025	-177.8414
71.000000	84.939	-179.1257
72.000000	84.774	-179.7700
73.000000	84.715	-179.6289
74.000000	84.771	179.9895
75.000000	84.720	179.1169
76.199997	84.530	179.1459
77.500000	84.421	179.7643
78.800003	84.249	-179.8318
80.000000	84.241	-178.3550
81.199997	84.616	-178.3707
82.500000	85.001	178.5797
83.800003	85.088	174.8414
85.000000	84.989	172.6929
86.199997	84.845	172.1329
87.500000	84.742	172.3900
88.500000	84.641	172.6547
90.000000	84.518	173.4590
91.199997	84.505	173.6541
92.500000	84.484	173.6452
93.800003	84.529	173.8038
95.000000	84.613	173.4126
96.199997	84.612	172.1193
97.500000	84.412	170.4601
98.800003	84.178	169.4657
100.000000	84.086	168.7772
101.500000	84.118	168.1299
103.000000	84.150	168.0140
104.400002	84.101	168.6246
106.000000	83.965	168.8872
107.500000	83.774	167.7475
109.000000	83.616	166.2141
110.599998	83.739	166.5604
112.000000	84.150	168.2849
113.800003	84.235	169.5133
115.000000	83.660	170.1644
117.199997	82.747	151.1224
118.000000	82.665	124.4098
120.599998	82.597	-52.0527
122.000000	83.043	-138.7451
124.099998	83.856	172.1487
125.000000	84.113	167.9695
126.500000	84.211	166.4774
128.000000	83.937	165.3206
131.500000	83.489	160.7208
132.000000	83.597	160.3068
134.000000	84.007	159.3274
136.000000	84.020	160.4150
138.000000	83.791	161.3339
140.000000	83.558	160.6940
143.000000	83.509	159.5808
145.000000	83.541	160.3362
147.500000	83.602	160.5623
150.000000	83.524	158.7829
152.500000	83.403	157.7346
155.000000	83.288	157.6292
157.500000	83.128	157.1755
160.000000	82.986	156.4302
162.500000	83.004	155.9774
165.000000	83.070	155.4746
167.500000	83.030	155.3294
170.000000	82.946	155.7147
172.500000	82.883	155.9864
175.000000	82.821	155.7502
177.500000	82.734	155.1558
180.000000	82.628	154.5728
182.500000	82.521	154.1795
185.000000	82.438	153.8908
187.500000	82.382	153.6149
190.000000	82.345	153.3959
192.500000	82.305	153.1028
195.000000	82.229	152.6365
197.500000	82.136	152.2383
200.000000	82.066	152.0739
203.000000	82.012	152.0137
206.000000	81.945	151.8918
209.000000	81.885	151.7428
212.000000	81.835	151.4690
214.000000	81.773	151.2216
218.000000	81.590	151.0599
220.000000	81.527	151.0790
224.000000	81.458	150.9659
227.000000	81.427	151.0220
230.000000	81.391	151.0210
233.000000	81.323	150.9009
236.000000	81.256	150.5554
240.000000	81.127	150.0400
243.000000	81.013	149.9029
247.000000	80.848	149.9060
250.000000	80.750	150.2610
254.000000	80.747	150.8849
258.000000	80.793	150.9823
262.000000	80.743	150.9147
265.000000	80.706	150.8032
269.000000	80.668	150.6526
272.000000	80.649	150.6478
276.000000	80.613	150.2154
280.000000	80.526	149.9109
285.000000	80.450	149.9950
290.000000	80.365	149.8060
295.000000	80.275	149.6071
300.000000	80.178	149.5374
304.000000	80.052	149.4176
307.000000	79.975	149.3806
311.000000	79.948	149.3857
315.000000	79.928	149.3448
320.000000	79.821	149.3499
325.000000	79.726	149.4413
330.000000	79.679	149.5994
335.000000	79.613	149.5547
340.000000	79.517	149.4238
345.000000	79.409	149.3519
350.000000	79.366	149.4828
355.000000	79.342	149.8217
360.000000	79.278	150.1208
365.000000	79.186	150.2719
370.000000	79.103	150.3211
375.000000	79.068	150.3646
382.000000	78.994	150.8328
387.000000	78.922	151.0409
395.000000	78.819	151.1821
400.000000	78.753	151.3857
406.000000	78.663	151.5111
412.000000	78.577	151.5950
418.000000	78.545	151.6326
425.000000	78.505	151.9326
431.000000	78.479	152.2582
437.000000	78.414	152.2736
444.000000	78.293	152.3256
450.000000	78.237	152.7385
455.000000	78.188	153.1163
462.000000	78.118	153.2487
468.000000	78.068	153.4697
475.000000	77.988	153.8137
482.000000	77.947	153.9932
487.000000	77.920	154.2746
494.000000	77.862	154.7361
500.000000	77.824	155.0151
508.000000	77.808	155.1989
515.000000	77.793	155.2631
522.000000	77.746	155.5507
530.000000	77.673	155.9456
538.000000	77.598	156.4600
545.000000	77.560	157.1185
552.000000	77.538	157.5727
560.000000	77.488	157.7761
570.000000	77.408	157.9636
580.000000	77.382	158.4564
590.000000	77.317	159.1950
600.000000	77.273	159.6518
608.000000	77.260	159.9808
615.000000	77.226	160.3417
622.000000	77.188	160.5848
630.000000	77.149	160.7974
640.000000	77.160	161.1898
650.000000	77.162	161.8046
660.000000	77.108	162.5682
670.000000	77.079	163.0440
680.000000	77.084	163.4742
690.000000	77.101	164.2603
700.000000	77.067	164.9945
710.000000	77.028	165.3624
720.000000	77.032	165.9067
730.000000	77.039	166.6361
740.000000	77.058	167.2131
750.000000	77.091	167.6362
762.000000	77.125	168.2307
775.000000	77.112	169.0238
788.000000	77.087	169.8960
800.000000	77.112	170.3760
812.000000	77.156	170.8704
825.000000	77.182	171.7839
838.000000	77.212	172.4965
850.000000	77.266	173.0053
862.000000	77.322	173.4766
875.000000	77.359	174.1156
885.000000	77.360	174.7290
900.000000	77.412	175.4144
912.000000	77.477	175.8937
925.000000	77.548	176.5618
938.000000	77.607	177.0905
950.000000	77.674	177.4249
962.000000	77.766	177.8914
975.000000	77.848	178.4246
988.000000	77.894	179.1657
1000.000000	77.924	179.9614
1015.000000	78.046	-179.9850
1030.000000	78.182	-179.9393
1044.000000	78.266	-179.4874
1060.000000	78.346	-178.9910
1075.000000	78.445	-178.5133
1090.000000	78.543	-178.0802
1106.000000	78.663	-177.7896
1120.000000	78.768	-177.5879
1138.000000	78.865	-177.1941
1150.000000	78.945	-176.8805
1172.000000	79.105	-176.2230
1180.000000	79.149	-176.0087
1206.000000	79.277	-175.5120
1220.000000	79.366	-175.3284
1241.000000	79.496	-175.1656
1250.000000	79.549	-175.0675
1265.000000	79.638	-174.8907
1280.000000	79.726	-174.6970
1315.000000	79.931	-174.0044
1320.000000	79.966	-173.8810
1340.000000	80.112	-173.3990
1360.000000	80.250	-173.0682
1380.000000	80.403	-172.8873
1400.000000	80.554	-172.5916
1430.000000	80.754	-172.1749
1450.000000	80.891	-172.1017
1475.000000	81.085	-171.9497
1500.000000	81.287	-171.6879
1525.000000	81.480	-171.3505
1550.000000	81.674	-171.1747
1575.000000	81.883	-170.9391
1600.000000	82.106	-170.7950
1625.000000	82.321	-170.7296
1650.000000	82.554	-170.5269
1675.000000	82.781	-170.4054
1700.000000	83.015	-170.4457
1725.000000	83.259	-170.5212
1750.000000	83.501	-170.6655
1775.000000	83.734	-170.9527
1800.000000	83.973	-171.2946
1825.000000	84.218	-171.6310
1850.000000	84.488	-172.0533
1875.000000	84.771	-172.5416
1900.000000	85.042	-173.2377
1925.000000	85.309	-174.0544
1950.000000	85.575	-174.7920
1975.000000	85.842	-175.6835
2000.000000	86.107	-176.8606
2030.000000	86.398	-178.4196
2060.000000	86.684	179.9319
2090.000000	86.973	178.1631
2120.000000	87.248	176.3227
2140.000000	87.414	174.9823
2180.000000	87.711	171.9352
2200.000000	87.844	170.3214
2240.000000	88.069	166.9739
2270.000000	88.193	164.4028
2300.000000	88.267	161.8453
2330.000000	88.304	159.2449
2360.000000	88.313	156.6494
2400.000000	88.266	153.3396
2430.000000	88.187	150.9658
2470.000000	88.048	147.9567
2500.000000	87.911	145.8857
2540.000000	87.693	143.4390
2580.000000	87.454	141.2704
2620.000000	87.201	139.3333
2650.000000	87.004	138.0008
2690.000000	86.740	136.4867
2720.000000	86.532	135.6409
2760.000000	86.249	134.7506
2800.000000	85.989	133.9702
2850.000000	85.665	133.2758
2900.000000	85.356	132.9628
2950.000000	85.068	132.9623
3000.000000	84.791	133.1153
3040.000000	84.601	133.3757
3070.000000	84.475	133.7307
3110.000000	84.327	134.3549
3150.000000	84.201	134.9372
3200.000000	84.065	135.5789
3250.000000	83.961	136.1700
3300.000000	83.887	136.7086
3350.000000	83.801	137.2340
3400.000000	83.721	137.9285
3450.000000	83.675	138.7468
3500.000000	83.644	139.4969
3550.000000	83.635	140.2762
3600.000000	83.644	141.1121
3650.000000	83.672	141.8351
3700.000000	83.747	142.4587
3750.000000	83.841	142.9579
3820.000000	83.973	143.3900
3870.000000	84.082	143.5504
3950.000000	84.237	143.4566
4000.000000	84.329	143.3851
4060.000000	84.458	143.2782
4120.000000	84.596	142.9559
4180.000000	84.737	142.4787
4250.000000	84.917	141.7811
4310.000000	85.070	140.8876
4370.000000	85.213	139.7950
4440.000000	85.370	138.3306
4500.000000	85.486	136.8179
4550.000000	85.568	135.4642
4620.000000	85.657	133.3950
4680.000000	85.700	131.4009
4750.000000	85.706	128.8863
4820.000000	85.653	126.3561
4870.000000	85.571	124.5304
4940.000000	85.409	122.0302
5000.000000	85.239	119.9824
5080.000000	84.979	117.3116
5150.000000	84.707	115.2195
5220.000000	84.392	113.3980
5300.000000	84.009	111.4160
5380.000000	83.628	109.3962
5450.000000	83.257	107.5892
5520.000000	82.800	105.8127
5600.000000	82.123	104.3438
5700.000000	81.127	104.3866
5800.000000	80.188	106.6548
5900.000000	79.475	110.1182
6000.000000	78.974	113.9435
6080.000000	78.692	117.0231
6150.000000	78.481	119.6644
6220.000000	78.304	122.2092
6300.000000	78.163	125.1132
6400.000000	78.044	129.0057
6500.000000	77.976	132.8973
6600.000000	77.981	136.5881
6700.000000	78.027	140.2946
6800.000000	78.125	144.0192
6900.000000	78.300	148.0292
7000.000000	78.538	152.3838
7100.000000	78.955	156.7959
7200.000000	79.577	160.7292
7300.000000	80.330	163.7721
7400.000000	81.204	165.7493
7500.000000	82.202	166.6307
7620.000000	83.539	165.6819
7750.000000	85.013	160.6021
7880.000000	86.147	150.1125
8000.000000	86.471	136.3531
8120.000000	85.888	122.0024
8250.000000	84.302	110.1160
8380.000000	81.994	105.1990
8500.000000	79.758	107.5685
8620.000000	78.084	113.1005
8750.000000	76.833	119.0959
8850.000000	75.995	123.8937
9000.000000	74.948	132.2839
9120.000000	74.371	139.1995
9250.000000	73.869	146.5125
9380.000000	73.494	153.7737
9500.000000	73.333	160.3108
9620.000000	73.290	166.9426
9750.000000	73.319	174.2593
9880.000000	73.482	-178.8809
10000.000000	73.791	-173.0606
10150.000000	74.393	-166.4974
10300.000000	75.187	-161.7606
10440.000000	75.919	-159.4993
10600.000000	76.473	-160.3498
10750.000000	76.254	-163.3696
10900.000000	75.051	-159.6004
11060.000000	74.571	-141.3976
11200.000000	76.261	-126.2056
11380.000000	78.726	-119.5417
11500.000000	80.177	-118.8373
11720.000000	82.710	-122.3694
11800.000000	83.425	-125.8203
12060.000000	84.578	-139.5752
12200.000000	84.759	-145.6271
12410.000000	84.782	-153.4181
12500.000000	84.665	-156.3264
12650.000000	84.317	-160.1623
12800.000000	83.856	-162.5208
13150.000000	82.894	-162.3906
13200.000000	82.831	-161.8975
13400.000000	82.851	-160.0220
13600.000000	83.178	-160.7968
13800.000000	83.208	-166.7367
14000.000000	82.118	-172.9012
14300.000000	79.002	-161.0353
14500.000000	78.829	-143.1011
14750.000000	81.299	-128.1064
15000.000000	84.349	-126.7833
15250.000000	86.928	-139.1924
15500.000000	87.907	-164.7700
15750.000000	86.669	168.7707
16000.000000	83.820	153.2136
16250.000000	80.560	146.0302
16500.000000	77.057	147.9088
16750.000000	74.060	158.3924
17000.000000	72.335	165.8530
17250.000000	70.981	178.6031
17500.000000	71.513	-173.7170
17750.000000	71.988	175.1857
18000.000000	70.867	134.5767
18250.000000	67.931	-98.2595
18500.000000	63.453	142.1758
18750.000000	58.818	127.7495
19000.000000	58.250	6.0532
19250.000000	59.733	129.0547
19500.000000	60.821	-42.6777
19750.000000	61.416	-62.0098
20000.000000	61.541	-64.5273
