* Measurement data measured by REW V5.20.7
* Source: ???(Realtek High Definition Audi, no input selected, L, volume: no control
* Format: 128k Log Swept Sine, 1 sweep at -12.0 dBFS with no timing reference
* Dated: 14-Oct-2022 00:36:50
* REW Settings:
*  C-weighting compensation: Off
*  Target level: 75.0 dB
* Note: ; 
* Measurement: Ultrasone Pyco L
* Smoothing: 1/24 octave
* Frequency Step: 1/48 octave
* Start Frequency: 20.300 Hz
*
* Freq(Hz)	SPL(dB)	Phase(degrees)
20.299999	73.142	-145.6567
20.600000	73.130	-145.8871
20.900000	73.108	-146.2229
21.200001	73.098	-146.3579
21.400000	73.105	-146.3942
21.799999	73.152	-146.5371
22.000000	73.184	-146.7222
22.400000	73.241	-147.3712
22.700001	73.258	-148.0210
23.000000	73.247	-148.6772
23.299999	73.217	-149.2269
23.600000	73.186	-149.6304
24.000000	73.170	-149.9856
24.299999	73.187	-150.2303
24.700001	73.242	-150.6911
25.000000	73.289	-151.1937
25.400000	73.336	-152.0312
25.799999	73.353	-152.8999
26.200001	73.346	-153.6330
26.500000	73.336	-154.0532
26.900000	73.332	-154.4792
27.200001	73.337	-154.7644
27.600000	73.350	-155.1778
28.000000	73.354	-155.6402
28.500000	73.330	-156.1431
29.000000	73.287	-156.3338
29.500000	73.273	-156.1754
30.000000	73.323	-155.9335
30.400000	73.403	-155.9203
30.700001	73.472	-156.0876
31.100000	73.555	-156.5407
31.500000	73.612	-157.1783
32.000000	73.636	-158.0557
32.500000	73.613	-158.8168
33.000000	73.570	-159.2975
33.500000	73.544	-159.4788
34.000000	73.565	-159.5493
34.500000	73.628	-159.8051
35.000000	73.691	-160.3823
35.500000	73.713	-161.1311
36.000000	73.694	-161.7788
36.500000	73.663	-162.2121
37.000000	73.639	-162.5230
37.500000	73.617	-162.7959
38.200001	73.580	-162.9719
38.700001	73.582	-162.8990
39.500000	73.672	-163.0548
40.000000	73.726	-163.5981
40.599998	73.726	-164.4130
41.200001	73.679	-164.9077
41.799999	73.654	-165.0850
42.500000	73.672	-165.3479
43.099998	73.685	-165.7252
43.700001	73.689	-166.0854
44.400002	73.698	-166.5009
45.000000	73.696	-166.9152
45.500000	73.680	-167.2021
46.200001	73.665	-167.4115
46.799999	73.680	-167.5755
47.500000	73.703	-167.9572
48.200001	73.702	-168.3759
48.700001	73.697	-168.5928
49.400002	73.702	-168.8576
50.000000	73.707	-169.1265
50.799999	73.704	-169.4609
51.500000	73.703	-169.6883
52.200001	73.709	-169.9318
53.000000	73.713	-170.2584
53.799999	73.709	-170.6007
54.500000	73.698	-170.8844
55.200001	73.687	-171.1250
56.000000	73.681	-171.3782
57.000000	73.683	-171.7124
58.000000	73.696	-172.0511
59.000000	73.714	-172.5008
60.000000	73.712	-172.9443
60.799999	73.712	-173.2024
61.500000	73.718	-173.4291
62.200001	73.722	-173.7012
63.000000	73.716	-174.0290
64.000000	73.697	-174.3559
65.000000	73.686	-174.6413
66.000000	73.673	-174.9758
67.000000	73.656	-175.2401
68.000000	73.655	-175.4922
69.000000	73.654	-175.7966
70.000000	73.652	-176.0827
71.000000	73.653	-176.3809
72.000000	73.653	-176.6925
73.000000	73.650	-177.0296
74.000000	73.640	-177.3477
75.000000	73.634	-177.6092
76.199997	73.634	-177.9670
77.500000	73.624	-178.3472
78.800003	73.614	-178.6645
80.000000	73.607	-178.9527
81.199997	73.596	-179.2482
82.500000	73.583	-179.5542
83.800003	73.568	-179.8882
85.000000	73.551	179.8100
86.199997	73.536	179.5237
87.500000	73.520	179.2084
88.500000	73.506	179.0019
90.000000	73.493	178.7169
91.199997	73.483	178.4742
92.500000	73.470	178.1992
93.800003	73.452	177.9346
95.000000	73.437	177.7050
96.199997	73.424	177.4652
97.500000	73.411	177.1985
98.800003	73.396	176.9284
100.000000	73.380	176.7079
101.500000	73.364	176.4549
103.000000	73.348	176.1679
104.400002	73.327	175.8967
106.000000	73.305	175.6133
107.500000	73.289	175.3386
109.000000	73.272	175.0644
110.599998	73.252	174.8076
112.000000	73.235	174.6018
113.800003	73.210	174.3201
115.000000	73.192	174.1241
117.199997	73.160	173.7591
118.000000	73.150	173.6291
120.599998	73.126	173.2128
122.000000	73.113	173.0054
124.099998	73.091	172.7324
125.000000	73.080	172.6109
126.500000	73.055	172.4102
128.000000	73.029	172.2340
131.500000	72.977	171.7882
132.000000	72.970	171.7170
134.000000	72.938	171.4398
136.000000	72.908	171.1862
138.000000	72.881	170.9400
140.000000	72.857	170.6953
143.000000	72.818	170.3774
145.000000	72.792	170.1867
147.500000	72.753	169.9086
150.000000	72.708	169.6078
152.500000	72.666	169.3474
155.000000	72.631	169.1116
157.500000	72.594	168.8785
160.000000	72.554	168.6706
162.500000	72.516	168.4762
165.000000	72.477	168.2554
167.500000	72.431	168.0139
170.000000	72.389	167.7825
172.500000	72.355	167.5740
175.000000	72.323	167.3872
177.500000	72.286	167.2090
180.000000	72.247	167.0329
182.500000	72.212	166.8540
185.000000	72.176	166.6707
187.500000	72.137	166.4957
190.000000	72.098	166.3367
192.500000	72.061	166.1851
195.000000	72.023	166.0415
197.500000	71.986	165.8987
200.000000	71.950	165.7631
203.000000	71.907	165.6139
206.000000	71.859	165.4573
209.000000	71.808	165.2911
212.000000	71.757	165.1304
214.000000	71.723	165.0428
218.000000	71.659	164.8826
220.000000	71.626	164.8087
224.000000	71.561	164.6959
227.000000	71.512	164.6100
230.000000	71.463	164.5243
233.000000	71.415	164.4341
236.000000	71.361	164.3373
240.000000	71.291	164.2225
243.000000	71.245	164.1356
247.000000	71.186	164.0249
250.000000	71.140	163.9507
254.000000	71.078	163.8865
258.000000	71.019	163.8243
262.000000	70.960	163.7892
265.000000	70.914	163.7737
269.000000	70.855	163.7237
272.000000	70.814	163.6869
276.000000	70.758	163.6677
280.000000	70.704	163.6699
285.000000	70.636	163.6411
290.000000	70.567	163.6016
295.000000	70.497	163.6026
300.000000	70.428	163.6175
304.000000	70.372	163.6336
307.000000	70.333	163.6511
311.000000	70.285	163.6830
315.000000	70.234	163.7097
320.000000	70.168	163.7418
325.000000	70.104	163.7935
330.000000	70.039	163.8845
335.000000	69.974	163.9713
340.000000	69.913	164.0369
345.000000	69.851	164.1117
350.000000	69.787	164.2028
355.000000	69.725	164.3268
360.000000	69.660	164.4548
365.000000	69.595	164.5588
370.000000	69.532	164.6559
375.000000	69.473	164.7589
382.000000	69.391	164.9292
387.000000	69.331	165.0836
395.000000	69.245	165.3573
400.000000	69.191	165.5248
406.000000	69.119	165.7062
412.000000	69.050	165.8849
418.000000	68.985	166.1120
425.000000	68.911	166.4070
431.000000	68.846	166.6316
437.000000	68.779	166.8532
444.000000	68.706	167.1319
450.000000	68.646	167.4039
455.000000	68.598	167.6196
462.000000	68.532	167.8992
468.000000	68.474	168.1620
475.000000	68.416	168.4859
482.000000	68.360	168.8037
487.000000	68.318	169.0265
494.000000	68.257	169.3584
500.000000	68.204	169.6859
508.000000	68.135	170.1390
515.000000	68.075	170.4942
522.000000	68.016	170.8323
530.000000	67.957	171.2785
538.000000	67.901	171.7505
545.000000	67.850	172.1526
552.000000	67.797	172.5548
560.000000	67.735	173.0179
570.000000	67.662	173.6057
580.000000	67.589	174.2169
590.000000	67.519	174.8714
600.000000	67.463	175.5242
608.000000	67.413	176.0226
615.000000	67.373	176.4619
622.000000	67.335	176.8988
630.000000	67.295	177.3906
640.000000	67.244	178.0410
650.000000	67.194	178.7028
660.000000	67.149	179.4041
670.000000	67.102	-179.8977
680.000000	67.058	-179.1832
690.000000	67.019	-178.4703
700.000000	66.986	-177.7767
710.000000	66.958	-177.0536
720.000000	66.930	-176.3224
730.000000	66.903	-175.6108
740.000000	66.882	-174.8789
750.000000	66.863	-174.1453
762.000000	66.842	-173.2431
775.000000	66.819	-172.2279
788.000000	66.805	-171.2554
800.000000	66.796	-170.3540
812.000000	66.787	-169.4637
825.000000	66.792	-168.5061
838.000000	66.802	-167.5480
850.000000	66.810	-166.6670
862.000000	66.824	-165.7814
875.000000	66.846	-164.8280
885.000000	66.862	-164.0981
900.000000	66.893	-163.0337
912.000000	66.927	-162.2156
925.000000	66.970	-161.3110
938.000000	67.015	-160.4064
950.000000	67.061	-159.6134
962.000000	67.111	-158.8501
975.000000	67.169	-158.0464
988.000000	67.230	-157.2796
1000.000000	67.289	-156.6213
1015.000000	67.368	-155.8166
1030.000000	67.449	-155.0330
1044.000000	67.527	-154.3863
1060.000000	67.621	-153.6972
1075.000000	67.705	-153.0757
1090.000000	67.782	-152.4875
1106.000000	67.864	-151.9131
1120.000000	67.937	-151.4551
1138.000000	68.032	-150.9256
1150.000000	68.095	-150.6083
1172.000000	68.209	-150.0408
1180.000000	68.249	-149.8450
1206.000000	68.379	-149.2752
1220.000000	68.455	-148.9834
1241.000000	68.574	-148.5730
1250.000000	68.625	-148.4010
1265.000000	68.710	-148.1147
1280.000000	68.792	-147.8544
1315.000000	68.974	-147.3527
1320.000000	68.999	-147.2801
1340.000000	69.101	-146.9583
1360.000000	69.202	-146.6302
1380.000000	69.306	-146.3444
1400.000000	69.415	-146.0699
1430.000000	69.586	-145.6221
1450.000000	69.697	-145.3406
1475.000000	69.834	-145.0028
1500.000000	69.973	-144.6778
1525.000000	70.115	-144.4191
1550.000000	70.261	-144.2485
1575.000000	70.408	-144.3635
1600.000000	70.475	-144.8564
1625.000000	70.437	-144.7880
1650.000000	70.461	-144.0782
1675.000000	70.526	-143.3429
1700.000000	70.633	-142.5002
1725.000000	70.788	-141.8473
1750.000000	70.950	-141.4105
1775.000000	71.106	-141.0780
1800.000000	71.258	-140.8071
1825.000000	71.408	-140.5903
1850.000000	71.559	-140.4098
1875.000000	71.710	-140.2649
1900.000000	71.860	-140.1376
1925.000000	72.013	-140.0252
1950.000000	72.168	-139.9442
1975.000000	72.324	-139.8995
2000.000000	72.483	-139.8889
2030.000000	72.680	-139.9079
2060.000000	72.882	-139.9852
2090.000000	73.090	-140.1632
2120.000000	73.304	-140.4404
2140.000000	73.449	-140.6731
2180.000000	73.745	-141.2952
2200.000000	73.894	-141.7093
2240.000000	74.188	-142.7676
2270.000000	74.397	-143.7619
2300.000000	74.590	-144.9309
2330.000000	74.762	-146.2594
2360.000000	74.908	-147.7200
2400.000000	75.052	-149.7990
2430.000000	75.124	-151.4016
2470.000000	75.175	-153.5031
2500.000000	75.182	-155.0069
2540.000000	75.154	-156.8889
2580.000000	75.094	-158.6018
2620.000000	75.009	-160.1236
2650.000000	74.934	-161.1547
2690.000000	74.824	-162.3945
2720.000000	74.734	-163.2214
2760.000000	74.604	-164.1777
2800.000000	74.466	-164.9640
2850.000000	74.290	-165.7261
2900.000000	74.114	-166.2530
2950.000000	73.948	-166.5555
3000.000000	73.803	-166.6971
3040.000000	73.703	-166.7389
3070.000000	73.634	-166.7574
3110.000000	73.545	-166.7923
3150.000000	73.452	-166.8250
3200.000000	73.327	-166.7691
3250.000000	73.202	-166.5080
3300.000000	73.090	-166.0103
3350.000000	73.011	-165.3509
3400.000000	72.976	-164.6913
3450.000000	72.979	-164.1571
3500.000000	72.997	-163.8124
3550.000000	73.006	-163.6359
3600.000000	72.998	-163.5293
3650.000000	72.975	-163.3930
3700.000000	72.942	-163.2010
3750.000000	72.911	-162.9475
3820.000000	72.875	-162.4736
3870.000000	72.861	-162.0529
3950.000000	72.866	-161.3232
4000.000000	72.882	-160.8422
4060.000000	72.914	-160.2372
4120.000000	72.962	-159.6457
4180.000000	73.024	-159.0825
4250.000000	73.114	-158.4559
4310.000000	73.209	-157.9434
4370.000000	73.318	-157.4885
4440.000000	73.462	-157.0539
4500.000000	73.601	-156.7671
4550.000000	73.728	-156.6038
4620.000000	73.919	-156.5346
4680.000000	74.093	-156.6451
4750.000000	74.302	-156.9937
4820.000000	74.510	-157.5524
4870.000000	74.653	-158.0758
4940.000000	74.844	-158.9990
5000.000000	74.998	-159.9763
5080.000000	75.181	-161.5876
5150.000000	75.310	-163.2793
5220.000000	75.399	-165.1877
5300.000000	75.442	-167.5545
5380.000000	75.419	-169.9810
5450.000000	75.342	-172.0379
5520.000000	75.218	-173.9617
5600.000000	75.037	-175.9926
5700.000000	74.764	-178.2907
5800.000000	74.444	179.6956
5900.000000	74.083	178.0350
6000.000000	73.692	176.8303
6080.000000	73.369	176.2036
6150.000000	73.086	175.9022
6220.000000	72.808	175.8431
6300.000000	72.508	176.0352
6400.000000	72.167	176.5883
6500.000000	71.873	177.4425
6600.000000	71.633	178.5262
6700.000000	71.447	179.7652
6800.000000	71.317	-178.8883
6900.000000	71.251	-177.4989
7000.000000	71.253	-176.0696
7100.000000	71.328	-174.6402
7200.000000	71.487	-173.2961
7300.000000	71.735	-172.1411
7400.000000	72.080	-171.3000
7500.000000	72.530	-170.9491
7620.000000	73.212	-171.5137
7750.000000	74.102	-173.9485
7880.000000	75.064	-179.3032
8000.000000	75.841	172.2501
8120.000000	76.233	160.2879
8250.000000	75.937	145.1323
8380.000000	74.821	131.1950
8500.000000	73.251	121.7490
8620.000000	71.442	115.9383
8750.000000	69.464	112.9014
8850.000000	68.022	112.1760
9000.000000	66.041	112.8254
9120.000000	64.612	114.3820
9250.000000	63.203	116.7581
9380.000000	61.919	119.6877
9500.000000	60.837	122.7692
9620.000000	59.842	126.0708
9750.000000	58.852	129.8065
9880.000000	57.960	133.7061
10000.000000	57.206	137.4266
10150.000000	56.332	142.1840
10300.000000	55.539	147.0111
10440.000000	54.857	151.5480
10600.000000	54.139	156.7623
10750.000000	53.555	161.7616
10900.000000	53.032	166.7116
11060.000000	52.505	171.8661
11200.000000	52.080	176.3425
11380.000000	51.600	-177.7859
11500.000000	51.311	-173.7850
11720.000000	50.850	-166.6437
11800.000000	50.714	-164.1209
12060.000000	50.376	-156.1953
12200.000000	50.264	-152.0218
12410.000000	50.194	-145.7677
12500.000000	50.194	-143.0809
12650.000000	50.230	-138.6798
12800.000000	50.313	-134.4337
13150.000000	50.745	-124.8536
13200.000000	50.830	-123.5067
13400.000000	51.222	-118.2544
13600.000000	51.742	-113.3601
13800.000000	52.446	-108.7412
14000.000000	53.321	-104.4449
14300.000000	54.965	-99.0103
14500.000000	56.347	-96.2365
14750.000000	58.498	-94.2647
15000.000000	61.177	-95.7043
15250.000000	64.167	-103.5399
15500.000000	66.637	-121.8036
15750.000000	67.579	-149.0166
16000.000000	66.813	-174.2250
16250.000000	65.173	169.5154
16500.000000	63.645	159.7010
16750.000000	62.680	151.7667
17000.000000	62.179	142.3781
17250.000000	61.727	129.6101
17500.000000	60.804	113.7355
17750.000000	59.137	97.8605
18000.000000	56.815	85.5030
18250.000000	54.157	77.7261
18500.000000	51.530	73.7934
18750.000000	49.263	72.5458
19000.000000	47.499	72.1936
19250.000000	46.265	70.7940
19500.000000	45.517	67.3958
19750.000000	45.143	61.9056
20000.000000	44.997	57.2831
