* Measurement data measured by REW V5.20.5
* Source: Input device not selected, no input selected, L, volume: no control
* Format: 128k Log Swept Sine, 4 sweeps at -15.0 dBFS with no timing reference
* Dated: 2022. 4. 19 ¿ÀÈÄ 5:28:52
* REW Settings:
*  C-weighting compensation: Off
*  Target level: 75.0 dB
* Note: ; 
* Measurement: Quarks_Samsungbundle_Right
* Smoothing: 1/24 octave
* Frequency Step: 1/48 octave
* Start Frequency: 20.300 Hz
*
* Freq(Hz)	SPL(dB)	Phase(degrees)
20.299999	82.824	-175.4158
20.600000	82.830	-175.4258
20.900000	82.840	-175.4440
21.200001	82.845	-175.4649
21.400000	82.845	-175.4873
21.799999	82.838	-175.5623
22.000000	82.832	-175.6171
22.400000	82.817	-175.7559
22.700001	82.808	-175.8765
23.000000	82.806	-176.0043
23.299999	82.807	-176.1374
23.600000	82.811	-176.2771
24.000000	82.821	-176.4782
24.299999	82.834	-176.6439
24.700001	82.856	-176.8849
25.000000	82.874	-177.0760
25.400000	82.896	-177.3320
25.799999	82.921	-177.5722
26.200001	82.947	-177.7830
26.500000	82.967	-177.9192
26.900000	82.990	-178.0746
27.200001	83.004	-178.1769
27.600000	83.019	-178.3014
28.000000	83.028	-178.4171
28.500000	83.029	-178.5510
29.000000	83.022	-178.6752
29.500000	83.016	-178.7985
30.000000	83.006	-178.9330
30.400000	82.995	-179.0523
30.700001	82.989	-179.1475
31.100000	82.987	-179.2796
31.500000	82.988	-179.4168
32.000000	82.993	-179.5982
32.500000	83.004	-179.7943
33.000000	83.020	179.9981
33.500000	83.035	179.7888
34.000000	83.050	179.5874
34.500000	83.066	179.3964
35.000000	83.083	179.2136
35.500000	83.100	179.0388
36.000000	83.115	178.8754
36.500000	83.125	178.7265
37.000000	83.130	178.5913
37.500000	83.129	178.4653
38.200001	83.128	178.2946
38.700001	83.132	178.1711
39.500000	83.132	177.9605
40.000000	83.124	177.8181
40.599998	83.110	177.6382
41.200001	83.090	177.4530
41.799999	83.069	177.2642
42.500000	83.054	177.0412
43.099998	83.053	176.8538
43.700001	83.063	176.6754
44.400002	83.083	176.4766
45.000000	83.100	176.3089
45.500000	83.112	176.1714
46.200001	83.122	175.9864
46.799999	83.127	175.8355
47.500000	83.131	175.6617
48.200001	83.135	175.4855
48.700001	83.135	175.3600
49.400002	83.123	175.1867
50.000000	83.104	175.0374
50.799999	83.074	174.8348
51.500000	83.048	174.6595
52.200001	83.028	174.4873
53.000000	83.021	174.2878
53.799999	83.026	174.0870
54.500000	83.033	173.9176
55.200001	83.041	173.7523
56.000000	83.049	173.5646
57.000000	83.052	173.3346
58.000000	83.041	173.0801
59.000000	83.009	172.8015
60.000000	82.971	172.5833
60.799999	82.952	172.4461
61.500000	82.944	172.3181
62.200001	82.940	172.1771
63.000000	82.936	172.0129
64.000000	82.936	171.8118
65.000000	82.944	171.6140
66.000000	82.953	171.4279
67.000000	82.958	171.2480
68.000000	82.953	171.0565
69.000000	82.931	170.8475
70.000000	82.896	170.6220
71.000000	82.859	170.3818
72.000000	82.822	170.1651
73.000000	82.795	170.0278
74.000000	82.793	169.8987
75.000000	82.804	169.7042
76.199997	82.815	169.4534
77.500000	82.813	169.2105
78.800003	82.795	168.9924
80.000000	82.764	168.7976
81.199997	82.722	168.6090
82.500000	82.680	168.4047
83.800003	82.661	168.2032
85.000000	82.660	168.0198
86.199997	82.657	167.8485
87.500000	82.645	167.6766
88.500000	82.628	167.5557
90.000000	82.591	167.3991
91.199997	82.557	167.2854
92.500000	82.528	167.1740
93.800003	82.516	167.0609
95.000000	82.519	166.9357
96.199997	82.528	166.7833
97.500000	82.535	166.5835
98.800003	82.528	166.3498
100.000000	82.509	166.1122
101.500000	82.474	165.8125
103.000000	82.443	165.5315
104.400002	82.425	165.2834
106.000000	82.410	165.0031
107.500000	82.388	164.7458
109.000000	82.351	164.5119
110.599998	82.304	164.3015
112.000000	82.264	164.1230
113.800003	82.228	163.8996
115.000000	82.215	163.7620
117.199997	82.194	163.5090
118.000000	82.180	163.4188
120.599998	82.115	163.1342
122.000000	82.077	162.9771
124.099998	82.036	162.7516
125.000000	82.025	162.6559
126.500000	82.009	162.4972
128.000000	81.986	162.3425
131.500000	81.897	162.0023
132.000000	81.884	161.9544
134.000000	81.847	161.7671
136.000000	81.826	161.5870
138.000000	81.799	161.4108
140.000000	81.752	161.2396
143.000000	81.676	160.9760
145.000000	81.643	160.7966
147.500000	81.606	160.6027
150.000000	81.551	160.4293
152.500000	81.490	160.2526
155.000000	81.449	160.0749
157.500000	81.420	159.9027
160.000000	81.376	159.7343
162.500000	81.326	159.5765
165.000000	81.289	159.4351
167.500000	81.260	159.2983
170.000000	81.219	159.1634
172.500000	81.166	159.0356
175.000000	81.121	158.9152
177.500000	81.080	158.7955
180.000000	81.023	158.6733
182.500000	80.947	158.5586
185.000000	80.866	158.4626
187.500000	80.787	158.3749
190.000000	80.713	158.2881
192.500000	80.654	158.2005
195.000000	80.616	158.1161
197.500000	80.588	158.0367
200.000000	80.553	157.9599
203.000000	80.505	157.8716
206.000000	80.461	157.7938
209.000000	80.414	157.7242
212.000000	80.359	157.6598
214.000000	80.325	157.6198
218.000000	80.261	157.5467
220.000000	80.225	157.5158
224.000000	80.148	157.4662
227.000000	80.098	157.4355
230.000000	80.046	157.4085
233.000000	79.990	157.3851
236.000000	79.938	157.3647
240.000000	79.872	157.3459
243.000000	79.824	157.3389
247.000000	79.767	157.3383
250.000000	79.721	157.3387
254.000000	79.646	157.3408
258.000000	79.571	157.3572
262.000000	79.499	157.3881
265.000000	79.448	157.4131
269.000000	79.383	157.4467
272.000000	79.332	157.4778
276.000000	79.263	157.5298
280.000000	79.195	157.5895
285.000000	79.116	157.6755
290.000000	79.041	157.7779
295.000000	78.961	157.8925
300.000000	78.873	158.0018
304.000000	78.803	158.1030
307.000000	78.756	158.1904
311.000000	78.692	158.3132
315.000000	78.627	158.4395
320.000000	78.550	158.6040
325.000000	78.468	158.7850
330.000000	78.382	158.9871
335.000000	78.294	159.2280
340.000000	78.207	159.5144
345.000000	78.120	159.8660
350.000000	78.027	160.3182
355.000000	77.931	160.9249
360.000000	77.849	161.7311
365.000000	77.808	162.7302
370.000000	77.833	163.7640
375.000000	77.924	164.5013
382.000000	78.074	164.6136
387.000000	78.130	164.2067
395.000000	78.110	163.4786
400.000000	78.057	163.1897
406.000000	77.977	163.0189
412.000000	77.890	162.9883
418.000000	77.804	163.0529
425.000000	77.714	163.2150
431.000000	77.640	163.4028
437.000000	77.567	163.6197
444.000000	77.483	163.9025
450.000000	77.416	164.1637
455.000000	77.366	164.3927
462.000000	77.299	164.7264
468.000000	77.242	165.0263
475.000000	77.181	165.3890
482.000000	77.121	165.7582
487.000000	77.077	166.0279
494.000000	77.015	166.4156
500.000000	76.966	166.7512
508.000000	76.903	167.1996
515.000000	76.848	167.5983
522.000000	76.795	168.0039
530.000000	76.741	168.4715
538.000000	76.691	168.9395
545.000000	76.643	169.3478
552.000000	76.590	169.7606
560.000000	76.533	170.2415
570.000000	76.477	170.8563
580.000000	76.425	171.4809
590.000000	76.365	172.1190
600.000000	76.302	172.7695
608.000000	76.259	173.2960
615.000000	76.228	173.7620
622.000000	76.200	174.2308
630.000000	76.168	174.7705
640.000000	76.128	175.4520
650.000000	76.092	176.1361
660.000000	76.056	176.8228
670.000000	76.025	177.5120
680.000000	75.997	178.1983
690.000000	75.966	178.8887
700.000000	75.937	179.5807
710.000000	75.914	-179.7198
720.000000	75.895	-179.0151
730.000000	75.882	-178.3099
740.000000	75.872	-177.5963
750.000000	75.864	-176.8782
762.000000	75.856	-176.0173
775.000000	75.854	-175.0823
788.000000	75.858	-174.1355
800.000000	75.868	-173.2559
812.000000	75.878	-172.3821
825.000000	75.893	-171.4451
838.000000	75.914	-170.5143
850.000000	75.937	-169.6590
862.000000	75.961	-168.8163
875.000000	75.998	-167.9308
885.000000	76.033	-167.2699
900.000000	76.091	-166.3085
912.000000	76.139	-165.5658
925.000000	76.198	-164.7840
938.000000	76.262	-164.0232
950.000000	76.324	-163.3441
962.000000	76.387	-162.6891
975.000000	76.459	-162.0050
988.000000	76.535	-161.3500
1000.000000	76.608	-160.7733
1015.000000	76.705	-160.0858
1030.000000	76.803	-159.4389
1044.000000	76.896	-158.8753
1060.000000	76.999	-158.2833
1075.000000	77.094	-157.7764
1090.000000	77.194	-157.3114
1106.000000	77.304	-156.8646
1120.000000	77.400	-156.5135
1138.000000	77.522	-156.1151
1150.000000	77.600	-155.8787
1172.000000	77.734	-155.4893
1180.000000	77.779	-155.3594
1206.000000	77.909	-154.9778
1220.000000	77.967	-154.7935
1241.000000	78.042	-154.5318
1250.000000	78.075	-154.4231
1265.000000	78.144	-154.2453
1280.000000	78.239	-154.0721
1315.000000	78.546	-153.6661
1320.000000	78.592	-153.6077
1340.000000	78.768	-153.3767
1360.000000	78.923	-153.1474
1380.000000	79.049	-152.9146
1400.000000	79.147	-152.6832
1430.000000	79.277	-152.3406
1450.000000	79.361	-152.1186
1475.000000	79.474	-151.8612
1500.000000	79.597	-151.6171
1525.000000	79.722	-151.3928
1550.000000	79.850	-151.2296
1575.000000	79.977	-151.1914
1600.000000	80.076	-151.2495
1625.000000	80.143	-151.0915
1650.000000	80.230	-150.6550
1675.000000	80.346	-150.2276
1700.000000	80.467	-149.9000
1725.000000	80.580	-149.5600
1750.000000	80.695	-149.0955
1775.000000	80.827	-148.5586
1800.000000	80.980	-148.0746
1825.000000	81.146	-147.6819
1850.000000	81.317	-147.3669
1875.000000	81.488	-147.1152
1900.000000	81.660	-146.9153
1925.000000	81.836	-146.7567
1950.000000	82.014	-146.6301
1975.000000	82.196	-146.5292
2000.000000	82.381	-146.4551
2030.000000	82.608	-146.4064
2060.000000	82.840	-146.4060
2090.000000	83.075	-146.4545
2120.000000	83.315	-146.5432
2140.000000	83.478	-146.6259
2180.000000	83.811	-146.8642
2200.000000	83.980	-147.0274
2240.000000	84.322	-147.4548
2270.000000	84.583	-147.8701
2300.000000	84.847	-148.3747
2330.000000	85.113	-148.9710
2360.000000	85.384	-149.6657
2400.000000	85.750	-150.7663
2430.000000	86.026	-151.7342
2470.000000	86.391	-153.2259
2500.000000	86.664	-154.4965
2540.000000	87.020	-156.3956
2580.000000	87.361	-158.5368
2620.000000	87.682	-160.9225
2650.000000	87.909	-162.8676
2690.000000	88.189	-165.6433
2720.000000	88.379	-167.8247
2760.000000	88.612	-170.8098
2800.000000	88.838	-173.9135
2850.000000	89.119	-178.3280
2900.000000	89.310	176.2800
2950.000000	89.303	170.3256
3000.000000	89.089	164.6222
3040.000000	88.804	160.5886
3070.000000	88.548	157.9341
3110.000000	88.172	154.8773
3150.000000	87.778	152.3176
3200.000000	87.289	149.7122
3250.000000	86.817	147.6399
3300.000000	86.367	145.9685
3350.000000	85.941	144.5953
3400.000000	85.536	143.4582
3450.000000	85.148	142.5193
3500.000000	84.772	141.7661
3550.000000	84.407	141.2088
3600.000000	84.053	140.8550
3650.000000	83.708	140.6984
3700.000000	83.373	140.7359
3750.000000	83.057	140.9722
3820.000000	82.667	141.5445
3870.000000	82.433	141.9767
3950.000000	82.116	142.4984
4000.000000	81.934	142.7169
4060.000000	81.715	142.9154
4120.000000	81.487	143.1041
4180.000000	81.247	143.3377
4250.000000	80.959	143.6812
4310.000000	80.715	144.0208
4370.000000	80.480	144.3979
4440.000000	80.231	144.9044
4500.000000	80.042	145.4161
4550.000000	79.900	145.9025
4620.000000	79.721	146.6724
4680.000000	79.582	147.3873
4750.000000	79.430	148.2513
4820.000000	79.286	149.1338
4870.000000	79.189	149.7682
4940.000000	79.062	150.6583
5000.000000	78.960	151.4235
5080.000000	78.830	152.4349
5150.000000	78.725	153.2885
5220.000000	78.628	154.0923
5300.000000	78.521	154.9479
5380.000000	78.424	155.7646
5450.000000	78.346	156.4574
5520.000000	78.278	157.1317
5600.000000	78.208	157.8800
5700.000000	78.125	158.7832
5800.000000	78.048	159.6477
5900.000000	77.987	160.5042
6000.000000	77.948	161.3640
6080.000000	77.937	162.0128
6150.000000	77.940	162.5293
6220.000000	77.948	162.9885
6300.000000	77.954	163.4462
6400.000000	77.956	163.9290
6500.000000	77.953	164.3381
6600.000000	77.944	164.7169
6700.000000	77.930	165.1165
6800.000000	77.924	165.5668
6900.000000	77.934	166.0533
7000.000000	77.963	166.5343
7100.000000	78.005	166.9647
7200.000000	78.065	167.3133
7300.000000	78.148	167.5645
7400.000000	78.246	167.7360
7500.000000	78.346	167.8442
7620.000000	78.460	167.8663
7750.000000	78.557	167.7017
7880.000000	78.595	167.3462
8000.000000	78.576	166.8458
8120.000000	78.529	166.1666
8250.000000	78.470	165.2435
8380.000000	78.409	164.1790
8500.000000	78.355	163.1614
8620.000000	78.292	162.2188
8750.000000	78.210	161.3784
8850.000000	78.164	160.8648
9000.000000	78.173	160.1896
9120.000000	78.241	159.5369
9250.000000	78.362	158.4829
9380.000000	78.511	156.8886
9500.000000	78.634	154.8423
9620.000000	78.716	152.2257
9750.000000	78.731	148.8381
9880.000000	78.637	145.0798
10000.000000	78.437	141.4799
10150.000000	78.038	137.0585
10300.000000	77.496	133.0276
10440.000000	76.887	129.8497
10600.000000	76.085	127.0588
10750.000000	75.256	125.2886
10900.000000	74.403	124.2872
11060.000000	73.509	123.9724
11200.000000	72.756	124.2416
11380.000000	71.829	125.1998
11500.000000	71.231	126.1631
11720.000000	70.181	128.4922
11800.000000	69.818	129.5013
12060.000000	68.705	133.2924
12200.000000	68.156	135.5956
12410.000000	67.414	139.3116
12500.000000	67.124	140.9669
12650.000000	66.673	143.7654
12800.000000	66.260	146.5728
13150.000000	65.452	153.1987
13200.000000	65.345	154.1701
13400.000000	64.904	158.1071
13600.000000	64.462	162.1097
13800.000000	64.060	166.1721
14000.000000	63.744	170.2676
14300.000000	63.456	176.4521
14500.000000	63.373	-179.4154
14750.000000	63.348	-174.3116
15000.000000	63.384	-169.3173
15250.000000	63.467	-164.5017
15500.000000	63.597	-159.9573
15750.000000	63.838	-155.7753
16000.000000	64.287	-152.1048
16250.000000	64.938	-149.0958
16500.000000	65.724	-146.9068
16750.000000	66.607	-145.8465
17000.000000	67.526	-146.4417
17250.000000	68.395	-149.0970
17500.000000	69.076	-153.8603
17750.000000	69.406	-160.1364
18000.000000	69.313	-166.6970
18250.000000	68.833	-172.1778
18500.000000	68.079	-175.6683
18750.000000	67.196	-176.9382
19000.000000	66.311	-176.2350
19250.000000	65.493	-173.9180
19500.000000	64.689	-170.1121
19750.000000	63.876	-165.5665
20000.000000	63.326	-162.6632
