* Measurement data measured by REW V5.20.7
* Source: ???(Realtek High Definition Audi, no input selected, L, volume: no control
* Format: 128k Log Swept Sine, 1 sweep at -12.0 dBFS with no timing reference
* Dated: 13-Oct-2022 23:08:36
* REW Settings:
*  C-weighting compensation: Off
*  Target level: 75.0 dB
* Note: ; 
* Measurement: Ucotech RE1 R
* Smoothing: 1/24 octave
* Frequency Step: 1/48 octave
* Start Frequency: 20.300 Hz
*
* Freq(Hz)	SPL(dB)	Phase(degrees)
20.299999	74.023	25.6465
20.600000	74.052	25.4428
20.900000	74.108	25.0289
21.200001	74.156	24.5020
21.400000	74.179	24.0963
21.799999	74.201	23.2103
22.000000	74.198	22.7665
22.400000	74.174	21.9553
22.700001	74.147	21.4322
23.000000	74.121	20.9612
23.299999	74.099	20.5037
23.600000	74.078	20.0406
24.000000	74.046	19.4248
24.299999	74.019	19.0078
24.700001	73.985	18.5683
25.000000	73.971	18.3203
25.400000	73.982	18.0085
25.799999	74.020	17.5567
26.200001	74.062	16.8655
26.500000	74.076	16.2271
26.900000	74.063	15.3546
27.200001	74.032	14.7942
27.600000	73.987	14.2459
28.000000	73.960	13.8633
28.500000	73.964	13.3829
29.000000	73.978	12.7461
29.500000	73.975	12.0833
30.000000	73.967	11.5942
30.400000	73.980	11.3016
30.700001	74.004	11.0603
31.100000	74.041	10.6296
31.500000	74.063	10.1003
32.000000	74.058	9.4922
32.500000	74.039	9.1208
33.000000	74.042	8.8870
33.500000	74.064	8.5356
34.000000	74.067	7.9986
34.500000	74.027	7.5011
35.000000	73.967	7.2539
35.500000	73.928	7.1897
36.000000	73.921	7.0446
36.500000	73.919	6.6711
37.000000	73.896	6.1521
37.500000	73.853	5.6373
38.200001	73.786	4.9911
38.700001	73.737	4.5529
39.500000	73.664	4.0264
40.000000	73.646	3.8347
40.599998	73.671	3.5345
41.200001	73.710	2.9414
41.799999	73.716	2.1848
42.500000	73.679	1.5174
43.099998	73.652	1.2209
43.700001	73.647	0.9606
44.400002	73.639	0.5664
45.000000	73.615	0.2628
45.500000	73.596	0.0812
46.200001	73.586	-0.1920
46.799999	73.580	-0.5622
47.500000	73.557	-1.1055
48.200001	73.515	-1.6243
48.700001	73.482	-1.9393
49.400002	73.443	-2.3217
50.000000	73.415	-2.6350
50.799999	73.380	-3.0363
51.500000	73.354	-3.3386
52.200001	73.337	-3.6595
53.000000	73.307	-4.1170
53.799999	73.254	-4.4848
54.500000	73.214	-4.6593
55.200001	73.195	-4.8724
56.000000	73.174	-5.2769
57.000000	73.123	-5.8309
58.000000	73.063	-6.2149
59.000000	73.037	-6.4636
60.000000	73.033	-6.9298
60.799999	73.003	-7.3618
61.500000	72.966	-7.6092
62.200001	72.940	-7.7868
63.000000	72.916	-8.0182
64.000000	72.887	-8.3364
65.000000	72.862	-8.7239
66.000000	72.820	-9.2357
67.000000	72.750	-9.6117
68.000000	72.701	-9.7683
69.000000	72.679	-9.9994
70.000000	72.647	-10.3084
71.000000	72.606	-10.5304
72.000000	72.571	-10.7066
73.000000	72.538	-10.8990
74.000000	72.506	-11.1125
75.000000	72.475	-11.3937
76.199997	72.424	-11.8213
77.500000	72.354	-12.2648
78.800003	72.282	-12.6206
80.000000	72.230	-12.8631
81.199997	72.196	-13.1380
82.500000	72.155	-13.4944
83.800003	72.101	-13.7540
85.000000	72.058	-13.8828
86.199997	72.021	-14.0387
87.500000	71.976	-14.2320
88.500000	71.940	-14.4053
90.000000	71.874	-14.7096
91.199997	71.815	-14.9189
92.500000	71.757	-15.0984
93.800003	71.710	-15.2705
95.000000	71.672	-15.4721
96.199997	71.629	-15.6745
97.500000	71.583	-15.8531
98.800003	71.538	-16.0254
100.000000	71.494	-16.1714
101.500000	71.439	-16.3326
103.000000	71.384	-16.4629
104.400002	71.336	-16.5814
106.000000	71.281	-16.7679
107.500000	71.221	-16.9647
109.000000	71.161	-17.1309
110.599998	71.104	-17.3005
112.000000	71.057	-17.4368
113.800003	70.997	-17.5732
115.000000	70.953	-17.6505
117.199997	70.864	-17.7458
118.000000	70.834	-17.7840
120.599998	70.746	-17.9538
122.000000	70.703	-18.0438
124.099998	70.639	-18.1116
125.000000	70.612	-18.1261
126.500000	70.567	-18.1850
128.000000	70.519	-18.3059
131.500000	70.397	-18.5461
132.000000	70.381	-18.5508
134.000000	70.322	-18.5333
136.000000	70.255	-18.4740
138.000000	70.193	-18.3976
140.000000	70.137	-18.4509
143.000000	70.042	-18.5205
145.000000	69.982	-18.4777
147.500000	69.911	-18.4110
150.000000	69.844	-18.3337
152.500000	69.783	-18.2171
155.000000	69.727	-18.0443
157.500000	69.680	-17.9391
160.000000	69.627	-17.9048
162.500000	69.578	-17.8273
165.000000	69.539	-17.7774
167.500000	69.496	-17.8317
170.000000	69.436	-17.9218
172.500000	69.369	-17.9441
175.000000	69.308	-17.9007
177.500000	69.260	-17.8483
180.000000	69.205	-17.8148
182.500000	69.144	-17.7442
185.000000	69.089	-17.6684
187.500000	69.041	-17.5927
190.000000	68.992	-17.4385
192.500000	68.945	-17.2429
195.000000	68.894	-17.0797
197.500000	68.842	-16.9256
200.000000	68.798	-16.7600
203.000000	68.757	-16.5739
206.000000	68.717	-16.4199
209.000000	68.674	-16.2807
212.000000	68.628	-16.1944
214.000000	68.595	-16.1712
218.000000	68.523	-16.0936
220.000000	68.486	-16.0129
224.000000	68.414	-15.8445
227.000000	68.363	-15.7297
230.000000	68.311	-15.5961
233.000000	68.256	-15.4560
236.000000	68.199	-15.3440
240.000000	68.126	-15.1764
243.000000	68.080	-15.0162
247.000000	68.025	-14.8307
250.000000	67.980	-14.6929
254.000000	67.919	-14.4364
258.000000	67.858	-14.1460
262.000000	67.797	-13.8597
265.000000	67.756	-13.6617
269.000000	67.709	-13.4023
272.000000	67.677	-13.2261
276.000000	67.631	-13.0205
280.000000	67.582	-12.7901
285.000000	67.519	-12.4539
290.000000	67.459	-12.1403
295.000000	67.405	-11.8267
300.000000	67.355	-11.4736
304.000000	67.316	-11.2054
307.000000	67.285	-11.0055
311.000000	67.244	-10.7383
315.000000	67.204	-10.4690
320.000000	67.153	-10.1328
325.000000	67.103	-9.8310
330.000000	67.058	-9.5158
335.000000	67.014	-9.1623
340.000000	66.965	-8.8009
345.000000	66.912	-8.4201
350.000000	66.863	-8.0753
355.000000	66.825	-7.7259
360.000000	66.792	-7.3743
365.000000	66.752	-7.0178
370.000000	66.711	-6.6264
375.000000	66.674	-6.2437
382.000000	66.622	-5.7224
387.000000	66.591	-5.3755
395.000000	66.546	-4.8336
400.000000	66.508	-4.4966
406.000000	66.462	-4.0637
412.000000	66.424	-3.6477
418.000000	66.389	-3.2701
425.000000	66.353	-2.7781
431.000000	66.321	-2.2934
437.000000	66.290	-1.8283
444.000000	66.260	-1.2906
450.000000	66.233	-0.8464
455.000000	66.206	-0.5109
462.000000	66.170	0.0064
468.000000	66.142	0.4760
475.000000	66.120	0.9665
482.000000	66.099	1.4392
487.000000	66.081	1.8019
494.000000	66.055	2.3374
500.000000	66.039	2.7902
508.000000	66.021	3.3622
515.000000	66.000	3.8524
522.000000	65.978	4.3637
530.000000	65.958	4.9431
538.000000	65.937	5.5170
545.000000	65.919	6.0324
552.000000	65.902	6.5535
560.000000	65.881	7.1497
570.000000	65.859	7.8794
580.000000	65.836	8.5880
590.000000	65.823	9.3262
600.000000	65.810	10.0750
608.000000	65.797	10.6781
615.000000	65.787	11.1854
622.000000	65.777	11.6950
630.000000	65.766	12.3134
640.000000	65.755	13.0675
650.000000	65.750	13.7820
660.000000	65.749	14.5046
670.000000	65.744	15.2170
680.000000	65.741	15.9674
690.000000	65.740	16.7446
700.000000	65.742	17.5063
710.000000	65.747	18.2690
720.000000	65.755	19.0416
730.000000	65.766	19.8007
740.000000	65.781	20.5234
750.000000	65.793	21.2382
762.000000	65.813	22.1457
775.000000	65.841	23.1670
788.000000	65.872	24.1576
800.000000	65.904	25.0333
812.000000	65.927	25.9133
825.000000	65.954	26.8910
838.000000	65.994	27.8778
850.000000	66.035	28.8291
862.000000	66.077	29.7941
875.000000	66.131	30.8405
885.000000	66.179	31.6169
900.000000	66.264	32.7182
912.000000	66.338	33.5692
925.000000	66.430	34.4522
938.000000	66.521	35.2950
950.000000	66.605	36.0201
962.000000	66.693	36.7114
975.000000	66.790	37.4391
988.000000	66.885	38.1283
1000.000000	66.971	38.7435
1015.000000	67.080	39.4914
1030.000000	67.192	40.2102
1044.000000	67.298	40.8363
1060.000000	67.420	41.4990
1075.000000	67.529	42.0623
1090.000000	67.635	42.5761
1106.000000	67.751	43.0950
1120.000000	67.849	43.5143
1138.000000	67.972	44.0421
1150.000000	68.055	44.3627
1172.000000	68.203	44.8571
1180.000000	68.255	45.0260
1206.000000	68.428	45.5224
1220.000000	68.528	45.7564
1241.000000	68.682	46.0601
1250.000000	68.748	46.1898
1265.000000	68.856	46.4098
1280.000000	68.960	46.6179
1315.000000	69.198	47.0309
1320.000000	69.231	47.0891
1340.000000	69.359	47.3066
1360.000000	69.487	47.5048
1380.000000	69.616	47.7055
1400.000000	69.746	47.9062
1430.000000	69.942	48.2050
1450.000000	70.066	48.4083
1475.000000	70.222	48.6313
1500.000000	70.375	48.8520
1525.000000	70.522	49.1000
1550.000000	70.661	49.3269
1575.000000	70.796	49.5354
1600.000000	70.928	49.7561
1625.000000	71.057	49.9570
1650.000000	71.186	50.1375
1675.000000	71.318	50.3169
1700.000000	71.450	50.4958
1725.000000	71.584	50.6505
1750.000000	71.720	50.7915
1775.000000	71.857	50.9134
1800.000000	71.994	51.0195
1825.000000	72.133	51.1247
1850.000000	72.278	51.2052
1875.000000	72.422	51.2503
1900.000000	72.564	51.2863
1925.000000	72.706	51.3196
1950.000000	72.850	51.3217
1975.000000	72.993	51.2952
2000.000000	73.136	51.2570
2030.000000	73.311	51.1822
2060.000000	73.487	51.0536
2090.000000	73.667	50.8826
2120.000000	73.847	50.6662
2140.000000	73.967	50.4855
2180.000000	74.204	49.9888
2200.000000	74.321	49.6777
2240.000000	74.548	48.9416
2270.000000	74.706	48.3013
2300.000000	74.853	47.5976
2330.000000	74.986	46.8533
2360.000000	75.106	46.0869
2400.000000	75.249	45.0550
2430.000000	75.345	44.2921
2470.000000	75.458	43.2801
2500.000000	75.534	42.5213
2540.000000	75.623	41.5464
2580.000000	75.698	40.6285
2620.000000	75.760	39.7687
2650.000000	75.798	39.1919
2690.000000	75.848	38.5310
2720.000000	75.894	38.1110
2760.000000	75.973	37.5891
2800.000000	76.071	36.9860
2850.000000	76.194	35.9996
2900.000000	76.294	34.8601
2950.000000	76.369	33.6985
3000.000000	76.423	32.5418
3040.000000	76.453	31.6504
3070.000000	76.468	31.0187
3110.000000	76.482	30.2283
3150.000000	76.492	29.4984
3200.000000	76.498	28.6535
3250.000000	76.502	27.8580
3300.000000	76.506	27.1189
3350.000000	76.510	26.4400
3400.000000	76.514	25.8256
3450.000000	76.523	25.2406
3500.000000	76.535	24.6787
3550.000000	76.552	24.1350
3600.000000	76.575	23.5945
3650.000000	76.603	23.0420
3700.000000	76.635	22.4589
3750.000000	76.671	21.8350
3820.000000	76.728	20.8509
3870.000000	76.772	20.0338
3950.000000	76.838	18.4946
4000.000000	76.861	17.3564
4060.000000	76.852	15.8151
4120.000000	76.772	14.2201
4180.000000	76.601	12.9382
4250.000000	76.335	12.5960
4310.000000	76.203	13.4608
4370.000000	76.272	14.5496
4440.000000	76.525	14.8166
4500.000000	76.750	13.9291
4550.000000	76.891	12.6437
4620.000000	77.008	10.4359
4680.000000	77.047	8.3918
4750.000000	77.035	5.9281
4820.000000	76.966	3.4157
4870.000000	76.877	1.6285
4940.000000	76.701	-0.8071
5000.000000	76.506	-2.7977
5080.000000	76.191	-5.2489
5150.000000	75.871	-7.1504
5220.000000	75.517	-8.7860
5300.000000	75.078	-10.2787
5380.000000	74.614	-11.3528
5450.000000	74.194	-11.9631
5520.000000	73.770	-12.2699
5600.000000	73.285	-12.2963
5700.000000	72.700	-11.9006
5800.000000	72.139	-11.1060
5900.000000	71.603	-9.9885
6000.000000	71.097	-8.5434
6080.000000	70.714	-7.1682
6150.000000	70.396	-5.8113
6220.000000	70.094	-4.3267
6300.000000	69.768	-2.4917
6400.000000	69.399	0.0300
6500.000000	69.079	2.7702
6600.000000	68.805	5.7001
6700.000000	68.575	8.7935
6800.000000	68.397	12.0129
6900.000000	68.282	15.3531
7000.000000	68.231	18.7906
7100.000000	68.245	22.2915
7200.000000	68.326	25.8833
7300.000000	68.488	29.5153
7400.000000	68.739	33.0473
7500.000000	69.082	36.4328
7620.000000	69.617	40.2046
7750.000000	70.345	43.6757
7880.000000	71.232	46.1674
8000.000000	72.182	47.2914
8120.000000	73.239	47.0010
8250.000000	74.463	44.6635
8380.000000	75.684	39.6518
8500.000000	76.677	32.1918
8620.000000	77.357	21.9423
8750.000000	77.541	8.6503
8850.000000	77.228	-1.7617
9000.000000	76.095	-15.1133
9120.000000	74.807	-22.6835
9250.000000	73.263	-27.7969
9380.000000	71.729	-30.3548
9500.000000	70.404	-31.0477
9620.000000	69.193	-30.6180
9750.000000	68.012	-29.2556
9880.000000	66.963	-27.2085
10000.000000	66.097	-24.8591
10150.000000	65.141	-21.4146
10300.000000	64.331	-17.5404
10440.000000	63.714	-13.8344
10600.000000	63.123	-9.7906
10750.000000	62.628	-5.9626
10900.000000	62.199	-1.9603
11060.000000	61.837	2.3865
11200.000000	61.597	6.1710
11380.000000	61.389	11.0223
11500.000000	61.315	14.2055
11720.000000	61.316	19.6764
11800.000000	61.359	21.5744
12060.000000	61.675	27.3772
12200.000000	61.971	30.1537
12410.000000	62.610	33.6912
12500.000000	62.952	34.9226
12650.000000	63.599	36.4761
12800.000000	64.343	37.2721
13150.000000	66.395	35.1148
13200.000000	66.708	34.2041
13400.000000	67.926	28.7018
13600.000000	68.952	20.1247
13800.000000	69.626	9.1816
14000.000000	69.847	-2.3966
14300.000000	69.505	-17.3593
14500.000000	69.137	-25.0460
14750.000000	68.856	-33.2841
15000.000000	68.889	-42.4029
15250.000000	69.044	-55.1722
15500.000000	68.801	-72.8127
15750.000000	67.641	-92.3925
16000.000000	65.501	-108.5113
16250.000000	62.804	-118.5701
16500.000000	60.037	-123.5931
16750.000000	57.522	-125.3427
17000.000000	55.351	-125.1827
17250.000000	53.494	-124.2105
17500.000000	51.879	-122.9934
17750.000000	50.426	-121.9521
18000.000000	49.189	-121.2932
18250.000000	48.200	-121.4060
18500.000000	47.473	-123.1136
18750.000000	46.941	-127.5262
19000.000000	46.503	-141.7626
19250.000000	46.001	162.8649
19500.000000	45.292	29.1801
19750.000000	44.350	-99.4934
20000.000000	43.562	-145.5592
