* Measurement data measured by REW V5.20.5
* Source: 마이크(7- USB Sound Device       , MICROPHONE (마스), L, volume: 0.560
* Format: 128k Log Swept Sine, 2 sweeps at -15.0 dBFS with no timing reference
* Dated: 2022. 4. 19 오후 9:01:13
* REW Settings:
*  C-weighting compensation: Off
*  Target level: 75.0 dB
* Note: 
* Measurement: L
* Smoothing: 1/24 octave
* Frequency Step: 1/48 octave
* Start Frequency: 20.300 Hz
*
* Freq(Hz)	SPL(dB)	Phase(degrees)
20.299999	113.508	-155.4766
20.600000	113.518	-155.7707
20.900000	113.537	-156.2937
21.200001	113.548	-156.7864
21.400000	113.551	-157.1035
21.799999	113.553	-157.7463
22.000000	113.551	-158.0817
22.400000	113.544	-158.7739
22.700001	113.537	-159.3053
23.000000	113.530	-159.8443
23.299999	113.524	-160.3874
23.600000	113.519	-160.9324
24.000000	113.516	-161.6606
24.299999	113.518	-162.2072
24.700001	113.524	-162.9354
25.000000	113.531	-163.4777
25.400000	113.541	-164.1879
25.799999	113.553	-164.8702
26.200001	113.564	-165.5119
26.500000	113.573	-165.9627
26.900000	113.586	-166.5254
27.200001	113.596	-166.9238
27.600000	113.609	-167.4329
28.000000	113.620	-167.9248
28.500000	113.629	-168.5200
29.000000	113.631	-169.0909
29.500000	113.626	-169.6358
30.000000	113.617	-170.1626
30.400000	113.607	-170.5798
30.700001	113.599	-170.8943
31.100000	113.587	-171.3184
31.500000	113.574	-171.7484
32.000000	113.557	-172.2923
32.500000	113.541	-172.8406
33.000000	113.527	-173.3913
33.500000	113.515	-173.9428
34.000000	113.505	-174.4918
34.500000	113.496	-175.0322
35.000000	113.487	-175.5562
35.500000	113.479	-176.0558
36.000000	113.471	-176.5277
36.500000	113.463	-176.9745
37.000000	113.455	-177.4034
37.500000	113.445	-177.8194
38.200001	113.427	-178.3790
38.700001	113.411	-178.7606
39.500000	113.384	-179.3537
40.000000	113.367	-179.7271
40.599998	113.344	179.8159
41.200001	113.321	179.3521
41.799999	113.297	178.8853
42.500000	113.270	178.3422
43.099998	113.247	177.8860
43.700001	113.225	177.4453
44.400002	113.201	176.9504
45.000000	113.182	176.5411
45.500000	113.166	176.2121
46.200001	113.143	175.7708
46.799999	113.123	175.4043
47.500000	113.097	174.9826
48.200001	113.067	174.5721
48.700001	113.044	174.2902
49.400002	113.011	173.9084
50.000000	112.983	173.5874
50.799999	112.946	173.1652
51.500000	112.916	172.7965
52.200001	112.888	172.4199
53.000000	112.857	171.9842
53.799999	112.826	171.5568
54.500000	112.799	171.1891
55.200001	112.770	170.8316
56.000000	112.735	170.4516
57.000000	112.692	170.0109
58.000000	112.648	169.5816
59.000000	112.603	169.1685
60.000000	112.558	168.7552
60.799999	112.522	168.4172
61.500000	112.490	168.1211
62.200001	112.458	167.8290
63.000000	112.420	167.5067
64.000000	112.374	167.1219
65.000000	112.329	166.7527
66.000000	112.284	166.4059
67.000000	112.241	166.0707
68.000000	112.197	165.7353
69.000000	112.150	165.4083
70.000000	112.103	165.0947
71.000000	112.057	164.7868
72.000000	112.011	164.4803
73.000000	111.965	164.1838
74.000000	111.920	163.8936
75.000000	111.875	163.6076
76.199997	111.820	163.2889
77.500000	111.763	162.9667
78.800003	111.706	162.6506
80.000000	111.653	162.3613
81.199997	111.599	162.0774
82.500000	111.540	161.7863
83.800003	111.482	161.5172
85.000000	111.430	161.2639
86.199997	111.376	161.0034
87.500000	111.315	160.7477
88.500000	111.269	160.5728
90.000000	111.204	160.3122
91.199997	111.152	160.1014
92.500000	111.096	159.8916
93.800003	111.043	159.6899
95.000000	110.995	159.4988
96.199997	110.944	159.3145
97.500000	110.889	159.1286
98.800003	110.833	158.9511
100.000000	110.782	158.7934
101.500000	110.718	158.6003
103.000000	110.655	158.4196
104.400002	110.598	158.2731
106.000000	110.537	158.1091
107.500000	110.478	157.9506
109.000000	110.418	157.8003
110.599998	110.354	157.6524
112.000000	110.298	157.5359
113.800003	110.228	157.3958
115.000000	110.183	157.3037
117.199997	110.101	157.1295
118.000000	110.071	157.0661
120.599998	109.972	156.8883
122.000000	109.919	156.8237
124.099998	109.843	156.7381
125.000000	109.811	156.6964
126.500000	109.757	156.6183
128.000000	109.703	156.5378
131.500000	109.576	156.3920
132.000000	109.558	156.3766
134.000000	109.487	156.3255
136.000000	109.419	156.2750
138.000000	109.355	156.2184
140.000000	109.292	156.1585
143.000000	109.190	156.1071
145.000000	109.122	156.1014
147.500000	109.039	156.0769
150.000000	108.960	156.0920
152.500000	108.892	156.1238
155.000000	108.820	156.1332
157.500000	108.741	156.1104
160.000000	108.656	156.1069
162.500000	108.579	156.1590
165.000000	108.511	156.2293
167.500000	108.448	156.2768
170.000000	108.383	156.2949
172.500000	108.312	156.3285
175.000000	108.240	156.3896
177.500000	108.169	156.4791
180.000000	108.102	156.5853
182.500000	108.037	156.6950
185.000000	107.975	156.8143
187.500000	107.914	156.9404
190.000000	107.853	157.0557
192.500000	107.791	157.1616
195.000000	107.730	157.2712
197.500000	107.675	157.3651
200.000000	107.623	157.4346
203.000000	107.560	157.5099
206.000000	107.495	157.5938
209.000000	107.427	157.7012
212.000000	107.356	157.8673
214.000000	107.309	158.0298
218.000000	107.223	158.4225
220.000000	107.183	158.6058
224.000000	107.106	158.8820
227.000000	107.049	158.9528
230.000000	106.993	158.9957
233.000000	106.943	159.1646
236.000000	106.894	159.4923
240.000000	106.819	159.9761
243.000000	106.752	160.2501
247.000000	106.664	160.4627
250.000000	106.607	160.5519
254.000000	106.554	160.7875
258.000000	106.518	161.1300
262.000000	106.463	161.4535
265.000000	106.409	161.6697
269.000000	106.354	161.8935
272.000000	106.330	162.0581
276.000000	106.289	162.3873
280.000000	106.233	162.6817
285.000000	106.174	162.9315
290.000000	106.115	163.3174
295.000000	106.060	163.6613
300.000000	105.996	164.0143
304.000000	105.943	164.2842
307.000000	105.911	164.4892
311.000000	105.870	164.7669
315.000000	105.826	165.0443
320.000000	105.766	165.3625
325.000000	105.711	165.6774
330.000000	105.653	166.0224
335.000000	105.599	166.3656
340.000000	105.555	166.6720
345.000000	105.515	167.0456
350.000000	105.467	167.4202
355.000000	105.416	167.7914
360.000000	105.365	168.1577
365.000000	105.318	168.5145
370.000000	105.271	168.8832
375.000000	105.229	169.2428
382.000000	105.175	169.7303
387.000000	105.135	170.0916
395.000000	105.074	170.6686
400.000000	105.040	171.0429
406.000000	104.996	171.4885
412.000000	104.954	171.9256
418.000000	104.915	172.3633
425.000000	104.871	172.8819
431.000000	104.833	173.3242
437.000000	104.795	173.7573
444.000000	104.753	174.2590
450.000000	104.723	174.6938
455.000000	104.699	175.0717
462.000000	104.662	175.5941
468.000000	104.631	176.0200
475.000000	104.597	176.5131
482.000000	104.564	177.0291
487.000000	104.541	177.4058
494.000000	104.511	177.9265
500.000000	104.487	178.3644
508.000000	104.456	178.9387
515.000000	104.429	179.4433
522.000000	104.404	179.9579
530.000000	104.377	-179.4568
538.000000	104.351	-178.8733
545.000000	104.330	-178.3573
552.000000	104.310	-177.8467
560.000000	104.288	-177.2765
570.000000	104.259	-176.5507
580.000000	104.236	-175.8016
590.000000	104.217	-175.0728
600.000000	104.200	-174.3521
608.000000	104.186	-173.7726
615.000000	104.174	-173.2570
622.000000	104.163	-172.7393
630.000000	104.153	-172.1474
640.000000	104.142	-171.4133
650.000000	104.134	-170.6799
660.000000	104.128	-169.9371
670.000000	104.123	-169.2039
680.000000	104.118	-168.4751
690.000000	104.116	-167.7321
700.000000	104.118	-166.9834
710.000000	104.122	-166.2407
720.000000	104.126	-165.5018
730.000000	104.131	-164.7506
740.000000	104.139	-163.9930
750.000000	104.150	-163.2302
762.000000	104.168	-162.2970
775.000000	104.192	-161.2917
788.000000	104.223	-160.2844
800.000000	104.260	-159.3588
812.000000	104.304	-158.4502
825.000000	104.355	-157.4867
838.000000	104.407	-156.5311
850.000000	104.460	-155.6702
862.000000	104.518	-154.8291
875.000000	104.584	-153.9362
885.000000	104.638	-153.2601
900.000000	104.726	-152.2586
912.000000	104.802	-151.4933
925.000000	104.886	-150.6835
938.000000	104.974	-149.8920
950.000000	105.059	-149.1880
962.000000	105.146	-148.5166
975.000000	105.245	-147.8251
988.000000	105.348	-147.1609
1000.000000	105.443	-146.5755
1015.000000	105.563	-145.8961
1030.000000	105.686	-145.2679
1044.000000	105.802	-144.7103
1060.000000	105.935	-144.1300
1075.000000	106.058	-143.6364
1090.000000	106.179	-143.1896
1106.000000	106.307	-142.7626
1120.000000	106.417	-142.4205
1138.000000	106.556	-142.0188
1150.000000	106.647	-141.7801
1172.000000	106.810	-141.3877
1180.000000	106.868	-141.2585
1206.000000	107.052	-140.8856
1220.000000	107.146	-140.7050
1241.000000	107.281	-140.4444
1250.000000	107.337	-140.3396
1265.000000	107.429	-140.1778
1280.000000	107.519	-140.0252
1315.000000	107.721	-139.6705
1320.000000	107.749	-139.6218
1340.000000	107.856	-139.4316
1360.000000	107.961	-139.2453
1380.000000	108.064	-139.0648
1400.000000	108.167	-138.8867
1430.000000	108.315	-138.6235
1450.000000	108.412	-138.4487
1475.000000	108.532	-138.2380
1500.000000	108.652	-138.0275
1525.000000	108.771	-137.8159
1550.000000	108.889	-137.6052
1575.000000	109.008	-137.4101
1600.000000	109.126	-137.2276
1625.000000	109.244	-137.0533
1650.000000	109.362	-136.8893
1675.000000	109.482	-136.7309
1700.000000	109.603	-136.5892
1725.000000	109.724	-136.4689
1750.000000	109.845	-136.3657
1775.000000	109.965	-136.2761
1800.000000	110.086	-136.2035
1825.000000	110.208	-136.1572
1850.000000	110.330	-136.1377
1875.000000	110.453	-136.1370
1900.000000	110.574	-136.1512
1925.000000	110.696	-136.1908
1950.000000	110.817	-136.2594
1975.000000	110.938	-136.3519
2000.000000	111.058	-136.4724
2030.000000	111.202	-136.6507
2060.000000	111.346	-136.8626
2090.000000	111.488	-137.1215
2120.000000	111.628	-137.4330
2140.000000	111.719	-137.6680
2180.000000	111.897	-138.2060
2200.000000	111.984	-138.5101
2240.000000	112.149	-139.1837
2270.000000	112.265	-139.7431
2300.000000	112.373	-140.3446
2330.000000	112.472	-140.9777
2360.000000	112.562	-141.6267
2400.000000	112.668	-142.5084
2430.000000	112.738	-143.1734
2470.000000	112.822	-144.0489
2500.000000	112.877	-144.6900
2540.000000	112.940	-145.5247
2580.000000	112.994	-146.3397
2620.000000	113.041	-147.1293
2650.000000	113.070	-147.7000
2690.000000	113.103	-148.4283
2720.000000	113.123	-148.9498
2760.000000	113.145	-149.6071
2800.000000	113.162	-150.2246
2850.000000	113.180	-150.9350
2900.000000	113.192	-151.5815
2950.000000	113.202	-152.1564
3000.000000	113.210	-152.6577
3040.000000	113.218	-153.0075
3070.000000	113.224	-153.2413
3110.000000	113.235	-153.5169
3150.000000	113.250	-153.7555
3200.000000	113.276	-154.0130
3250.000000	113.312	-154.2527
3300.000000	113.358	-154.5001
3350.000000	113.411	-154.7848
3400.000000	113.467	-155.1091
3450.000000	113.524	-155.4686
3500.000000	113.582	-155.8676
3550.000000	113.641	-156.3152
3600.000000	113.701	-156.8295
3650.000000	113.754	-157.4465
3700.000000	113.792	-158.2000
3750.000000	113.792	-159.0639
3820.000000	113.681	-160.0129
3870.000000	113.550	-159.8558
3950.000000	113.542	-157.9904
4000.000000	113.733	-156.9343
4060.000000	114.035	-156.5850
4120.000000	114.320	-157.0713
4180.000000	114.567	-158.0489
4250.000000	114.817	-159.5425
4310.000000	115.004	-161.0492
4370.000000	115.167	-162.7475
4440.000000	115.325	-164.9549
4500.000000	115.429	-167.0238
4550.000000	115.492	-168.8543
4620.000000	115.540	-171.5490
4680.000000	115.541	-173.9474
4750.000000	115.493	-176.7909
4820.000000	115.390	-179.6183
4870.000000	115.283	178.4113
4940.000000	115.090	175.7789
5000.000000	114.885	173.6895
5080.000000	114.562	171.2054
5150.000000	114.243	169.3551
5220.000000	113.897	167.8373
5300.000000	113.480	166.5250
5380.000000	113.050	165.6519
5450.000000	112.670	165.2349
5520.000000	112.294	165.1208
5600.000000	111.875	165.3311
5700.000000	111.376	166.0544
5800.000000	110.913	167.2281
5900.000000	110.491	168.7766
6000.000000	110.117	170.6432
6080.000000	109.855	172.3331
6150.000000	109.653	173.9233
6220.000000	109.476	175.6018
6300.000000	109.308	177.6144
6400.000000	109.147	-179.7491
6500.000000	109.046	-177.0092
6600.000000	109.008	-174.2061
6700.000000	109.037	-171.3761
6800.000000	109.139	-168.5678
6900.000000	109.321	-165.8368
7000.000000	109.590	-163.2584
7100.000000	109.954	-160.9400
7200.000000	110.417	-159.0237
7300.000000	110.980	-157.6888
7400.000000	111.639	-157.1648
7500.000000	112.376	-157.7344
7620.000000	113.301	-160.3164
7750.000000	114.212	-165.9560
7880.000000	114.820	-174.5290
8000.000000	114.954	175.8852
8120.000000	114.630	166.2061
8250.000000	113.836	157.1898
8380.000000	112.734	150.5375
8500.000000	111.581	146.5417
8620.000000	110.395	144.3300
8750.000000	109.141	143.5633
8850.000000	108.224	143.8973
9000.000000	106.946	145.5641
9120.000000	106.020	147.6799
9250.000000	105.113	150.5666
9380.000000	104.303	153.9355
9500.000000	103.639	157.3881
9620.000000	103.056	161.0994
9750.000000	102.513	165.3033
9880.000000	102.047	169.6231
10000.000000	101.678	173.7198
10150.000000	101.305	178.9891
10300.000000	101.027	-175.6423
10440.000000	100.852	-170.5894
10600.000000	100.747	-164.7776
10750.000000	100.740	-159.3257
10900.000000	100.825	-153.9023
11060.000000	101.016	-148.2032
11200.000000	101.272	-143.3150
11380.000000	101.732	-137.1944
11500.000000	102.126	-133.2548
11720.000000	103.048	-126.4447
11800.000000	103.452	-124.1413
12060.000000	105.062	-117.5999
12200.000000	106.147	-114.9206
12410.000000	108.100	-112.6878
12500.000000	109.058	-112.6884
12650.000000	110.777	-114.5818
12800.000000	112.519	-119.7255
13150.000000	115.286	-147.4178
13200.000000	115.412	-152.6292
13400.000000	115.204	-172.6860
13600.000000	114.215	171.7793
13800.000000	113.004	160.7696
14000.000000	111.872	151.8546
14300.000000	110.216	138.7053
14500.000000	108.884	129.9899
14750.000000	106.799	121.0912
15000.000000	104.372	116.0949
15250.000000	101.890	115.1793
15500.000000	99.599	117.4708
15750.000000	97.634	121.9163
16000.000000	96.060	127.6919
16250.000000	94.906	134.0893
16500.000000	94.215	140.3896
16750.000000	94.063	145.5324
17000.000000	94.489	147.7052
17250.000000	95.260	143.6655
17500.000000	95.631	130.5077
17750.000000	94.718	111.9148
18000.000000	92.276	97.9244
18250.000000	88.841	93.2959
18500.000000	85.195	95.8451
18750.000000	81.854	102.3123
19000.000000	78.924	110.6284
19250.000000	76.317	119.8287
19500.000000	73.974	129.6855
19750.000000	71.964	139.1984
20000.000000	70.803	144.7585
