* Measurement data measured by REW V5.20.5
* Source: ??? (Realtek(R) Audio), MICROPHONE (Master Volume), L, volume: 0.250
* Format: 128k Log Swept Sine, 1 sweep at -12.0 dBFS with no timing reference
* Dated: Aug 20, 2022 5:35:06 PM
* REW Settings:
*  C-weighting compensation: Off
*  Target level: 75.0 dB
* Note: 
* Measurement: RE-2 (Final E M) R
* Smoothing: 1/24 octave
* Frequency Step: 1/48 octave
* Start Frequency: 20.300 Hz
*
* Freq(Hz)	SPL(dB)	Phase(degrees)
20.299999	80.313	-135.7603
20.600000	80.337	-136.0763
20.900000	80.385	-136.6845
21.200001	80.422	-137.2494
21.400000	80.439	-137.5905
21.799999	80.463	-138.2271
22.000000	80.474	-138.5231
22.400000	80.496	-139.0670
22.700001	80.519	-139.4501
23.000000	80.552	-139.8440
23.299999	80.594	-140.2810
23.600000	80.641	-140.7846
24.000000	80.702	-141.5638
24.299999	80.742	-142.1985
24.700001	80.783	-143.0433
25.000000	80.808	-143.6318
25.400000	80.840	-144.3297
25.799999	80.881	-144.9492
26.200001	80.930	-145.5421
26.500000	80.969	-145.9940
26.900000	81.020	-146.6092
27.200001	81.053	-147.0671
27.600000	81.089	-147.6452
28.000000	81.119	-148.1696
28.500000	81.154	-148.7564
29.000000	81.187	-149.3033
29.500000	81.218	-149.8380
30.000000	81.245	-150.3714
30.400000	81.265	-150.8033
30.700001	81.278	-151.1352
31.100000	81.294	-151.5920
31.500000	81.307	-152.0597
32.000000	81.318	-152.6380
32.500000	81.328	-153.1888
33.000000	81.342	-153.7172
33.500000	81.363	-154.2473
34.000000	81.387	-154.7943
34.500000	81.411	-155.3535
35.000000	81.435	-155.9151
35.500000	81.456	-156.4725
36.000000	81.471	-157.0089
36.500000	81.482	-157.4964
37.000000	81.494	-157.9265
37.500000	81.509	-158.3324
38.200001	81.527	-158.9252
38.700001	81.529	-159.3257
39.500000	81.532	-159.7695
40.000000	81.556	-159.9958
40.599998	81.604	-160.4358
41.200001	81.634	-161.0987
41.799999	81.625	-161.7563
42.500000	81.598	-162.2341
43.099998	81.602	-162.4908
43.700001	81.630	-162.8461
44.400002	81.653	-163.4499
45.000000	81.649	-163.9803
45.500000	81.637	-164.3489
46.200001	81.620	-164.7621
46.799999	81.613	-165.0798
47.500000	81.612	-165.4611
48.200001	81.617	-165.9027
48.700001	81.620	-166.2855
49.400002	81.613	-166.9057
50.000000	81.590	-167.4454
50.799999	81.543	-168.0615
51.500000	81.501	-168.4749
52.200001	81.465	-168.7764
53.000000	81.442	-168.9892
53.799999	81.451	-169.1385
54.500000	81.481	-169.3318
55.200001	81.516	-169.6221
56.000000	81.548	-169.9556
57.000000	81.604	-170.2236
58.000000	81.704	-170.7055
59.000000	81.756	-171.6913
60.000000	81.690	-172.5228
60.799999	81.611	-172.6405
61.500000	81.576	-172.5400
62.200001	81.566	-172.5595
63.000000	81.539	-172.7235
64.000000	81.501	-172.8334
65.000000	81.504	-173.1349
66.000000	81.491	-173.8061
67.000000	81.453	-174.4214
68.000000	81.436	-174.9132
69.000000	81.436	-175.3741
70.000000	81.448	-175.7461
71.000000	81.475	-176.1657
72.000000	81.464	-176.7034
73.000000	81.403	-176.9681
74.000000	81.357	-176.9769
75.000000	81.328	-177.0754
76.199997	81.289	-177.3180
77.500000	81.250	-177.6820
78.800003	81.216	-178.0942
80.000000	81.192	-178.4668
81.199997	81.171	-178.8064
82.500000	81.148	-179.1067
83.800003	81.124	-179.3543
85.000000	81.103	-179.5491
86.199997	81.083	-179.8219
87.500000	81.034	179.8457
88.500000	80.992	179.6909
90.000000	80.953	179.4681
91.199997	80.932	179.1758
92.500000	80.901	178.8492
93.800003	80.871	178.6462
95.000000	80.853	178.5390
96.199997	80.835	178.3953
97.500000	80.794	178.1861
98.800003	80.740	177.9785
100.000000	80.691	177.7618
101.500000	80.637	177.4536
103.000000	80.579	177.2098
104.400002	80.511	177.1945
106.000000	80.436	177.4467
107.500000	80.411	177.5585
109.000000	80.397	177.1869
110.599998	80.365	176.7739
112.000000	80.329	176.7839
113.800003	80.238	177.5447
115.000000	80.135	178.2249
117.199997	79.718	178.7650
118.000000	79.482	179.0789
120.599998	79.288	-177.2905
122.000000	79.711	-177.8414
124.099998	80.111	179.4200
125.000000	80.212	178.7702
126.500000	80.298	178.2423
128.000000	80.276	178.0942
131.500000	80.241	177.6960
132.000000	80.251	177.4787
134.000000	80.280	176.7191
136.000000	80.281	176.4254
138.000000	80.247	176.3741
140.000000	80.199	176.1866
143.000000	80.119	175.8232
145.000000	80.091	175.7604
147.500000	80.048	175.5847
150.000000	79.995	175.4487
152.500000	79.957	175.3255
155.000000	79.917	175.2271
157.500000	79.869	175.1426
160.000000	79.825	175.1041
162.500000	79.783	175.0875
165.000000	79.743	175.0677
167.500000	79.704	175.0143
170.000000	79.659	174.9781
172.500000	79.610	175.0148
175.000000	79.574	175.0675
177.500000	79.549	175.0576
180.000000	79.523	175.0391
182.500000	79.488	175.0676
185.000000	79.443	175.1655
187.500000	79.401	175.2733
190.000000	79.367	175.3495
192.500000	79.335	175.4165
195.000000	79.301	175.4597
197.500000	79.268	175.4673
200.000000	79.237	175.4613
203.000000	79.199	175.4812
206.000000	79.170	175.5272
209.000000	79.152	175.5469
212.000000	79.120	175.6186
214.000000	79.089	175.7256
218.000000	79.025	175.8771
220.000000	78.997	175.9288
224.000000	78.958	176.0500
227.000000	78.929	176.1766
230.000000	78.896	176.3048
233.000000	78.860	176.4305
236.000000	78.830	176.5627
240.000000	78.798	176.7296
243.000000	78.765	176.8760
247.000000	78.722	177.0694
250.000000	78.694	177.2004
254.000000	78.661	177.3545
258.000000	78.630	177.4810
262.000000	78.595	177.6934
265.000000	78.574	177.8790
269.000000	78.551	178.0728
272.000000	78.527	178.2336
276.000000	78.491	178.4537
280.000000	78.460	178.6559
285.000000	78.424	178.9280
290.000000	78.388	179.1635
295.000000	78.359	179.4085
300.000000	78.328	179.6938
304.000000	78.303	179.9178
307.000000	78.287	-179.9303
311.000000	78.265	-179.7167
315.000000	78.244	-179.4964
320.000000	78.216	-179.2135
325.000000	78.191	-178.9278
330.000000	78.169	-178.6503
335.000000	78.146	-178.3672
340.000000	78.121	-178.0847
345.000000	78.096	-177.8104
350.000000	78.076	-177.5427
355.000000	78.054	-177.2663
360.000000	78.035	-176.9864
365.000000	78.018	-176.7018
370.000000	78.003	-176.4156
375.000000	77.987	-176.1344
382.000000	77.960	-175.7436
387.000000	77.940	-175.4501
395.000000	77.913	-174.9936
400.000000	77.901	-174.7078
406.000000	77.887	-174.3298
412.000000	77.874	-173.9726
418.000000	77.861	-173.6557
425.000000	77.843	-173.2531
431.000000	77.830	-172.8890
437.000000	77.820	-172.5482
444.000000	77.807	-172.1870
450.000000	77.795	-171.8451
455.000000	77.786	-171.5370
462.000000	77.778	-171.1058
468.000000	77.771	-170.7472
475.000000	77.758	-170.3386
482.000000	77.751	-169.9326
487.000000	77.749	-169.6377
494.000000	77.747	-169.2313
500.000000	77.740	-168.8877
508.000000	77.732	-168.4297
515.000000	77.728	-168.0197
522.000000	77.726	-167.6059
530.000000	77.722	-167.1286
538.000000	77.718	-166.6537
545.000000	77.717	-166.2584
552.000000	77.718	-165.8703
560.000000	77.718	-165.3963
570.000000	77.720	-164.7805
580.000000	77.725	-164.1748
590.000000	77.730	-163.5715
600.000000	77.737	-162.9861
608.000000	77.745	-162.5075
615.000000	77.750	-162.0894
622.000000	77.757	-161.6711
630.000000	77.768	-161.1950
640.000000	77.784	-160.6067
650.000000	77.798	-159.9812
660.000000	77.813	-159.3385
670.000000	77.836	-158.7244
680.000000	77.859	-158.1117
690.000000	77.879	-157.5011
700.000000	77.900	-156.8978
710.000000	77.922	-156.2845
720.000000	77.948	-155.6572
730.000000	77.980	-155.0271
740.000000	78.014	-154.4068
750.000000	78.047	-153.7867
762.000000	78.087	-153.0667
775.000000	78.140	-152.2856
788.000000	78.199	-151.4720
800.000000	78.255	-150.7382
812.000000	78.313	-150.0039
825.000000	78.381	-149.2097
838.000000	78.454	-148.4516
850.000000	78.524	-147.7431
862.000000	78.598	-147.0384
875.000000	78.684	-146.2999
885.000000	78.753	-145.7322
900.000000	78.861	-144.9036
912.000000	78.953	-144.2779
925.000000	79.056	-143.6173
938.000000	79.163	-142.9954
950.000000	79.268	-142.4526
962.000000	79.376	-141.9505
975.000000	79.498	-141.4716
988.000000	79.617	-141.0987
1000.000000	79.710	-140.8384
1015.000000	79.798	-140.4181
1030.000000	79.898	-139.7319
1044.000000	80.028	-139.0707
1060.000000	80.203	-138.5301
1075.000000	80.368	-138.1992
1090.000000	80.518	-137.9970
1106.000000	80.661	-137.8820
1120.000000	80.772	-137.8045
1138.000000	80.902	-137.6585
1150.000000	80.985	-137.5130
1172.000000	81.142	-137.1870
1180.000000	81.202	-137.0730
1206.000000	81.400	-136.7209
1220.000000	81.508	-136.5625
1241.000000	81.670	-136.4030
1250.000000	81.739	-136.3489
1265.000000	81.852	-136.2608
1280.000000	81.962	-136.1855
1315.000000	82.211	-136.0660
1320.000000	82.246	-136.0547
1340.000000	82.385	-136.0319
1360.000000	82.520	-136.0356
1380.000000	82.651	-136.0414
1400.000000	82.782	-136.0436
1430.000000	82.973	-136.0842
1450.000000	83.099	-136.1337
1475.000000	83.257	-136.2167
1500.000000	83.411	-136.3215
1525.000000	83.563	-136.4182
1550.000000	83.714	-136.5319
1575.000000	83.861	-136.6691
1600.000000	84.009	-136.8407
1625.000000	84.155	-137.0457
1650.000000	84.299	-137.2671
1675.000000	84.443	-137.5083
1700.000000	84.583	-137.7687
1725.000000	84.723	-138.0451
1750.000000	84.862	-138.3690
1775.000000	84.997	-138.7391
1800.000000	85.130	-139.1106
1825.000000	85.261	-139.5068
1850.000000	85.387	-139.9462
1875.000000	85.510	-140.4043
1900.000000	85.628	-140.8985
1925.000000	85.741	-141.4366
1950.000000	85.849	-141.9879
1975.000000	85.950	-142.5545
2000.000000	86.046	-143.1485
2030.000000	86.150	-143.8636
2060.000000	86.243	-144.5815
2090.000000	86.324	-145.3130
2120.000000	86.391	-146.0140
2140.000000	86.428	-146.4507
2180.000000	86.491	-147.2142
2200.000000	86.519	-147.5050
2240.000000	86.580	-147.8910
2270.000000	86.650	-148.0598
2300.000000	86.749	-148.2153
2330.000000	86.873	-148.4933
2360.000000	87.008	-148.9667
2400.000000	87.171	-149.8594
2430.000000	87.272	-150.6454
2470.000000	87.377	-151.7156
2500.000000	87.438	-152.4444
2540.000000	87.522	-153.3037
2580.000000	87.620	-154.1548
2620.000000	87.723	-155.1029
2650.000000	87.796	-155.8925
2690.000000	87.880	-156.9977
2720.000000	87.933	-157.8303
2760.000000	87.993	-158.9531
2800.000000	88.047	-160.1205
2850.000000	88.094	-161.6295
2900.000000	88.117	-163.1162
2950.000000	88.116	-164.5173
3000.000000	88.098	-165.8149
3040.000000	88.079	-166.7835
3070.000000	88.062	-167.4679
3110.000000	88.038	-168.3218
3150.000000	88.019	-169.1068
3200.000000	88.004	-170.0199
3250.000000	88.002	-170.9087
3300.000000	88.018	-171.8483
3350.000000	88.040	-172.9286
3400.000000	88.059	-174.1715
3450.000000	88.063	-175.5544
3500.000000	88.041	-177.0469
3550.000000	87.988	-178.5538
3600.000000	87.906	-179.9907
3650.000000	87.799	178.7094
3700.000000	87.686	177.5861
3750.000000	87.583	176.5833
3820.000000	87.457	175.2036
3870.000000	87.377	174.1717
3950.000000	87.235	172.3671
4000.000000	87.129	171.1585
4060.000000	86.981	169.6928
4120.000000	86.810	168.2386
4180.000000	86.618	166.8439
4250.000000	86.372	165.3209
4310.000000	86.143	164.0748
4370.000000	85.894	162.8976
4440.000000	85.576	161.6740
4500.000000	85.286	160.8061
4550.000000	85.047	160.1996
4620.000000	84.715	159.3536
4680.000000	84.401	158.6587
4750.000000	84.000	158.1380
4820.000000	83.591	157.9619
4870.000000	83.302	157.9905
4940.000000	82.907	158.2348
5000.000000	82.578	158.6272
5080.000000	82.154	159.3434
5150.000000	81.798	160.1389
5220.000000	81.457	161.0966
5300.000000	81.085	162.3405
5380.000000	80.736	163.7296
5450.000000	80.446	165.0901
5520.000000	80.173	166.5475
5600.000000	79.883	168.3277
5700.000000	79.558	170.7118
5800.000000	79.273	173.2199
5900.000000	79.031	175.8604
6000.000000	78.832	178.5825
6080.000000	78.702	-179.1771
6150.000000	78.613	-177.1759
6220.000000	78.548	-175.1540
6300.000000	78.505	-172.8443
6400.000000	78.490	-169.9540
6500.000000	78.523	-167.1118
6600.000000	78.612	-164.3315
6700.000000	78.757	-161.6355
6800.000000	78.959	-159.0912
6900.000000	79.217	-156.7068
7000.000000	79.537	-154.5363
7100.000000	79.922	-152.6960
7200.000000	80.375	-151.2778
7300.000000	80.894	-150.3848
7400.000000	81.472	-150.1783
7500.000000	82.094	-150.8402
7620.000000	82.857	-153.0816
7750.000000	83.605	-157.6613
7880.000000	84.119	-164.4907
8000.000000	84.257	-172.2080
8120.000000	84.008	179.8234
8250.000000	83.328	172.2728
8380.000000	82.343	166.7802
8500.000000	81.301	163.7539
8620.000000	80.237	162.4863
8750.000000	79.135	162.6609
8850.000000	78.351	163.6314
9000.000000	77.292	166.1078
9120.000000	76.547	168.7305
9250.000000	75.841	172.0525
9380.000000	75.233	175.7990
9500.000000	74.754	179.5590
9620.000000	74.352	-176.4636
9750.000000	74.005	-171.9395
9880.000000	73.750	-167.2268
10000.000000	73.600	-162.6616
10150.000000	73.555	-156.8032
10300.000000	73.659	-151.0399
10440.000000	73.888	-145.5846
10600.000000	74.366	-139.1928
10750.000000	75.095	-133.3095
10900.000000	76.169	-127.9076
11060.000000	77.780	-123.4644
11200.000000	79.608	-121.8151
11380.000000	82.342	-125.2186
11500.000000	84.103	-132.7571
11720.000000	86.077	-159.8628
11800.000000	86.137	-172.4180
12060.000000	83.867	154.3871
12200.000000	81.725	145.7545
12410.000000	78.507	141.6471
12500.000000	77.294	141.7930
12650.000000	75.544	143.4306
12800.000000	74.097	146.1525
13150.000000	71.622	154.5420
13200.000000	71.352	155.8408
13400.000000	70.442	161.1506
13600.000000	69.770	166.5162
13800.000000	69.316	171.7236
14000.000000	69.065	176.6062
14300.000000	69.049	-176.9591
14500.000000	69.292	-173.5257
14750.000000	69.877	-170.6596
15000.000000	70.749	-170.3171
15250.000000	71.791	-173.5843
15500.000000	72.723	178.3068
15750.000000	73.158	165.3782
16000.000000	72.810	150.3028
16250.000000	71.713	136.6248
16500.000000	70.156	125.9836
16750.000000	68.416	117.8837
17000.000000	66.626	111.3758
17250.000000	64.790	105.9674
17500.000000	62.842	101.5715
17750.000000	60.781	98.7267
18000.000000	58.669	98.1116
18250.000000	56.578	99.7123
18500.000000	54.650	103.3705
18750.000000	53.045	108.4406
19000.000000	51.849	113.6021
19250.000000	51.058	117.9730
19500.000000	50.554	120.5522
19750.000000	50.152	121.0807
