* Measurement data measured by REW V5.20.5
* Source: ??? (Realtek(R) Audio), MICROPHONE (Master Volume), L, volume: 0.250
* Format: 128k Log Swept Sine, 1 sweep at -12.0 dBFS with no timing reference
* Dated: Aug 20, 2022 5:34:35 PM
* REW Settings:
*  C-weighting compensation: Off
*  Target level: 75.0 dB
* Note: 
* Measurement: RE-2 (Final E M) L
* Smoothing: 1/24 octave
* Frequency Step: 1/48 octave
* Start Frequency: 20.300 Hz
*
* Freq(Hz)	SPL(dB)	Phase(degrees)
20.299999	78.587	-134.5660
20.600000	78.617	-134.7870
20.900000	78.682	-135.2177
21.200001	78.742	-135.6390
21.400000	78.779	-135.9193
21.799999	78.848	-136.5397
22.000000	78.878	-136.8877
22.400000	78.926	-137.6387
22.700001	78.951	-138.2119
23.000000	78.967	-138.7567
23.299999	78.981	-139.2504
23.600000	78.998	-139.6921
24.000000	79.034	-140.2397
24.299999	79.070	-140.6582
24.700001	79.125	-141.2575
25.000000	79.166	-141.7273
25.400000	79.218	-142.3442
25.799999	79.271	-142.9242
26.200001	79.327	-143.4861
26.500000	79.368	-143.9177
26.900000	79.414	-144.5018
27.200001	79.439	-144.9131
27.600000	79.462	-145.3551
28.000000	79.487	-145.6485
28.500000	79.546	-145.9217
29.000000	79.630	-146.3586
29.500000	79.700	-147.0807
30.000000	79.724	-147.9108
30.400000	79.715	-148.4791
30.700001	79.704	-148.8098
31.100000	79.696	-149.1576
31.500000	79.701	-149.4831
32.000000	79.721	-149.9483
32.500000	79.744	-150.4763
33.000000	79.769	-151.0327
33.500000	79.798	-151.6275
34.000000	79.822	-152.2587
34.500000	79.836	-152.8533
35.000000	79.849	-153.3338
35.500000	79.875	-153.7240
36.000000	79.914	-154.1232
36.500000	79.954	-154.5798
37.000000	79.985	-155.0508
37.500000	80.009	-155.4917
38.200001	80.034	-156.0968
38.700001	80.038	-156.5353
39.500000	80.015	-157.0847
40.000000	80.002	-157.2814
40.599998	80.003	-157.4704
41.200001	80.019	-157.7146
41.799999	80.041	-158.0299
42.500000	80.072	-158.4874
43.099998	80.095	-158.9665
43.700001	80.108	-159.4688
44.400002	80.116	-159.9985
45.000000	80.121	-160.4036
45.500000	80.124	-160.6920
46.200001	80.134	-160.9828
46.799999	80.162	-161.2277
47.500000	80.196	-161.6942
48.200001	80.194	-162.2066
48.700001	80.183	-162.4585
49.400002	80.180	-162.7858
50.000000	80.164	-163.1388
50.799999	80.115	-163.2347
51.500000	80.163	-162.9247
52.200001	80.316	-163.2638
53.000000	80.395	-164.7792
53.799999	80.296	-165.8808
54.500000	80.229	-166.0317
55.200001	80.231	-166.1971
56.000000	80.220	-166.5461
57.000000	80.222	-166.6945
58.000000	80.240	-167.2864
59.000000	80.153	-167.5930
60.000000	80.156	-167.2347
60.799999	80.228	-167.4070
61.500000	80.258	-167.8469
62.200001	80.258	-168.1807
63.000000	80.273	-168.3271
64.000000	80.350	-168.6486
65.000000	80.388	-169.4950
66.000000	80.318	-170.1092
67.000000	80.248	-170.2015
68.000000	80.201	-170.3045
69.000000	80.148	-170.4761
70.000000	80.089	-170.7570
71.000000	80.016	-170.9151
72.000000	80.003	-170.8736
73.000000	80.054	-171.1984
74.000000	80.085	-171.8251
75.000000	80.094	-172.3873
76.199997	80.087	-172.9218
77.500000	80.067	-173.1943
78.800003	80.059	-173.3978
80.000000	80.044	-173.6389
81.199997	80.020	-173.9281
82.500000	79.990	-174.2260
83.800003	79.969	-174.4912
85.000000	79.956	-174.7180
86.199997	79.950	-174.9032
87.500000	79.948	-175.1369
88.500000	79.936	-175.3427
90.000000	79.909	-175.6020
91.199997	79.887	-175.8103
92.500000	79.863	-176.0602
93.800003	79.839	-176.3428
95.000000	79.811	-176.5860
96.199997	79.786	-176.7322
97.500000	79.779	-176.8729
98.800003	79.775	-177.0867
100.000000	79.763	-177.2785
101.500000	79.742	-177.4178
103.000000	79.727	-177.5443
104.400002	79.701	-177.7323
106.000000	79.659	-177.9304
107.500000	79.623	-178.1729
109.000000	79.586	-178.4061
110.599998	79.566	-178.5546
112.000000	79.560	-178.6595
113.800003	79.533	-178.7540
115.000000	79.500	-178.8004
117.199997	79.402	-179.1782
118.000000	79.344	-179.3730
120.599998	79.205	-179.2930
122.000000	79.245	-179.3038
124.099998	79.291	-179.5992
125.000000	79.294	-179.6603
126.500000	79.272	-179.7015
128.000000	79.220	-179.6639
131.500000	79.117	-179.6652
132.000000	79.104	-179.6907
134.000000	79.050	-179.6214
136.000000	79.014	-179.2790
138.000000	78.995	-178.8727
140.000000	78.995	-178.5090
143.000000	79.045	-178.3115
145.000000	79.087	-178.3201
147.500000	79.144	-178.4980
150.000000	79.172	-178.8658
152.500000	79.165	-179.1882
155.000000	79.144	-179.3918
157.500000	79.117	-179.6251
160.000000	79.081	-179.8676
162.500000	79.050	179.9666
165.000000	79.014	179.8546
167.500000	78.971	179.8100
170.000000	78.935	179.7711
172.500000	78.901	179.7297
175.000000	78.864	179.6882
177.500000	78.828	179.6004
180.000000	78.800	179.5066
182.500000	78.785	179.5145
185.000000	78.771	179.5861
187.500000	78.747	179.7186
190.000000	78.721	179.9318
192.500000	78.699	-179.8373
195.000000	78.679	-179.7967
197.500000	78.646	-179.9590
200.000000	78.614	179.9313
203.000000	78.590	179.9404
206.000000	78.570	179.9975
209.000000	78.547	-179.9596
212.000000	78.512	-179.9504
214.000000	78.484	-179.9329
218.000000	78.442	-179.8067
220.000000	78.429	-179.7306
224.000000	78.395	-179.6567
227.000000	78.366	-179.6639
230.000000	78.331	-179.5906
233.000000	78.301	-179.4287
236.000000	78.283	-179.2656
240.000000	78.263	-179.1124
243.000000	78.237	-179.0511
247.000000	78.206	-178.9287
250.000000	78.186	-178.8061
254.000000	78.159	-178.6563
258.000000	78.136	-178.5087
262.000000	78.111	-178.3409
265.000000	78.088	-178.2165
269.000000	78.058	-178.0388
272.000000	78.037	-177.8973
276.000000	78.014	-177.7478
280.000000	77.993	-177.5981
285.000000	77.965	-177.3600
290.000000	77.938	-177.1201
295.000000	77.915	-176.9177
300.000000	77.888	-176.6813
304.000000	77.865	-176.4945
307.000000	77.851	-176.3549
311.000000	77.833	-176.1504
315.000000	77.817	-175.9498
320.000000	77.798	-175.7101
325.000000	77.777	-175.4633
330.000000	77.754	-175.2053
335.000000	77.733	-174.9432
340.000000	77.715	-174.6899
345.000000	77.696	-174.4356
350.000000	77.678	-174.1574
355.000000	77.664	-173.8791
360.000000	77.651	-173.6208
365.000000	77.636	-173.3636
370.000000	77.622	-173.1107
375.000000	77.609	-172.8486
382.000000	77.592	-172.4755
387.000000	77.578	-172.2352
395.000000	77.562	-171.8136
400.000000	77.552	-171.5327
406.000000	77.539	-171.2323
412.000000	77.529	-170.9286
418.000000	77.519	-170.5680
425.000000	77.507	-170.1517
431.000000	77.496	-169.8185
437.000000	77.485	-169.5161
444.000000	77.473	-169.1592
450.000000	77.466	-168.8415
455.000000	77.458	-168.5615
462.000000	77.449	-168.1690
468.000000	77.444	-167.8324
475.000000	77.438	-167.4429
482.000000	77.434	-167.0694
487.000000	77.432	-166.8068
494.000000	77.428	-166.4203
500.000000	77.424	-166.0734
508.000000	77.422	-165.6079
515.000000	77.424	-165.1943
522.000000	77.427	-164.8003
530.000000	77.429	-164.3590
538.000000	77.425	-163.8896
545.000000	77.422	-163.4940
552.000000	77.424	-163.1217
560.000000	77.429	-162.6998
570.000000	77.434	-162.1396
580.000000	77.440	-161.5397
590.000000	77.447	-160.9407
600.000000	77.457	-160.3748
608.000000	77.466	-159.9325
615.000000	77.474	-159.5439
622.000000	77.482	-159.1427
630.000000	77.495	-158.6593
640.000000	77.514	-158.0415
650.000000	77.531	-157.4521
660.000000	77.548	-156.8797
670.000000	77.567	-156.2880
680.000000	77.589	-155.6803
690.000000	77.612	-155.0711
700.000000	77.637	-154.4731
710.000000	77.666	-153.8726
720.000000	77.695	-153.2585
730.000000	77.723	-152.6659
740.000000	77.755	-152.0722
750.000000	77.791	-151.4491
762.000000	77.832	-150.7195
775.000000	77.883	-149.9437
788.000000	77.940	-149.1634
800.000000	77.994	-148.4379
812.000000	78.049	-147.7193
825.000000	78.112	-146.9499
838.000000	78.182	-146.1956
850.000000	78.248	-145.4968
862.000000	78.316	-144.8073
875.000000	78.397	-144.0687
885.000000	78.459	-143.5139
900.000000	78.553	-142.7072
912.000000	78.632	-142.0692
925.000000	78.717	-141.4031
938.000000	78.801	-140.7637
950.000000	78.876	-140.1639
962.000000	78.946	-139.5328
975.000000	79.019	-138.7825
988.000000	79.096	-137.8704
1000.000000	79.188	-136.8213
1015.000000	79.374	-135.3972
1030.000000	79.651	-134.3830
1044.000000	79.915	-134.1073
1060.000000	80.145	-134.2420
1075.000000	80.303	-134.3803
1090.000000	80.435	-134.4027
1106.000000	80.569	-134.3188
1120.000000	80.684	-134.1964
1138.000000	80.832	-134.0226
1150.000000	80.930	-133.9015
1172.000000	81.106	-133.6769
1180.000000	81.169	-133.5990
1206.000000	81.373	-133.3511
1220.000000	81.484	-133.2192
1241.000000	81.655	-133.0383
1250.000000	81.730	-132.9673
1265.000000	81.856	-132.8673
1280.000000	81.983	-132.8145
1315.000000	82.268	-132.8687
1320.000000	82.307	-132.8855
1340.000000	82.459	-132.9708
1360.000000	82.603	-133.0741
1380.000000	82.740	-133.1678
1400.000000	82.874	-133.2655
1430.000000	83.069	-133.4313
1450.000000	83.199	-133.5393
1475.000000	83.357	-133.6827
1500.000000	83.513	-133.8426
1525.000000	83.668	-133.9993
1550.000000	83.822	-134.1636
1575.000000	83.975	-134.3580
1600.000000	84.125	-134.5673
1625.000000	84.274	-134.7954
1650.000000	84.423	-135.0449
1675.000000	84.570	-135.3110
1700.000000	84.716	-135.6050
1725.000000	84.860	-135.9370
1750.000000	85.004	-136.2947
1775.000000	85.146	-136.6682
1800.000000	85.284	-137.0688
1825.000000	85.419	-137.5115
1850.000000	85.549	-137.9785
1875.000000	85.677	-138.4670
1900.000000	85.801	-138.9916
1925.000000	85.920	-139.5405
1950.000000	86.034	-140.1088
1975.000000	86.140	-140.6969
2000.000000	86.238	-141.2931
2030.000000	86.347	-141.9969
2060.000000	86.447	-142.6592
2090.000000	86.540	-143.2578
2120.000000	86.634	-143.7636
2140.000000	86.706	-144.0532
2180.000000	86.889	-144.6528
2200.000000	86.996	-145.0606
2240.000000	87.210	-146.2446
2270.000000	87.342	-147.3968
2300.000000	87.441	-148.6470
2330.000000	87.508	-149.9014
2360.000000	87.548	-151.1054
2400.000000	87.572	-152.5894
2430.000000	87.570	-153.5974
2470.000000	87.547	-154.7711
2500.000000	87.519	-155.4995
2540.000000	87.478	-156.2469
2580.000000	87.448	-156.6911
2620.000000	87.454	-156.8591
2650.000000	87.499	-156.9084
2690.000000	87.617	-157.1018
2720.000000	87.735	-157.5070
2760.000000	87.893	-158.4873
2800.000000	88.014	-159.8499
2850.000000	88.090	-161.7418
2900.000000	88.097	-163.5503
2950.000000	88.061	-165.1512
3000.000000	88.002	-166.5136
3040.000000	87.950	-167.4330
3070.000000	87.911	-168.0327
3110.000000	87.865	-168.7331
3150.000000	87.830	-169.3407
3200.000000	87.813	-170.0154
3250.000000	87.832	-170.7262
3300.000000	87.880	-171.6555
3350.000000	87.930	-172.9252
3400.000000	87.952	-174.5317
3450.000000	87.919	-176.3683
3500.000000	87.812	-178.2410
3550.000000	87.626	-179.8516
3600.000000	87.389	179.1080
3650.000000	87.166	178.7169
3700.000000	87.010	178.7401
3750.000000	86.934	178.8171
3820.000000	86.917	178.5632
3870.000000	86.927	178.0384
3950.000000	86.934	176.6924
4000.000000	86.919	175.6197
4060.000000	86.876	174.1691
4120.000000	86.801	172.5922
4180.000000	86.690	170.9495
4250.000000	86.514	168.9974
4310.000000	86.321	167.3408
4370.000000	86.088	165.7679
4440.000000	85.766	164.1305
4500.000000	85.454	162.9803
4550.000000	85.177	162.2560
4620.000000	84.785	161.6063
4680.000000	84.464	161.3123
4750.000000	84.110	161.1378
4820.000000	83.767	161.0697
4870.000000	83.524	161.0853
4940.000000	83.187	161.1892
5000.000000	82.898	161.3526
5080.000000	82.510	161.7232
5150.000000	82.173	162.2310
5220.000000	81.839	162.9168
5300.000000	81.467	163.8955
5380.000000	81.113	165.0831
5450.000000	80.818	166.2894
5520.000000	80.541	167.6248
5600.000000	80.249	169.2760
5700.000000	79.922	171.4858
5800.000000	79.639	173.8511
5900.000000	79.395	176.3358
6000.000000	79.193	178.8775
6080.000000	79.062	-179.0452
6150.000000	78.971	-177.2022
6220.000000	78.900	-175.3472
6300.000000	78.844	-173.2212
6400.000000	78.812	-170.5758
6500.000000	78.819	-167.9668
6600.000000	78.866	-165.3958
6700.000000	78.952	-162.8514
6800.000000	79.085	-160.3360
6900.000000	79.276	-157.8556
7000.000000	79.532	-155.4844
7100.000000	79.863	-153.3091
7200.000000	80.275	-151.4276
7300.000000	80.770	-150.0239
7400.000000	81.341	-149.2608
7500.000000	81.975	-149.3154
7620.000000	82.792	-150.7606
7750.000000	83.660	-154.4860
7880.000000	84.362	-160.7458
8000.000000	84.704	-168.4900
8120.000000	84.644	-177.1574
8250.000000	84.105	173.9717
8380.000000	83.165	167.0263
8500.000000	82.090	162.8543
8620.000000	80.949	160.7200
8750.000000	79.744	160.3026
8850.000000	78.881	161.0224
9000.000000	77.713	163.3319
9120.000000	76.890	165.9631
9250.000000	76.114	169.4170
9380.000000	75.461	173.3231
9500.000000	74.960	177.1679
9620.000000	74.544	-178.8143
9750.000000	74.184	-174.2645
9880.000000	73.919	-169.5327
10000.000000	73.757	-165.0434
10150.000000	73.668	-159.3460
10300.000000	73.729	-153.5507
10440.000000	73.932	-148.0799
10600.000000	74.365	-141.8490
10750.000000	75.019	-136.1375
10900.000000	75.981	-130.8161
11060.000000	77.435	-126.1867
11200.000000	79.116	-123.9614
11380.000000	81.734	-125.8077
11500.000000	83.522	-131.7144
11720.000000	85.816	-155.6940
11800.000000	86.052	-167.7774
12060.000000	84.289	157.0931
12200.000000	82.267	146.8480
12410.000000	79.044	141.1559
12500.000000	77.797	140.8778
12650.000000	75.984	142.0303
12800.000000	74.480	144.4355
13150.000000	71.898	152.3320
13200.000000	71.614	153.5928
13400.000000	70.653	158.7772
13600.000000	69.931	163.9990
13800.000000	69.417	169.0608
14000.000000	69.109	173.8466
14300.000000	69.000	-179.6827
14500.000000	69.171	-176.2230
14750.000000	69.675	-173.4419
15000.000000	70.420	-173.0332
15250.000000	71.299	-175.9840
15500.000000	72.057	176.7021
15750.000000	72.349	165.4455
16000.000000	71.946	152.6638
16250.000000	70.916	141.5504
16500.000000	69.582	133.4439
16750.000000	68.295	127.0317
17000.000000	67.121	119.9166
17250.000000	65.772	111.5367
17500.000000	64.025	103.8467
17750.000000	61.921	98.7358
18000.000000	59.600	96.9273
18250.000000	57.271	98.5519
18500.000000	55.197	102.9685
18750.000000	53.644	108.5714
19000.000000	52.630	113.4471
19250.000000	51.942	116.8081
19500.000000	51.448	118.6531
19750.000000	51.105	119.2239
