* Measurement data measured by REW V5.20.7
* Source: ???(Realtek High Definition Audi, no input selected, L, volume: no control
* Format: 128k Log Swept Sine, 1 sweep at -12.0 dBFS with no timing reference
* Dated: 13-Oct-2022 23:10:59
* REW Settings:
*  C-weighting compensation: Off
*  Target level: 75.0 dB
* Note: ; 
* Measurement: Ucotech RE2 R
* Smoothing: 1/24 octave
* Frequency Step: 1/48 octave
* Start Frequency: 20.300 Hz
*
* Freq(Hz)	SPL(dB)	Phase(degrees)
20.299999	69.150	51.0609
20.600000	69.197	50.7610
20.900000	69.286	50.2069
21.200001	69.354	49.6328
21.400000	69.388	49.2462
21.799999	69.433	48.4711
22.000000	69.446	48.0945
22.400000	69.457	47.4018
22.700001	69.458	46.9435
23.000000	69.460	46.5191
23.299999	69.464	46.0993
23.600000	69.468	45.6700
24.000000	69.469	45.0965
24.299999	69.466	44.7090
24.700001	69.465	44.3094
25.000000	69.476	44.1019
25.400000	69.519	43.8782
25.799999	69.598	43.5680
26.200001	69.695	43.0479
26.500000	69.765	42.5094
26.900000	69.837	41.6532
27.200001	69.872	40.9772
27.600000	69.896	40.1181
28.000000	69.901	39.3768
28.500000	69.902	38.6653
29.000000	69.915	38.1757
29.500000	69.957	37.8040
30.000000	70.028	37.3817
30.400000	70.092	36.9354
30.700001	70.135	36.5455
31.100000	70.179	36.0107
31.500000	70.212	35.5203
32.000000	70.249	35.0000
32.500000	70.290	34.5053
33.000000	70.327	33.9335
33.500000	70.342	33.2989
34.000000	70.324	32.7444
34.500000	70.291	32.4094
35.000000	70.266	32.2892
35.500000	70.267	32.2271
36.000000	70.286	32.0601
36.500000	70.301	31.7693
37.000000	70.303	31.4777
37.500000	70.309	31.2804
38.200001	70.364	30.9852
38.700001	70.427	30.5104
39.500000	70.478	29.2956
40.000000	70.463	28.5988
40.599998	70.435	28.0708
41.200001	70.434	27.7340
41.799999	70.450	27.3935
42.500000	70.461	27.0944
43.099998	70.494	27.0347
43.700001	70.574	26.8654
44.400002	70.666	26.1152
45.000000	70.664	25.2033
45.500000	70.605	24.6859
46.200001	70.529	24.5721
46.799999	70.538	24.6488
47.500000	70.600	24.3138
48.200001	70.636	23.5784
48.700001	70.634	23.0492
49.400002	70.618	22.4661
50.000000	70.609	22.0934
50.799999	70.613	21.7068
51.500000	70.624	21.3670
52.200001	70.615	21.0750
53.000000	70.597	21.1320
53.799999	70.654	21.4318
54.500000	70.751	21.2801
55.200001	70.804	20.7012
56.000000	70.794	20.1101
57.000000	70.781	19.6723
58.000000	70.768	19.0928
59.000000	70.720	18.6764
60.000000	70.704	18.5717
60.799999	70.726	18.4119
61.500000	70.744	18.1455
62.200001	70.751	17.8463
63.000000	70.750	17.5161
64.000000	70.732	17.1229
65.000000	70.707	16.9099
66.000000	70.714	16.7810
67.000000	70.732	16.4861
68.000000	70.736	16.2667
69.000000	70.772	16.1714
70.000000	70.831	15.8499
71.000000	70.860	15.3312
72.000000	70.856	14.8202
73.000000	70.825	14.3724
74.000000	70.778	14.1107
75.000000	70.743	14.0112
76.199997	70.729	13.9593
77.500000	70.740	13.7963
78.800003	70.750	13.5942
80.000000	70.773	13.3055
81.199997	70.762	12.8424
82.500000	70.727	12.6172
83.800003	70.739	12.3979
85.000000	70.744	11.9831
86.199997	70.731	11.6203
87.500000	70.712	11.3336
88.500000	70.697	11.1952
90.000000	70.678	11.0690
91.199997	70.672	10.9954
92.500000	70.668	10.8353
93.800003	70.661	10.6857
95.000000	70.666	10.5164
96.199997	70.665	10.2561
97.500000	70.650	10.0441
98.800003	70.645	9.9351
100.000000	70.655	9.8106
101.500000	70.665	9.5295
103.000000	70.657	9.2612
104.400002	70.647	9.0919
106.000000	70.637	8.8930
107.500000	70.619	8.7606
109.000000	70.613	8.6631
110.599998	70.605	8.4780
112.000000	70.591	8.3393
113.800003	70.579	8.1852
115.000000	70.571	8.0539
117.199997	70.553	7.8220
118.000000	70.549	7.7382
120.599998	70.531	7.4287
122.000000	70.518	7.3085
124.099998	70.505	7.1849
125.000000	70.500	7.1400
126.500000	70.491	7.0661
128.000000	70.478	6.9852
131.500000	70.445	6.7648
132.000000	70.440	6.7248
134.000000	70.425	6.5670
136.000000	70.413	6.4439
138.000000	70.401	6.3531
140.000000	70.382	6.2983
143.000000	70.355	6.2005
145.000000	70.338	6.0869
147.500000	70.323	5.9785
150.000000	70.313	5.8779
152.500000	70.293	5.7721
155.000000	70.266	5.6990
157.500000	70.241	5.6591
160.000000	70.224	5.5924
162.500000	70.206	5.5086
165.000000	70.189	5.4474
167.500000	70.170	5.4100
170.000000	70.149	5.3828
172.500000	70.129	5.3593
175.000000	70.113	5.3473
177.500000	70.102	5.3389
180.000000	70.088	5.3078
182.500000	70.070	5.2762
185.000000	70.052	5.2614
187.500000	70.035	5.2655
190.000000	70.017	5.2603
192.500000	69.998	5.2474
195.000000	69.987	5.2504
197.500000	69.980	5.2772
200.000000	69.967	5.2926
203.000000	69.940	5.2917
206.000000	69.913	5.3163
209.000000	69.891	5.3691
212.000000	69.872	5.4377
214.000000	69.859	5.4830
218.000000	69.823	5.6026
220.000000	69.808	5.6608
224.000000	69.788	5.7266
227.000000	69.776	5.7678
230.000000	69.757	5.8042
233.000000	69.732	5.8731
236.000000	69.708	5.9860
240.000000	69.683	6.1271
243.000000	69.667	6.1841
247.000000	69.639	6.2647
250.000000	69.616	6.3757
254.000000	69.597	6.5889
258.000000	69.585	6.7913
262.000000	69.579	6.9983
265.000000	69.578	7.1532
269.000000	69.576	7.3288
272.000000	69.577	7.4228
276.000000	69.573	7.5173
280.000000	69.561	7.6017
285.000000	69.552	7.6817
290.000000	69.546	7.8103
295.000000	69.533	7.9689
300.000000	69.518	8.0854
304.000000	69.505	8.2002
307.000000	69.495	8.2893
311.000000	69.482	8.3997
315.000000	69.469	8.5251
320.000000	69.449	8.6854
325.000000	69.429	8.8586
330.000000	69.411	9.0829
335.000000	69.395	9.3239
340.000000	69.384	9.5641
345.000000	69.373	9.8081
350.000000	69.359	10.0559
355.000000	69.354	10.2838
360.000000	69.353	10.4803
365.000000	69.348	10.6840
370.000000	69.341	10.8918
375.000000	69.334	11.0934
382.000000	69.316	11.3686
387.000000	69.299	11.5626
395.000000	69.282	11.8875
400.000000	69.276	12.1161
406.000000	69.266	12.4110
412.000000	69.252	12.6996
418.000000	69.239	12.9558
425.000000	69.228	13.2770
431.000000	69.218	13.6016
437.000000	69.209	13.9170
444.000000	69.209	14.2650
450.000000	69.216	14.5571
455.000000	69.221	14.7939
462.000000	69.222	15.1150
468.000000	69.218	15.3809
475.000000	69.213	15.7124
482.000000	69.216	16.0473
487.000000	69.218	16.2848
494.000000	69.219	16.6084
500.000000	69.222	16.8946
508.000000	69.224	17.3073
515.000000	69.225	17.6744
522.000000	69.227	18.0355
530.000000	69.228	18.4450
538.000000	69.231	18.8604
545.000000	69.233	19.2154
552.000000	69.234	19.5688
560.000000	69.236	19.9868
570.000000	69.235	20.5001
580.000000	69.233	21.0559
590.000000	69.234	21.6030
600.000000	69.242	22.1433
608.000000	69.250	22.5975
615.000000	69.258	22.9834
622.000000	69.267	23.3539
630.000000	69.280	23.7837
640.000000	69.292	24.3253
650.000000	69.305	24.8717
660.000000	69.323	25.4349
670.000000	69.340	26.0067
680.000000	69.361	26.6009
690.000000	69.383	27.2008
700.000000	69.406	27.7837
710.000000	69.431	28.3717
720.000000	69.458	28.9613
730.000000	69.486	29.5616
740.000000	69.515	30.1514
750.000000	69.545	30.7290
762.000000	69.585	31.4515
775.000000	69.635	32.2481
788.000000	69.685	33.0294
800.000000	69.734	33.7360
812.000000	69.789	34.4629
825.000000	69.852	35.2570
838.000000	69.915	36.0500
850.000000	69.975	36.7750
862.000000	70.043	37.4925
875.000000	70.119	38.2469
885.000000	70.178	38.8110
900.000000	70.274	39.6499
912.000000	70.357	40.2988
925.000000	70.451	40.9843
938.000000	70.550	41.6438
950.000000	70.649	42.2217
962.000000	70.750	42.7675
975.000000	70.860	43.2952
988.000000	70.967	43.7355
1000.000000	71.053	44.1119
1015.000000	71.153	44.6470
1030.000000	71.265	45.2661
1044.000000	71.384	45.8202
1060.000000	71.527	46.3738
1075.000000	71.663	46.8258
1090.000000	71.797	47.2005
1106.000000	71.939	47.5118
1120.000000	72.062	47.7238
1138.000000	72.217	47.9345
1150.000000	72.318	48.0280
1172.000000	72.493	48.1321
1180.000000	72.555	48.1554
1206.000000	72.754	48.1811
1220.000000	72.860	48.1778
1241.000000	73.021	48.1412
1250.000000	73.089	48.1192
1265.000000	73.201	48.0777
1280.000000	73.312	48.0278
1315.000000	73.552	47.9248
1320.000000	73.585	47.9152
1340.000000	73.716	47.8698
1360.000000	73.846	47.8172
1380.000000	73.982	47.7741
1400.000000	74.118	47.7131
1430.000000	74.317	47.6100
1450.000000	74.448	47.5537
1475.000000	74.613	47.4637
1500.000000	74.773	47.3691
1525.000000	74.925	47.2754
1550.000000	75.070	47.1852
1575.000000	75.209	47.0984
1600.000000	75.346	46.9940
1625.000000	75.483	46.8781
1650.000000	75.622	46.7409
1675.000000	75.757	46.5860
1700.000000	75.893	46.4161
1725.000000	76.033	46.2438
1750.000000	76.175	46.0584
1775.000000	76.317	45.8414
1800.000000	76.459	45.6040
1825.000000	76.600	45.3480
1850.000000	76.742	45.0704
1875.000000	76.884	44.7591
1900.000000	77.024	44.4168
1925.000000	77.163	44.0542
1950.000000	77.301	43.6614
1975.000000	77.436	43.2480
2000.000000	77.570	42.8142
2030.000000	77.728	42.2449
2060.000000	77.883	41.6260
2090.000000	78.034	40.9697
2120.000000	78.183	40.2788
2140.000000	78.281	39.7952
2180.000000	78.467	38.7596
2200.000000	78.557	38.2147
2240.000000	78.729	37.0766
2270.000000	78.851	36.1759
2300.000000	78.967	35.2398
2330.000000	79.076	34.2650
2360.000000	79.177	33.2543
2400.000000	79.300	31.8618
2430.000000	79.382	30.7907
2470.000000	79.478	29.3299
2500.000000	79.539	28.2134
2540.000000	79.608	26.7203
2580.000000	79.659	25.2201
2620.000000	79.694	23.7170
2650.000000	79.709	22.6060
2690.000000	79.713	21.1579
2720.000000	79.706	20.0977
2760.000000	79.685	18.7233
2800.000000	79.652	17.4088
2850.000000	79.593	15.8589
2900.000000	79.519	14.4074
2950.000000	79.435	13.0651
3000.000000	79.341	11.8337
3040.000000	79.261	10.9220
3070.000000	79.200	10.2723
3110.000000	79.116	9.4543
3150.000000	79.029	8.7029
3200.000000	78.919	7.8411
3250.000000	78.806	7.0467
3300.000000	78.693	6.3232
3350.000000	78.579	5.6706
3400.000000	78.465	5.0753
3450.000000	78.351	4.5432
3500.000000	78.240	4.0638
3550.000000	78.132	3.6258
3600.000000	78.026	3.2313
3650.000000	77.921	2.8770
3700.000000	77.818	2.5590
3750.000000	77.719	2.2577
3820.000000	77.585	1.8572
3870.000000	77.496	1.5923
3950.000000	77.362	1.1957
4000.000000	77.280	0.9641
4060.000000	77.182	0.7014
4120.000000	77.084	0.4457
4180.000000	76.985	0.1966
4250.000000	76.869	-0.0851
4310.000000	76.769	-0.3079
4370.000000	76.670	-0.5195
4440.000000	76.551	-0.7630
4500.000000	76.443	-0.9722
4550.000000	76.346	-1.1317
4620.000000	76.190	-1.2696
4680.000000	76.041	-1.1718
4750.000000	75.888	-0.6554
4820.000000	75.820	-0.0250
4870.000000	75.806	0.1639
4940.000000	75.772	0.0094
5000.000000	75.709	-0.3222
5080.000000	75.578	-0.7405
5150.000000	75.441	-0.9536
5220.000000	75.299	-1.0134
5300.000000	75.141	-0.9449
5380.000000	74.996	-0.7652
5450.000000	74.882	-0.5501
5520.000000	74.785	-0.3275
5600.000000	74.702	-0.1225
5700.000000	74.649	-0.1229
5800.000000	74.643	-0.7545
5900.000000	74.626	-2.4044
6000.000000	74.472	-5.1564
6080.000000	74.161	-7.6728
6150.000000	73.735	-9.4942
6220.000000	73.198	-10.5131
6300.000000	72.528	-10.4724
6400.000000	71.739	-8.8597
6500.000000	71.090	-6.1651
6600.000000	70.596	-2.9838
6700.000000	70.232	0.2979
6800.000000	69.965	3.5369
6900.000000	69.778	6.7199
7000.000000	69.655	9.8023
7100.000000	69.587	12.7997
7200.000000	69.569	15.7400
7300.000000	69.594	18.5820
7400.000000	69.661	21.2819
7500.000000	69.768	23.8543
7620.000000	69.938	26.8102
7750.000000	70.167	29.8613
7880.000000	70.456	32.6716
8000.000000	70.801	34.9754
8120.000000	71.225	36.9355
8250.000000	71.777	38.5426
8380.000000	72.433	39.4169
8500.000000	73.130	39.3070
8620.000000	73.897	38.0104
8750.000000	74.758	34.8320
8850.000000	75.380	30.8165
9000.000000	76.079	22.0044
9120.000000	76.280	13.0131
9250.000000	76.031	2.6576
9380.000000	75.309	-6.6827
9500.000000	74.329	-13.3791
9620.000000	73.183	-17.9545
9750.000000	71.888	-20.7500
9880.000000	70.627	-21.7610
10000.000000	69.533	-21.4873
10150.000000	68.284	-19.8612
10300.000000	67.176	-17.0463
10440.000000	66.293	-13.5594
10600.000000	65.473	-9.1071
10750.000000	64.848	-4.5715
10900.000000	64.390	0.4414
11060.000000	64.148	5.9179
11200.000000	64.154	10.2516
11380.000000	64.375	14.4017
11500.000000	64.562	16.0957
11720.000000	64.833	17.6077
11800.000000	64.898	17.8967
12060.000000	65.062	18.7701
12200.000000	65.189	19.2717
12410.000000	65.524	19.8357
12500.000000	65.724	19.8979
12650.000000	66.128	19.5525
12800.000000	66.612	18.3959
13150.000000	67.861	10.9643
13200.000000	68.021	9.2294
13400.000000	68.489	0.5458
13600.000000	68.545	-10.1859
13800.000000	68.122	-21.1255
14000.000000	67.271	-30.4286
14300.000000	65.534	-39.6479
14500.000000	64.319	-42.9326
14750.000000	62.941	-44.8230
15000.000000	61.783	-45.2867
15250.000000	60.846	-45.0390
15500.000000	60.140	-44.6031
15750.000000	59.631	-44.4148
16000.000000	59.322	-45.0487
16250.000000	59.193	-46.8788
16500.000000	59.183	-50.3340
16750.000000	59.172	-55.7629
17000.000000	59.020	-63.1859
17250.000000	58.561	-72.2338
17500.000000	57.651	-81.7440
17750.000000	56.342	-90.3451
18000.000000	54.811	-96.9678
18250.000000	53.181	-101.4811
18500.000000	51.603	-104.2687
18750.000000	50.319	-106.1354
19000.000000	49.375	-107.9330
19250.000000	48.846	-110.4982
19500.000000	48.722	-115.3837
19750.000000	48.739	-122.7907
20000.000000	48.709	-128.9711
