* Measurement data measured by REW V5.20.7
* Source: ???(Realtek High Definition Audi, no input selected, L, volume: no control
* Format: 128k Log Swept Sine, 1 sweep at -12.0 dBFS with no timing reference
* Dated: 13-Oct-2022 18:18:01
* REW Settings:
*  C-weighting compensation: Off
*  Target level: 75.0 dB
* Note: ; 
* Measurement: Hifiman RE600s L
* Smoothing: 1/24 octave
* Frequency Step: 1/48 octave
* Start Frequency: 20.300 Hz
*
* Freq(Hz)	SPL(dB)	Phase(degrees)
20.299999	75.699	23.5535
20.600000	75.647	23.4384
20.900000	75.551	23.3817
21.200001	75.484	23.7020
21.400000	75.461	24.0799
21.799999	75.468	25.1110
22.000000	75.508	25.6911
22.400000	75.693	26.7881
22.700001	75.931	27.1911
23.000000	76.214	26.8137
23.299999	76.467	25.5210
23.600000	76.625	23.5219
24.000000	76.624	20.5253
24.299999	76.481	18.8254
24.700001	76.223	17.9930
25.000000	76.107	18.3274
25.400000	76.165	19.1086
25.799999	76.388	18.9672
26.200001	76.553	17.5597
26.500000	76.542	16.2916
26.900000	76.354	15.4909
27.200001	76.188	16.1089
27.600000	76.134	18.3309
28.000000	76.400	20.6796
28.500000	76.964	21.4651
29.000000	77.333	19.6615
29.500000	77.321	17.4699
30.000000	77.096	17.0393
30.400000	76.985	17.9276
30.700001	77.009	18.6927
31.100000	77.122	18.9885
31.500000	77.191	18.2545
32.000000	77.060	16.8883
32.500000	76.753	16.7237
33.000000	76.578	18.0354
33.500000	76.722	19.0145
34.000000	76.972	17.8232
34.500000	76.989	14.9548
35.000000	76.681	12.6901
35.500000	76.283	12.8574
36.000000	76.178	14.7188
36.500000	76.432	15.8984
37.000000	76.713	15.0886
37.500000	76.752	13.4284
38.200001	76.507	13.3162
38.700001	76.472	15.1500
39.500000	76.858	16.9999
40.000000	77.038	16.4339
40.599998	76.999	15.6445
41.200001	76.886	16.2066
41.799999	76.947	17.1358
42.500000	77.127	16.5065
43.099998	77.113	14.7707
43.700001	76.946	13.3962
44.400002	76.768	12.5668
45.000000	76.687	11.7752
45.500000	76.611	10.9977
46.200001	76.488	10.3527
46.799999	76.450	10.3198
47.500000	76.509	10.2986
48.200001	76.605	10.0193
48.700001	76.663	9.7068
49.400002	76.690	9.2589
50.000000	76.660	9.1824
50.799999	76.639	9.6820
51.500000	76.678	9.9988
52.200001	76.683	9.9883
53.000000	76.671	10.2159
53.799999	76.747	10.1360
54.500000	76.768	9.2563
55.200001	76.665	8.6036
56.000000	76.579	8.8572
57.000000	76.661	9.0299
58.000000	76.756	8.5333
59.000000	76.806	7.5270
60.000000	76.675	6.8420
60.799999	76.611	7.3229
61.500000	76.662	7.4264
62.200001	76.676	6.9183
63.000000	76.621	6.4619
64.000000	76.570	5.9086
65.000000	76.419	5.5862
66.000000	76.399	6.5531
67.000000	76.575	6.3412
68.000000	76.583	5.4952
69.000000	76.595	5.3600
70.000000	76.595	4.9220
71.000000	76.536	5.2494
72.000000	76.630	5.6621
73.000000	76.687	5.0664
74.000000	76.645	4.6160
75.000000	76.598	4.2834
76.199997	76.515	4.3808
77.500000	76.582	4.5504
78.800003	76.582	3.9589
80.000000	76.567	3.9267
81.199997	76.549	3.6006
82.500000	76.472	3.6866
83.800003	76.455	3.7131
85.000000	76.423	3.7540
86.199997	76.474	3.6906
87.500000	76.474	3.0110
88.500000	76.439	2.9601
90.000000	76.465	2.8421
91.199997	76.436	2.8247
92.500000	76.482	3.0311
93.800003	76.518	2.5069
95.000000	76.490	2.1440
96.199997	76.479	1.8155
97.500000	76.427	1.5106
98.800003	76.401	1.6186
100.000000	76.409	1.5557
101.500000	76.420	1.5127
103.000000	76.470	1.0329
104.400002	76.422	0.4921
106.000000	76.393	0.5376
107.500000	76.385	0.5562
109.000000	76.397	0.8317
110.599998	76.426	0.6992
112.000000	76.404	0.5753
113.800003	76.388	0.2978
115.000000	76.348	0.2061
117.199997	76.351	0.1993
118.000000	76.338	0.0594
120.599998	76.305	0.0845
122.000000	76.293	-0.1509
124.099998	76.278	-0.1207
125.000000	76.296	-0.2113
126.500000	76.290	-0.4580
128.000000	76.275	-0.5604
131.500000	76.188	-0.8768
132.000000	76.182	-0.8740
134.000000	76.163	-1.0920
136.000000	76.131	-1.0575
138.000000	76.133	-1.0811
140.000000	76.105	-1.0072
143.000000	76.071	-1.0666
145.000000	76.042	-1.0164
147.500000	76.003	-1.2226
150.000000	75.977	-1.1427
152.500000	75.948	-1.4062
155.000000	75.908	-1.4786
157.500000	75.861	-1.6452
160.000000	75.833	-1.6668
162.500000	75.787	-1.6942
165.000000	75.774	-1.6257
167.500000	75.749	-1.7748
170.000000	75.735	-1.8826
172.500000	75.708	-2.0187
175.000000	75.703	-2.0636
177.500000	75.680	-2.2643
180.000000	75.661	-2.2893
182.500000	75.654	-2.4617
185.000000	75.640	-2.5253
187.500000	75.638	-2.5918
190.000000	75.625	-2.5879
192.500000	75.628	-2.5917
195.000000	75.619	-2.6655
197.500000	75.611	-2.6482
200.000000	75.606	-2.6656
203.000000	75.598	-2.6298
206.000000	75.597	-2.6534
209.000000	75.578	-2.6532
212.000000	75.567	-2.6566
214.000000	75.558	-2.7040
218.000000	75.545	-2.8062
220.000000	75.537	-2.8953
224.000000	75.520	-3.0443
227.000000	75.508	-3.2190
230.000000	75.489	-3.3437
233.000000	75.478	-3.4438
236.000000	75.459	-3.5172
240.000000	75.431	-3.4821
243.000000	75.408	-3.4862
247.000000	75.367	-3.4789
250.000000	75.344	-3.4929
254.000000	75.307	-3.5218
258.000000	75.271	-3.4697
262.000000	75.238	-3.4418
265.000000	75.213	-3.3877
269.000000	75.182	-3.2969
272.000000	75.154	-3.2461
276.000000	75.114	-3.1513
280.000000	75.075	-3.0441
285.000000	75.026	-2.9365
290.000000	74.988	-2.8483
295.000000	74.950	-2.7461
300.000000	74.917	-2.6065
304.000000	74.890	-2.4975
307.000000	74.867	-2.4187
311.000000	74.837	-2.3082
315.000000	74.812	-2.2107
320.000000	74.780	-2.1179
325.000000	74.749	-2.0018
330.000000	74.725	-1.8765
335.000000	74.703	-1.7535
340.000000	74.679	-1.6217
345.000000	74.656	-1.4827
350.000000	74.635	-1.3508
355.000000	74.611	-1.2144
360.000000	74.587	-1.0483
365.000000	74.565	-0.8744
370.000000	74.543	-0.7202
375.000000	74.522	-0.5710
382.000000	74.495	-0.3479
387.000000	74.473	-0.1745
395.000000	74.433	0.1391
400.000000	74.406	0.3337
406.000000	74.372	0.5837
412.000000	74.337	0.8522
418.000000	74.301	1.1312
425.000000	74.254	1.4650
431.000000	74.214	1.7549
437.000000	74.177	2.0506
444.000000	74.134	2.3868
450.000000	74.096	2.6902
455.000000	74.066	2.9450
462.000000	74.027	3.2789
468.000000	73.995	3.5676
475.000000	73.959	3.9221
482.000000	73.923	4.2715
487.000000	73.896	4.5224
494.000000	73.858	4.8825
500.000000	73.832	5.1979
508.000000	73.805	5.6613
515.000000	73.784	6.0962
522.000000	73.760	6.5051
530.000000	73.731	6.9138
538.000000	73.708	7.3235
545.000000	73.684	7.7295
552.000000	73.655	8.1466
560.000000	73.627	8.6136
570.000000	73.600	9.2127
580.000000	73.576	9.8221
590.000000	73.553	10.4630
600.000000	73.529	11.0934
608.000000	73.513	11.5844
615.000000	73.501	11.9977
622.000000	73.490	12.4049
630.000000	73.479	12.8848
640.000000	73.463	13.5248
650.000000	73.447	14.2055
660.000000	73.438	14.9136
670.000000	73.434	15.6164
680.000000	73.433	16.2767
690.000000	73.435	16.9241
700.000000	73.445	17.5663
710.000000	73.462	18.2026
720.000000	73.481	18.8518
730.000000	73.505	19.5145
740.000000	73.534	20.1881
750.000000	73.563	20.8865
762.000000	73.600	21.7225
775.000000	73.642	22.5880
788.000000	73.691	23.4759
800.000000	73.743	24.2816
812.000000	73.800	25.0657
825.000000	73.864	25.9062
838.000000	73.931	26.7784
850.000000	74.003	27.5906
862.000000	74.083	28.3996
875.000000	74.172	29.2572
885.000000	74.243	29.8684
900.000000	74.356	30.7431
912.000000	74.457	31.4241
925.000000	74.577	32.1324
938.000000	74.702	32.8152
950.000000	74.816	33.4376
962.000000	74.930	34.0511
975.000000	75.054	34.6836
988.000000	75.177	35.2747
1000.000000	75.290	35.8116
1015.000000	75.431	36.4717
1030.000000	75.571	37.0974
1044.000000	75.702	37.6419
1060.000000	75.853	38.2023
1075.000000	75.995	38.6618
1090.000000	76.134	39.0572
1106.000000	76.286	39.4308
1120.000000	76.422	39.7238
1138.000000	76.593	40.0656
1150.000000	76.706	40.2725
1172.000000	76.914	40.6065
1180.000000	76.989	40.7117
1206.000000	77.236	41.0042
1220.000000	77.379	41.1316
1241.000000	77.605	41.2620
1250.000000	77.703	41.2965
1265.000000	77.869	41.3311
1280.000000	78.035	41.3402
1315.000000	78.421	41.2817
1320.000000	78.476	41.2680
1340.000000	78.699	41.1946
1360.000000	78.928	41.0709
1380.000000	79.168	40.8823
1400.000000	79.417	40.6235
1430.000000	79.797	40.1227
1450.000000	80.055	39.7226
1475.000000	80.383	39.1323
1500.000000	80.717	38.3992
1525.000000	81.057	37.4950
1550.000000	81.392	36.4043
1575.000000	81.721	35.1231
1600.000000	82.046	33.6601
1625.000000	82.363	32.0015
1650.000000	82.666	30.1135
1675.000000	82.953	27.9661
1700.000000	83.223	25.5420
1725.000000	83.469	22.7894
1750.000000	83.671	19.6662
1775.000000	83.799	16.2434
1800.000000	83.830	12.7532
1825.000000	83.771	9.5212
1850.000000	83.665	6.8035
1875.000000	83.579	4.5343
1900.000000	83.547	2.2709
1925.000000	83.529	-0.4248
1950.000000	83.455	-3.6158
1975.000000	83.271	-7.0204
2000.000000	82.965	-10.2181
2030.000000	82.464	-13.2140
2060.000000	81.906	-14.9041
2090.000000	81.404	-15.3798
2120.000000	81.039	-15.2244
2140.000000	80.873	-15.1080
2180.000000	80.647	-15.3497
2200.000000	80.550	-15.7306
2240.000000	80.337	-16.7980
2270.000000	80.146	-17.6904
2300.000000	79.935	-18.5506
2330.000000	79.712	-19.3363
2360.000000	79.484	-20.0463
2400.000000	79.170	-20.8816
2430.000000	78.925	-21.4126
2470.000000	78.592	-21.9455
2500.000000	78.341	-22.1946
2540.000000	78.009	-22.3165
2580.000000	77.684	-22.2260
2620.000000	77.367	-21.9679
2650.000000	77.137	-21.6796
2690.000000	76.841	-21.1794
2720.000000	76.628	-20.7266
2760.000000	76.356	-20.0250
2800.000000	76.102	-19.2289
2850.000000	75.810	-18.1716
2900.000000	75.534	-17.0949
2950.000000	75.267	-15.9554
3000.000000	75.008	-14.7276
3040.000000	74.808	-13.6875
3070.000000	74.664	-12.8774
3110.000000	74.480	-11.7657
3150.000000	74.308	-10.6204
3200.000000	74.107	-9.1287
3250.000000	73.918	-7.5208
3300.000000	73.744	-5.8201
3350.000000	73.588	-4.0506
3400.000000	73.453	-2.2221
3450.000000	73.340	-0.3525
3500.000000	73.256	1.5399
3550.000000	73.203	3.4203
3600.000000	73.172	5.2416
3650.000000	73.154	6.9954
3700.000000	73.144	8.7065
3750.000000	73.147	10.3760
3820.000000	73.166	12.5969
3870.000000	73.188	14.1273
3950.000000	73.233	16.5318
4000.000000	73.265	18.0480
4060.000000	73.313	19.9266
4120.000000	73.378	21.8784
4180.000000	73.462	23.8844
4250.000000	73.587	26.2492
4310.000000	73.724	28.2655
4370.000000	73.891	30.2353
4440.000000	74.122	32.4227
4500.000000	74.347	34.1676
4550.000000	74.545	35.5291
4620.000000	74.838	37.3195
4680.000000	75.105	38.7772
4750.000000	75.441	40.4256
4820.000000	75.809	42.0268
4870.000000	76.093	43.1124
4940.000000	76.527	44.4766
5000.000000	76.934	45.4371
5080.000000	77.531	46.3439
5150.000000	78.101	46.7180
5220.000000	78.712	46.6042
5300.000000	79.451	45.7453
5380.000000	80.211	43.9506
5450.000000	80.868	41.4929
5520.000000	81.486	38.1129
5600.000000	82.105	33.0364
5700.000000	82.658	24.9422
5800.000000	82.855	15.4932
5900.000000	82.631	5.9168
6000.000000	82.027	-2.4314
6080.000000	81.353	-7.6360
6150.000000	80.689	-11.0154
6220.000000	80.001	-13.3823
6300.000000	79.227	-15.0396
6400.000000	78.324	-15.8830
6500.000000	77.516	-15.7360
6600.000000	76.816	-14.9460
6700.000000	76.219	-13.7821
6800.000000	75.706	-12.4076
6900.000000	75.264	-10.8698
7000.000000	74.879	-9.2525
7100.000000	74.501	-7.5108
7200.000000	74.099	-5.1251
7300.000000	73.762	-1.4665
7400.000000	73.673	3.1780
7500.000000	73.910	7.6904
7620.000000	74.521	11.8067
7750.000000	75.427	14.2178
7880.000000	76.504	14.1884
8000.000000	77.591	11.4445
8120.000000	78.623	5.3977
8250.000000	79.420	-5.1931
8380.000000	79.605	-18.9252
8500.000000	79.114	-32.1414
8620.000000	78.049	-43.6250
8750.000000	76.457	-52.7772
8850.000000	75.080	-57.4569
9000.000000	72.977	-61.3184
9120.000000	71.365	-62.3827
9250.000000	69.736	-62.0963
9380.000000	68.240	-60.6977
9500.000000	66.970	-58.7150
9620.000000	65.798	-56.2693
9750.000000	64.631	-53.2255
9880.000000	63.568	-49.8382
10000.000000	62.668	-46.4622
10150.000000	61.638	-42.0112
10300.000000	60.697	-37.3314
10440.000000	59.891	-32.8193
10600.000000	59.049	-27.5647
10750.000000	58.332	-22.5591
10900.000000	57.681	-17.5122
11060.000000	57.061	-12.0862
11200.000000	56.576	-7.3028
11380.000000	56.015	-1.1571
11500.000000	55.678	2.9072
11720.000000	55.162	10.3335
11800.000000	55.008	13.0299
12060.000000	54.619	21.6498
12200.000000	54.492	26.2785
12410.000000	54.424	33.1558
12500.000000	54.446	36.0306
12650.000000	54.545	40.7442
12800.000000	54.719	45.4035
13150.000000	55.510	55.5960
13200.000000	55.665	56.9348
13400.000000	56.394	61.8287
13600.000000	57.347	65.8506
13800.000000	58.623	68.8859
14000.000000	60.269	70.4922
14300.000000	63.429	67.0970
14500.000000	65.632	57.0360
14750.000000	67.209	31.5952
15000.000000	66.416	1.9683
15250.000000	63.761	-16.0310
15500.000000	60.693	-22.4124
15750.000000	58.090	-22.8577
16000.000000	56.077	-20.7049
16250.000000	54.515	-17.4492
16500.000000	53.278	-13.7136
16750.000000	52.306	-9.6879
17000.000000	51.587	-5.5390
17250.000000	51.080	-1.5077
17500.000000	50.699	2.3196
17750.000000	50.470	5.6833
18000.000000	50.473	7.9802
18250.000000	50.766	9.1016
18500.000000	51.365	8.7265
18750.000000	52.266	5.8027
19000.000000	53.318	-0.8104
19250.000000	54.283	-11.5340
19500.000000	54.950	-25.5515
19750.000000	55.289	-39.9249
20000.000000	55.412	-48.8699
