* Measurement data measured by REW V5.20.13
* Source: C:\Users\DABKING\Desktop\Harman IE 2019 v2 Target.txt
* Format: Comma/Tab/Space delimited data
* Dated: 2022. 12. 29 ¿ÀÈÄ 10:13:35
* REW Settings:
*  C-weighting compensation: Off
*  Target level: 75.0 dB
* Note: Measurement imported from C:\Users\DABKING\Desktop\Harman IE 2019 v2 Target.txt Format: Comma/Tab/Space delimited data 480 values loaded, 20 Hz to 19,967 Hz log spaced
* Measurement: Harman IE 2019 v2 Target
* Smoothing: 1/24 octave
* Frequency Step: 1/48 octave
* Start Frequency: 20.000 Hz
*
* Freq(Hz)	SPL(dB)
20.000000	75.985
20.299999	75.973
20.600000	75.962
20.900000	75.951
21.200001	75.941
21.400000	75.934
21.799999	75.922
22.000000	75.916
22.400000	75.906
22.700001	75.900
23.000000	75.894
23.299999	75.889
23.600000	75.885
24.000000	75.881
24.299999	75.879
24.700001	75.876
25.000000	75.875
25.400000	75.874
25.799999	75.874
26.200001	75.873
26.500000	75.873
26.900000	75.874
27.200001	75.874
27.600000	75.875
28.000000	75.875
28.500000	75.877
29.000000	75.878
29.500000	75.880
30.000000	75.882
30.400000	75.885
30.700001	75.887
31.100000	75.891
31.500000	75.895
32.000000	75.902
32.500000	75.909
33.000000	75.917
33.500000	75.926
34.000000	75.937
34.500000	75.950
35.000000	75.964
35.500000	75.979
36.000000	75.998
36.500000	76.018
37.000000	76.039
37.500000	76.060
38.200001	76.092
38.700001	76.115
39.500000	76.152
40.000000	76.178
40.599998	76.211
41.200001	76.247
41.799999	76.282
42.500000	76.325
43.099998	76.366
43.700001	76.409
44.400002	76.459
45.000000	76.504
45.500000	76.543
46.200001	76.600
46.799999	76.649
47.500000	76.708
48.200001	76.770
48.700001	76.816
49.400002	76.879
50.000000	76.932
50.799999	77.001
51.500000	77.060
52.200001	77.119
53.000000	77.187
53.799999	77.258
54.500000	77.321
55.200001	77.384
56.000000	77.453
57.000000	77.529
58.000000	77.603
59.000000	77.677
60.000000	77.758
60.799999	77.833
61.500000	77.903
62.200001	77.974
63.000000	78.051
64.000000	78.138
65.000000	78.220
66.000000	78.302
67.000000	78.383
68.000000	78.467
69.000000	78.551
70.000000	78.635
71.000000	78.719
72.000000	78.804
73.000000	78.890
74.000000	78.975
75.000000	79.055
76.199997	79.144
77.500000	79.234
78.800003	79.324
80.000000	79.407
81.199997	79.491
82.500000	79.581
83.800003	79.671
85.000000	79.754
86.199997	79.837
87.500000	79.926
88.500000	79.995
90.000000	80.099
91.199997	80.181
92.500000	80.271
93.800003	80.360
95.000000	80.442
96.199997	80.525
97.500000	80.614
98.800003	80.702
100.000000	80.780
101.500000	80.870
103.000000	80.956
104.400002	81.036
106.000000	81.128
107.500000	81.214
109.000000	81.300
110.599998	81.391
112.000000	81.472
113.800003	81.575
115.000000	81.644
117.199997	81.768
118.000000	81.812
120.599998	81.943
122.000000	82.012
124.099998	82.115
125.000000	82.160
126.500000	82.233
128.000000	82.306
131.500000	82.474
132.000000	82.497
134.000000	82.585
136.000000	82.670
138.000000	82.754
140.000000	82.833
143.000000	82.938
145.000000	83.004
147.500000	83.087
150.000000	83.168
152.500000	83.249
155.000000	83.329
157.500000	83.408
160.000000	83.487
162.500000	83.564
165.000000	83.640
167.500000	83.716
170.000000	83.791
172.500000	83.863
175.000000	83.934
177.500000	84.005
180.000000	84.074
182.500000	84.141
185.000000	84.207
187.500000	84.272
190.000000	84.334
192.500000	84.395
195.000000	84.454
197.500000	84.511
200.000000	84.564
203.000000	84.621
206.000000	84.672
209.000000	84.722
212.000000	84.771
214.000000	84.801
218.000000	84.859
220.000000	84.887
224.000000	84.941
227.000000	84.977
230.000000	85.012
233.000000	85.045
236.000000	85.075
240.000000	85.108
243.000000	85.131
247.000000	85.159
250.000000	85.178
254.000000	85.200
258.000000	85.219
262.000000	85.237
265.000000	85.250
269.000000	85.263
272.000000	85.272
276.000000	85.282
280.000000	85.291
285.000000	85.298
290.000000	85.303
295.000000	85.307
300.000000	85.311
304.000000	85.311
307.000000	85.311
311.000000	85.311
315.000000	85.310
320.000000	85.307
325.000000	85.303
330.000000	85.299
335.000000	85.295
340.000000	85.289
345.000000	85.283
350.000000	85.276
355.000000	85.269
360.000000	85.262
365.000000	85.254
370.000000	85.245
375.000000	85.237
382.000000	85.226
387.000000	85.219
395.000000	85.206
400.000000	85.198
406.000000	85.188
412.000000	85.178
418.000000	85.168
425.000000	85.155
431.000000	85.144
437.000000	85.133
444.000000	85.119
450.000000	85.107
455.000000	85.097
462.000000	85.082
468.000000	85.070
475.000000	85.055
482.000000	85.039
487.000000	85.027
494.000000	85.011
500.000000	84.998
508.000000	84.980
515.000000	84.965
522.000000	84.950
530.000000	84.933
538.000000	84.914
545.000000	84.898
552.000000	84.881
560.000000	84.863
570.000000	84.842
580.000000	84.822
590.000000	84.802
600.000000	84.779
608.000000	84.758
615.000000	84.738
622.000000	84.717
630.000000	84.694
640.000000	84.668
650.000000	84.643
660.000000	84.619
670.000000	84.593
680.000000	84.566
690.000000	84.539
700.000000	84.511
710.000000	84.483
720.000000	84.454
730.000000	84.424
740.000000	84.395
750.000000	84.366
762.000000	84.334
775.000000	84.300
788.000000	84.267
800.000000	84.235
812.000000	84.203
825.000000	84.167
838.000000	84.130
850.000000	84.096
862.000000	84.061
875.000000	84.022
885.000000	83.992
900.000000	83.946
912.000000	83.907
925.000000	83.864
938.000000	83.821
950.000000	83.779
962.000000	83.736
975.000000	83.687
988.000000	83.638
1000.000000	83.594
1015.000000	83.539
1030.000000	83.484
1044.000000	83.433
1060.000000	83.372
1075.000000	83.310
1090.000000	83.247
1106.000000	83.178
1120.000000	83.115
1138.000000	83.028
1150.000000	82.968
1172.000000	82.856
1180.000000	82.816
1206.000000	82.684
1220.000000	82.613
1241.000000	82.505
1250.000000	82.457
1265.000000	82.372
1280.000000	82.284
1315.000000	82.078
1320.000000	82.049
1340.000000	81.931
1360.000000	81.814
1380.000000	81.697
1400.000000	81.583
1430.000000	81.421
1450.000000	81.315
1475.000000	81.183
1500.000000	81.048
1525.000000	80.907
1550.000000	80.762
1575.000000	80.617
1600.000000	80.469
1625.000000	80.316
1650.000000	80.160
1675.000000	80.003
1700.000000	79.843
1725.000000	79.680
1750.000000	79.515
1775.000000	79.348
1800.000000	79.181
1825.000000	79.010
1850.000000	78.838
1875.000000	78.665
1900.000000	78.492
1925.000000	78.318
1950.000000	78.143
1975.000000	77.970
2000.000000	77.804
2030.000000	77.620
2060.000000	77.446
2090.000000	77.273
2120.000000	77.102
2140.000000	76.990
2180.000000	76.768
2200.000000	76.658
2240.000000	76.441
2270.000000	76.284
2300.000000	76.131
2330.000000	75.981
2360.000000	75.840
2400.000000	75.672
2430.000000	75.556
2470.000000	75.405
2500.000000	75.298
2540.000000	75.169
2580.000000	75.050
2620.000000	74.933
2650.000000	74.851
2690.000000	74.753
2720.000000	74.685
2760.000000	74.597
2800.000000	74.519
2850.000000	74.451
2900.000000	74.395
2950.000000	74.340
3000.000000	74.291
3040.000000	74.258
3070.000000	74.236
3110.000000	74.210
3150.000000	74.192
3200.000000	74.182
3250.000000	74.182
3300.000000	74.184
3350.000000	74.193
3400.000000	74.211
3450.000000	74.235
3500.000000	74.262
3550.000000	74.293
3600.000000	74.333
3650.000000	74.377
3700.000000	74.423
3750.000000	74.469
3820.000000	74.535
3870.000000	74.583
3950.000000	74.661
4000.000000	74.711
4060.000000	74.775
4120.000000	74.841
4180.000000	74.908
4250.000000	74.987
4310.000000	75.057
4370.000000	75.127
4440.000000	75.210
4500.000000	75.281
4550.000000	75.341
4620.000000	75.425
4680.000000	75.497
4750.000000	75.580
4820.000000	75.663
4870.000000	75.722
4940.000000	75.804
5000.000000	75.872
5080.000000	75.954
5150.000000	76.023
5220.000000	76.092
5300.000000	76.172
5380.000000	76.252
5450.000000	76.324
5520.000000	76.394
5600.000000	76.471
5700.000000	76.561
5800.000000	76.647
5900.000000	76.733
6000.000000	76.830
6080.000000	76.927
6150.000000	77.021
6220.000000	77.115
6300.000000	77.221
6400.000000	77.348
6500.000000	77.474
6600.000000	77.601
6700.000000	77.736
6800.000000	77.884
6900.000000	78.039
7000.000000	78.197
7100.000000	78.364
7200.000000	78.545
7300.000000	78.735
7400.000000	78.924
7500.000000	79.111
7620.000000	79.330
7750.000000	79.564
7880.000000	79.798
8000.000000	80.020
8120.000000	80.254
8250.000000	80.514
8380.000000	80.777
8500.000000	81.023
8620.000000	81.278
8750.000000	81.559
8850.000000	81.776
9000.000000	82.105
9120.000000	82.373
9250.000000	82.666
9380.000000	82.961
9500.000000	83.234
9620.000000	83.510
9750.000000	83.809
9880.000000	84.104
10000.000000	84.366
10150.000000	84.674
10300.000000	84.968
10440.000000	85.240
10600.000000	85.551
10750.000000	85.842
10900.000000	86.133
11060.000000	86.444
11200.000000	86.714
11380.000000	87.059
11500.000000	87.288
11720.000000	87.699
11800.000000	87.840
12060.000000	88.271
12200.000000	88.494
12410.000000	88.826
12500.000000	88.967
12650.000000	89.199
12800.000000	89.429
13150.000000	89.956
13200.000000	90.029
13400.000000	90.309
13600.000000	90.580
13800.000000	90.847
14000.000000	91.107
14300.000000	91.474
14500.000000	91.712
14750.000000	92.010
15000.000000	92.325
15250.000000	92.675
15500.000000	93.038
15750.000000	93.409
16000.000000	93.810
16250.000000	94.256
16500.000000	94.727
16750.000000	95.212
17000.000000	95.734
17250.000000	96.309
17500.000000	96.916
17750.000000	97.537
18000.000000	98.190
18250.000000	98.900
18500.000000	99.639
18750.000000	100.387
19000.000000	101.155
19250.000000	101.954
19500.000000	102.762
19750.000000	103.508
