* Measurement data measured by REW V5.20.9
* Source: Mic in at rear panel (Pink)(Realtek(R) Audio), MICROPHONE (마스), R, volume: 0.250
* Format: 256k Log Swept Sine, 1 sweep at -12.0 dBFS with no timing reference
* Dated: 2022. 9. 16 오후 9:53:09
* REW Settings:
*  C-weighting compensation: Off
*  Target level: 75.0 dB
* Note: 
* Measurement: R
* Smoothing: 1/24 octave
* Frequency Step: 1/48 octave
* Start Frequency: 20.300 Hz
*
* Freq(Hz)	SPL(dB)	Phase(degrees)
20.299999	71.865	-164.6063
20.600000	71.872	-164.8434
20.900000	71.886	-165.2771
21.200001	71.895	-165.7201
21.400000	71.898	-166.0296
21.799999	71.898	-166.7106
22.000000	71.893	-167.0867
22.400000	71.872	-167.8879
22.700001	71.846	-168.5002
23.000000	71.813	-169.0893
23.299999	71.778	-169.6325
23.600000	71.745	-170.1242
24.000000	71.714	-170.7153
24.299999	71.703	-171.1396
24.700001	71.702	-171.7216
25.000000	71.708	-172.1882
25.400000	71.717	-172.8520
25.799999	71.722	-173.5402
26.200001	71.718	-174.2155
26.500000	71.707	-174.6866
26.900000	71.684	-175.2357
27.200001	71.662	-175.5721
27.600000	71.638	-175.9226
28.000000	71.626	-176.2112
28.500000	71.632	-176.6206
29.000000	71.644	-177.2133
29.500000	71.635	-177.9741
30.000000	71.594	-178.7547
30.400000	71.548	-179.3058
30.700001	71.510	-179.6657
31.100000	71.462	179.9080
31.500000	71.417	179.5271
32.000000	71.368	179.1201
32.500000	71.334	178.7967
33.000000	71.326	178.4913
33.500000	71.342	178.0966
34.000000	71.362	177.5742
34.500000	71.369	177.0065
35.000000	71.367	176.4832
35.500000	71.369	175.9929
36.000000	71.370	175.4526
36.500000	71.356	174.8506
37.000000	71.315	174.3074
37.500000	71.262	173.9537
38.200001	71.218	173.6992
38.700001	71.220	173.4254
39.500000	71.211	172.5479
40.000000	71.168	171.9384
40.599998	71.098	171.3865
41.200001	71.039	170.9629
41.799999	70.981	170.5554
42.500000	70.905	170.3004
43.099998	70.880	170.3642
43.700001	70.917	170.2861
44.400002	70.957	169.6653
45.000000	70.927	169.0574
45.500000	70.888	168.8031
46.200001	70.885	168.5260
46.799999	70.895	167.8672
47.500000	70.817	166.8586
48.200001	70.671	166.4111
48.700001	70.600	166.4668
49.400002	70.585	166.4813
50.000000	70.597	166.1226
50.799999	70.570	165.4196
51.500000	70.523	165.0028
52.200001	70.501	164.7479
53.000000	70.506	164.3346
53.799999	70.491	163.7334
54.500000	70.447	163.2487
55.200001	70.389	162.8810
56.000000	70.316	162.5925
57.000000	70.243	162.4408
58.000000	70.222	162.1093
59.000000	70.177	161.3724
60.000000	70.088	160.7795
60.799999	70.035	160.4610
61.500000	70.004	160.1611
62.200001	69.975	159.8394
63.000000	69.940	159.5055
64.000000	69.897	159.1669
65.000000	69.858	158.8816
66.000000	69.820	158.6029
67.000000	69.780	158.2867
68.000000	69.731	157.9033
69.000000	69.669	157.5121
70.000000	69.603	157.1454
71.000000	69.538	156.7825
72.000000	69.476	156.4522
73.000000	69.421	156.1528
74.000000	69.374	155.8454
75.000000	69.328	155.5175
76.199997	69.267	155.1397
77.500000	69.202	154.8035
78.800003	69.143	154.4234
80.000000	69.077	154.0804
81.199997	69.012	153.8315
82.500000	68.952	153.5853
83.800003	68.893	153.3168
85.000000	68.835	153.0673
86.199997	68.775	152.8289
87.500000	68.710	152.5489
88.500000	68.656	152.3096
90.000000	68.573	152.0274
91.199997	68.523	151.8516
92.500000	68.480	151.6191
93.800003	68.442	151.3552
95.000000	68.397	151.0487
96.199997	68.334	150.7962
97.500000	68.261	150.6167
98.800003	68.193	150.4703
100.000000	68.134	150.3123
101.500000	68.061	150.1111
103.000000	67.993	149.9194
104.400002	67.932	149.7344
106.000000	67.863	149.5345
107.500000	67.802	149.3307
109.000000	67.737	149.1021
110.599998	67.662	148.9156
112.000000	67.601	148.7830
113.800003	67.525	148.6115
115.000000	67.476	148.4974
117.199997	67.392	148.2579
118.000000	67.362	148.1811
120.599998	67.272	147.9290
122.000000	67.215	147.8353
124.099998	67.127	147.7223
125.000000	67.085	147.6583
126.500000	67.014	147.5527
128.000000	66.947	147.4381
131.500000	66.816	147.2417
132.000000	66.801	147.2231
134.000000	66.740	147.1147
136.000000	66.665	147.0125
138.000000	66.588	146.9475
140.000000	66.520	146.8584
143.000000	66.427	146.6911
145.000000	66.357	146.5625
147.500000	66.253	146.5226
150.000000	66.161	146.5387
152.500000	66.074	146.5059
155.000000	65.986	146.4916
157.500000	65.905	146.5003
160.000000	65.829	146.4855
162.500000	65.756	146.4523
165.000000	65.682	146.4197
167.500000	65.601	146.4121
170.000000	65.511	146.4554
172.500000	65.417	146.5366
175.000000	65.332	146.6137
177.500000	65.254	146.6618
180.000000	65.175	146.7358
182.500000	65.095	146.8695
185.000000	65.017	147.0234
187.500000	64.937	147.2213
190.000000	64.851	147.4957
192.500000	64.757	147.8022
195.000000	64.661	148.1082
197.500000	64.576	148.4583
200.000000	64.522	148.9104
203.000000	64.509	149.4727
206.000000	64.541	149.8409
209.000000	64.581	149.9721
212.000000	64.597	149.9603
214.000000	64.588	149.8800
218.000000	64.544	149.6262
220.000000	64.515	149.5090
224.000000	64.443	149.3539
227.000000	64.380	149.2930
230.000000	64.315	149.3011
233.000000	64.253	149.3491
236.000000	64.195	149.3990
240.000000	64.115	149.5256
243.000000	64.051	149.6566
247.000000	63.965	149.7906
250.000000	63.905	149.8737
254.000000	63.829	150.0276
258.000000	63.750	150.2732
262.000000	63.675	150.5265
265.000000	63.622	150.6895
269.000000	63.556	150.9033
272.000000	63.508	151.0556
276.000000	63.451	151.2290
280.000000	63.390	151.4176
285.000000	63.314	151.7366
290.000000	63.254	152.0677
295.000000	63.190	152.3438
300.000000	63.126	152.6000
304.000000	63.075	152.8329
307.000000	63.036	153.0075
311.000000	62.988	153.2501
315.000000	62.947	153.5250
320.000000	62.893	153.8838
325.000000	62.836	154.2021
330.000000	62.790	154.4787
335.000000	62.747	154.8092
340.000000	62.695	155.1619
345.000000	62.644	155.4819
350.000000	62.595	155.8041
355.000000	62.547	156.1330
360.000000	62.499	156.4587
365.000000	62.448	156.7971
370.000000	62.398	157.1440
375.000000	62.352	157.4841
382.000000	62.293	157.9871
387.000000	62.249	158.3519
395.000000	62.177	158.8914
400.000000	62.142	159.2241
406.000000	62.098	159.6393
412.000000	62.051	160.1064
418.000000	62.007	160.5881
425.000000	61.971	161.1498
431.000000	61.947	161.5817
437.000000	61.923	161.9828
444.000000	61.898	162.4383
450.000000	61.880	162.8131
455.000000	61.866	163.0969
462.000000	61.844	163.4761
468.000000	61.824	163.8063
475.000000	61.800	164.1568
482.000000	61.777	164.4703
487.000000	61.756	164.6790
494.000000	61.719	164.9834
500.000000	61.687	165.2745
508.000000	61.634	165.6963
515.000000	61.580	166.0691
522.000000	61.524	166.4865
530.000000	61.466	167.1024
538.000000	61.418	167.7532
545.000000	61.387	168.3298
552.000000	61.368	168.9438
560.000000	61.344	169.6465
570.000000	61.317	170.4910
580.000000	61.299	171.2726
590.000000	61.290	172.0728
600.000000	61.282	172.8339
608.000000	61.277	173.4117
615.000000	61.275	173.9362
622.000000	61.272	174.4727
630.000000	61.267	175.0735
640.000000	61.267	175.7928
650.000000	61.269	176.5204
660.000000	61.274	177.2305
670.000000	61.281	177.9378
680.000000	61.285	178.6709
690.000000	61.288	179.3926
700.000000	61.297	-179.9117
710.000000	61.312	-179.1993
720.000000	61.324	-178.4669
730.000000	61.337	-177.7359
740.000000	61.356	-177.0137
750.000000	61.379	-176.3071
762.000000	61.410	-175.4612
775.000000	61.444	-174.5338
788.000000	61.480	-173.6173
800.000000	61.520	-172.7842
812.000000	61.563	-171.9305
825.000000	61.614	-170.9883
838.000000	61.668	-170.0704
850.000000	61.720	-169.2366
862.000000	61.777	-168.4250
875.000000	61.844	-167.5938
885.000000	61.901	-166.9617
900.000000	61.994	-166.0050
912.000000	62.075	-165.2395
925.000000	62.162	-164.4279
938.000000	62.253	-163.6662
950.000000	62.342	-162.9949
962.000000	62.432	-162.3353
975.000000	62.531	-161.6509
988.000000	62.631	-160.9825
1000.000000	62.729	-160.3830
1015.000000	62.858	-159.7289
1030.000000	62.986	-159.1120
1044.000000	63.107	-158.5563
1060.000000	63.246	-157.9672
1075.000000	63.376	-157.4532
1090.000000	63.510	-156.9772
1106.000000	63.661	-156.5061
1120.000000	63.792	-156.1262
1138.000000	63.958	-155.6839
1150.000000	64.070	-155.4062
1172.000000	64.270	-154.9394
1180.000000	64.343	-154.7870
1206.000000	64.579	-154.2986
1220.000000	64.705	-154.0606
1241.000000	64.891	-153.7324
1250.000000	64.969	-153.5910
1265.000000	65.100	-153.3555
1280.000000	65.229	-153.1399
1315.000000	65.534	-152.6863
1320.000000	65.578	-152.6261
1340.000000	65.749	-152.4016
1360.000000	65.914	-152.1908
1380.000000	66.081	-151.9934
1400.000000	66.254	-151.8197
1430.000000	66.516	-151.5950
1450.000000	66.691	-151.4641
1475.000000	66.909	-151.3414
1500.000000	67.127	-151.2691
1525.000000	67.344	-151.2207
1550.000000	67.560	-151.1973
1575.000000	67.774	-151.2093
1600.000000	67.987	-151.2505
1625.000000	68.200	-151.3064
1650.000000	68.412	-151.3712
1675.000000	68.625	-151.4650
1700.000000	68.839	-151.6006
1725.000000	69.053	-151.7651
1750.000000	69.268	-151.9641
1775.000000	69.484	-152.1964
1800.000000	69.699	-152.4635
1825.000000	69.914	-152.7710
1850.000000	70.132	-153.1276
1875.000000	70.349	-153.5359
1900.000000	70.564	-153.9924
1925.000000	70.779	-154.4948
1950.000000	70.992	-155.0557
1975.000000	71.202	-155.6765
2000.000000	71.410	-156.3527
2030.000000	71.656	-157.2484
2060.000000	71.895	-158.2354
2090.000000	72.127	-159.2985
2120.000000	72.350	-160.4480
2140.000000	72.494	-161.2617
2180.000000	72.765	-162.9753
2200.000000	72.890	-163.8758
2240.000000	73.121	-165.7632
2270.000000	73.276	-167.2385
2300.000000	73.416	-168.7482
2330.000000	73.539	-170.2848
2360.000000	73.645	-171.8341
2400.000000	73.761	-173.8986
2430.000000	73.829	-175.4376
2470.000000	73.895	-177.4474
2500.000000	73.927	-178.9084
2540.000000	73.949	179.2166
2580.000000	73.949	177.4473
2620.000000	73.930	175.7986
2650.000000	73.905	174.6422
2690.000000	73.862	173.2152
2720.000000	73.824	172.2298
2760.000000	73.768	171.0239
2800.000000	73.707	169.9467
2850.000000	73.629	168.7644
2900.000000	73.554	167.7441
2950.000000	73.484	166.8658
3000.000000	73.422	166.1198
3040.000000	73.379	165.6064
3070.000000	73.351	165.2629
3110.000000	73.320	164.8527
3150.000000	73.296	164.4887
3200.000000	73.283	164.0824
3250.000000	73.285	163.6986
3300.000000	73.301	163.3112
3350.000000	73.329	162.9105
3400.000000	73.371	162.4852
3450.000000	73.429	162.0248
3500.000000	73.505	161.5071
3550.000000	73.594	160.9111
3600.000000	73.692	160.2089
3650.000000	73.798	159.3767
3700.000000	73.904	158.3893
3750.000000	74.005	157.2289
3820.000000	74.124	155.3323
3870.000000	74.185	153.7993
3950.000000	74.227	151.0793
4000.000000	74.214	149.2575
4060.000000	74.156	147.0056
4120.000000	74.049	144.7541
4180.000000	73.894	142.5760
4250.000000	73.661	140.2345
4310.000000	73.426	138.4448
4370.000000	73.168	136.8343
4440.000000	72.854	135.0782
4500.000000	72.575	133.5600
4550.000000	72.323	132.2368
4620.000000	71.914	130.3523
4680.000000	71.493	128.8927
4750.000000	70.923	127.6590
4820.000000	70.304	127.1202
4870.000000	69.854	127.1672
4940.000000	69.238	127.7533
5000.000000	68.737	128.6505
5080.000000	68.116	130.2872
5150.000000	67.618	132.0188
5220.000000	67.159	133.9510
5300.000000	66.678	136.3592
5380.000000	66.244	138.9645
5450.000000	65.901	141.3781
5520.000000	65.588	143.8983
5600.000000	65.265	146.8964
5700.000000	64.914	150.7965
5800.000000	64.620	154.8351
5900.000000	64.387	159.0243
6000.000000	64.218	163.3291
6080.000000	64.134	166.8236
6150.000000	64.099	169.8981
6220.000000	64.097	172.9718
6300.000000	64.132	176.4527
6400.000000	64.233	-179.2765
6500.000000	64.403	-175.1039
6600.000000	64.641	-171.0455
6700.000000	64.947	-167.1548
6800.000000	65.327	-163.4958
6900.000000	65.799	-160.1019
7000.000000	66.367	-157.0190
7100.000000	67.022	-154.3764
7200.000000	67.764	-152.3348
7300.000000	68.585	-151.1085
7400.000000	69.461	-150.9462
7500.000000	70.356	-152.1236
7620.000000	71.370	-155.6344
7750.000000	72.209	-162.0255
7880.000000	72.537	-170.1917
8000.000000	72.348	-177.7145
8120.000000	71.781	176.2173
8250.000000	70.917	172.0459
8380.000000	69.979	170.2830
8500.000000	69.158	170.3359
8620.000000	68.431	171.5212
8750.000000	67.763	173.6497
8850.000000	67.339	175.6546
9000.000000	66.856	178.9362
9120.000000	66.591	-178.4256
9250.000000	66.404	-175.7213
9380.000000	66.309	-173.3065
9500.000000	66.289	-171.4347
9620.000000	66.318	-169.9873
9750.000000	66.386	-168.9939
9880.000000	66.470	-168.6342
10000.000000	66.539	-168.8574
10150.000000	66.580	-169.8517
10300.000000	66.544	-171.5815
10440.000000	66.417	-173.7723
10600.000000	66.130	-176.8394
10750.000000	65.676	179.9910
10900.000000	65.006	177.3675
11060.000000	64.202	175.9213
11200.000000	63.581	174.6834
11380.000000	62.712	171.9930
11500.000000	61.985	170.0380
11720.000000	60.334	167.2814
11800.000000	59.644	166.7025
12060.000000	57.120	167.0080
12200.000000	55.619	168.8425
12410.000000	53.249	174.0818
12500.000000	52.214	177.2535
12650.000000	50.509	-176.2465
12800.000000	48.869	-168.2424
13150.000000	45.522	-144.5526
13200.000000	45.123	-140.6983
13400.000000	43.786	-124.4677
13600.000000	42.904	-107.6256
13800.000000	42.493	-91.0354
14000.000000	42.444	-75.2747
14300.000000	42.780	-53.3565
14500.000000	43.302	-39.4217
14750.000000	44.364	-22.8416
15000.000000	45.908	-8.4969
15250.000000	47.929	2.1413
15500.000000	50.237	7.3989
15750.000000	52.307	5.7137
16000.000000	53.535	-2.1349
16250.000000	53.685	-11.2413
16500.000000	53.074	-16.5839
16750.000000	52.264	-17.2777
17000.000000	51.663	-15.2596
17250.000000	51.413	-12.7052
17500.000000	51.429	-11.3910
17750.000000	51.490	-12.3138
18000.000000	51.339	-15.5410
18250.000000	50.785	-20.5561
18500.000000	49.737	-29.9944
18750.000000	48.382	-65.2693
19000.000000	48.138	-167.8524
19250.000000	48.956	67.2221
19500.000000	48.903	7.0895
19750.000000	48.555	-9.5161
20000.000000	48.343	-17.5213
