* Measurement data measured by REW V5.20.13
* Source: EXCL: Mic in at rear panel (Pink)(Realtek(R) Audio), MICROPHONE (마스), L, volume: 1.000
* Format: 256k Log Swept Sine, 1 sweep at -12.0 dBFS with no timing reference
* Dated: 2022. 12. 29 오후 9:44:12
* REW Settings:
*  C-weighting compensation: Off
*  Target level: 75.0 dB
* Note: 
* Measurement: L
* Smoothing: 1/24 octave
* Frequency Step: 1/48 octave
* Start Frequency: 20.300 Hz
*
* Freq(Hz)	SPL(dB)	Phase(degrees)
20.299999	90.414	-161.6201
20.600000	90.420	-161.7630
20.900000	90.432	-161.9973
21.200001	90.446	-162.1801
21.400000	90.456	-162.3105
21.799999	90.474	-162.6605
22.000000	90.479	-162.8927
22.400000	90.475	-163.4276
22.700001	90.463	-163.8331
23.000000	90.451	-164.2149
23.299999	90.446	-164.5927
23.600000	90.450	-164.9995
24.000000	90.466	-165.6266
24.299999	90.480	-166.1554
24.700001	90.493	-166.8821
25.000000	90.501	-167.3945
25.400000	90.514	-168.0025
25.799999	90.539	-168.5504
26.200001	90.574	-169.0953
26.500000	90.601	-169.5181
26.900000	90.628	-170.0800
27.200001	90.641	-170.4690
27.600000	90.652	-170.9161
28.000000	90.664	-171.2963
28.500000	90.683	-171.7641
29.000000	90.695	-172.3023
29.500000	90.684	-172.8691
30.000000	90.651	-173.3356
30.400000	90.624	-173.5944
30.700001	90.612	-173.7464
31.100000	90.612	-173.9704
31.500000	90.624	-174.2898
32.000000	90.637	-174.8531
32.500000	90.636	-175.5051
33.000000	90.626	-176.1133
33.500000	90.624	-176.6459
34.000000	90.634	-177.1591
34.500000	90.647	-177.6911
35.000000	90.658	-178.2149
35.500000	90.668	-178.6938
36.000000	90.680	-179.1344
36.500000	90.690	-179.5577
37.000000	90.695	-179.9579
37.500000	90.697	179.6799
38.200001	90.699	179.1920
38.700001	90.695	178.8117
39.500000	90.665	178.2435
40.000000	90.648	177.9941
40.599998	90.650	177.7125
41.200001	90.670	177.2382
41.799999	90.673	176.5549
42.500000	90.635	175.7935
43.099998	90.596	175.3534
43.700001	90.578	175.0015
44.400002	90.570	174.5361
45.000000	90.558	174.1188
45.500000	90.545	173.8097
46.200001	90.530	173.4131
46.799999	90.518	173.0731
47.500000	90.503	172.7116
48.200001	90.501	172.3783
48.700001	90.508	172.0887
49.400002	90.512	171.5663
50.000000	90.498	171.0992
50.799999	90.469	170.6089
51.500000	90.456	170.2681
52.200001	90.453	169.8890
53.000000	90.444	169.3934
53.799999	90.423	168.9182
54.500000	90.399	168.5494
55.200001	90.377	168.2081
56.000000	90.358	167.8080
57.000000	90.335	167.2295
58.000000	90.296	166.6499
59.000000	90.260	166.1932
60.000000	90.243	165.7165
60.799999	90.224	165.2711
61.500000	90.201	164.9196
62.200001	90.180	164.6363
63.000000	90.166	164.3257
64.000000	90.155	163.8215
65.000000	90.126	163.2257
66.000000	90.084	162.7057
67.000000	90.047	162.2132
68.000000	90.004	161.6936
69.000000	89.958	161.2711
70.000000	89.925	160.8861
71.000000	89.891	160.4612
72.000000	89.850	160.0771
73.000000	89.811	159.7667
74.000000	89.780	159.4720
75.000000	89.755	159.1111
76.199997	89.715	158.6047
77.500000	89.662	158.0940
78.800003	89.621	157.6398
80.000000	89.586	157.1426
81.199997	89.537	156.6647
82.500000	89.484	156.2705
83.800003	89.444	155.8906
85.000000	89.403	155.4559
86.199997	89.352	155.0443
87.500000	89.300	154.6815
88.500000	89.270	154.4051
90.000000	89.220	153.8839
91.199997	89.160	153.5162
92.500000	89.105	153.2260
93.800003	89.057	152.8434
95.000000	89.002	152.5087
96.199997	88.956	152.2617
97.500000	88.925	151.9724
98.800003	88.897	151.5862
100.000000	88.854	151.1691
101.500000	88.779	150.7306
103.000000	88.704	150.3840
104.400002	88.641	150.0513
106.000000	88.571	149.7055
107.500000	88.517	149.4436
109.000000	88.467	149.1595
110.599998	88.403	148.8491
112.000000	88.348	148.5679
113.800003	88.282	148.1395
115.000000	88.238	147.8879
117.199997	88.169	147.7211
118.000000	88.154	147.7464
120.599998	88.115	147.4362
122.000000	88.035	147.0551
124.099998	87.899	146.6671
125.000000	87.855	146.5265
126.500000	87.802	146.3000
128.000000	87.764	146.0859
131.500000	87.670	145.6802
132.000000	87.656	145.6185
134.000000	87.599	145.3361
136.000000	87.545	145.0547
138.000000	87.497	144.8195
140.000000	87.440	144.5795
143.000000	87.337	144.1841
145.000000	87.274	143.8805
147.500000	87.202	143.5371
150.000000	87.130	143.2722
152.500000	87.060	143.0227
155.000000	86.991	142.7455
157.500000	86.910	142.5050
160.000000	86.831	142.3162
162.500000	86.764	142.0209
165.000000	86.699	141.6702
167.500000	86.631	141.3824
170.000000	86.559	141.1678
172.500000	86.490	140.9936
175.000000	86.425	140.8029
177.500000	86.354	140.5962
180.000000	86.281	140.3444
182.500000	86.208	140.0607
185.000000	86.139	139.8048
187.500000	86.071	139.5866
190.000000	86.000	139.3915
192.500000	85.931	139.2011
195.000000	85.860	139.0112
197.500000	85.789	138.8569
200.000000	85.719	138.7186
203.000000	85.631	138.5607
206.000000	85.542	138.3937
209.000000	85.461	138.1934
212.000000	85.387	137.9965
214.000000	85.335	137.8960
218.000000	85.224	137.7446
220.000000	85.167	137.6635
224.000000	85.055	137.4883
227.000000	84.975	137.3800
230.000000	84.898	137.3126
233.000000	84.819	137.2656
236.000000	84.735	137.2264
240.000000	84.620	137.1522
243.000000	84.527	137.0721
247.000000	84.419	137.0244
250.000000	84.362	137.0571
254.000000	84.279	137.1153
258.000000	84.182	137.0962
262.000000	84.090	137.0487
265.000000	84.024	137.0531
269.000000	83.937	137.0765
272.000000	83.870	137.0808
276.000000	83.785	137.0808
280.000000	83.710	137.0883
285.000000	83.616	137.1050
290.000000	83.519	137.1665
295.000000	83.429	137.1895
300.000000	83.333	137.2602
304.000000	83.254	137.3169
307.000000	83.201	137.3514
311.000000	83.131	137.4126
315.000000	83.060	137.4892
320.000000	82.981	137.5666
325.000000	82.907	137.6153
330.000000	82.827	137.6631
335.000000	82.738	137.7255
340.000000	82.647	137.7829
345.000000	82.559	137.8570
350.000000	82.468	137.9682
355.000000	82.381	138.1048
360.000000	82.295	138.2200
365.000000	82.211	138.3230
370.000000	82.124	138.4540
375.000000	82.031	138.6120
382.000000	81.906	138.8627
387.000000	81.826	139.0189
395.000000	81.699	139.3147
400.000000	81.615	139.5353
406.000000	81.516	139.8289
412.000000	81.426	140.0789
418.000000	81.331	140.2974
425.000000	81.220	140.6206
431.000000	81.139	140.8983
437.000000	81.061	141.1831
444.000000	80.970	141.5400
450.000000	80.896	141.8240
455.000000	80.836	142.0617
462.000000	80.752	142.3673
468.000000	80.684	142.6422
475.000000	80.607	143.0263
482.000000	80.527	143.4611
487.000000	80.472	143.7488
494.000000	80.391	144.1046
500.000000	80.327	144.4107
508.000000	80.252	144.8210
515.000000	80.179	145.1878
522.000000	80.109	145.5705
530.000000	80.030	146.0037
538.000000	79.950	146.4892
545.000000	79.884	146.9242
552.000000	79.819	147.3823
560.000000	79.746	147.9254
570.000000	79.658	148.5594
580.000000	79.578	149.1567
590.000000	79.505	149.7968
600.000000	79.428	150.4122
608.000000	79.367	150.9420
615.000000	79.317	151.4598
622.000000	79.265	151.9806
630.000000	79.207	152.5207
640.000000	79.146	153.1908
650.000000	79.087	153.9127
660.000000	79.023	154.6390
670.000000	78.962	155.3483
680.000000	78.912	156.0576
690.000000	78.874	156.7527
700.000000	78.833	157.4365
710.000000	78.789	158.1564
720.000000	78.740	158.9289
730.000000	78.695	159.6755
740.000000	78.666	160.4180
750.000000	78.645	161.1472
762.000000	78.613	162.0499
775.000000	78.570	162.9838
788.000000	78.536	164.0108
800.000000	78.520	165.0093
812.000000	78.512	165.9423
825.000000	78.504	166.9011
838.000000	78.498	167.8619
850.000000	78.501	168.7822
862.000000	78.513	169.6988
875.000000	78.529	170.6322
885.000000	78.541	171.3073
900.000000	78.556	172.3340
912.000000	78.575	173.2073
925.000000	78.608	174.1626
938.000000	78.645	175.1046
950.000000	78.686	175.9668
962.000000	78.737	176.7868
975.000000	78.802	177.5875
988.000000	78.882	178.2597
1000.000000	78.954	178.8796
1015.000000	79.021	179.7551
1030.000000	79.087	-179.4410
1044.000000	79.155	-178.7366
1060.000000	79.241	-177.9925
1075.000000	79.321	-177.3925
1090.000000	79.399	-176.8093
1106.000000	79.494	-176.1717
1120.000000	79.581	-175.6347
1138.000000	79.691	-175.0101
1150.000000	79.764	-174.6295
1172.000000	79.894	-173.9129
1180.000000	79.940	-173.6529
1206.000000	80.081	-172.8602
1220.000000	80.158	-172.4463
1241.000000	80.276	-171.8069
1250.000000	80.327	-171.5261
1265.000000	80.413	-171.0505
1280.000000	80.500	-170.5960
1315.000000	80.698	-169.5950
1320.000000	80.726	-169.4563
1340.000000	80.840	-168.8988
1360.000000	80.953	-168.3103
1380.000000	81.070	-167.7236
1400.000000	81.200	-167.1419
1430.000000	81.393	-166.2279
1450.000000	81.526	-165.6441
1475.000000	81.705	-164.9305
1500.000000	81.890	-164.2617
1525.000000	82.087	-163.5887
1550.000000	82.290	-162.9210
1575.000000	82.502	-162.3303
1600.000000	82.725	-161.7529
1625.000000	82.956	-161.2172
1650.000000	83.197	-160.7743
1675.000000	83.443	-160.4040
1700.000000	83.697	-160.1175
1725.000000	83.958	-159.9401
1750.000000	84.220	-159.8648
1775.000000	84.487	-159.8806
1800.000000	84.756	-160.0056
1825.000000	85.024	-160.2531
1850.000000	85.290	-160.6209
1875.000000	85.547	-161.0967
1900.000000	85.798	-161.6621
1925.000000	86.046	-162.3139
1950.000000	86.286	-163.0710
1975.000000	86.515	-163.9201
2000.000000	86.737	-164.8417
2030.000000	86.989	-166.0475
2060.000000	87.223	-167.3641
2090.000000	87.440	-168.7682
2120.000000	87.642	-170.2674
2140.000000	87.767	-171.3179
2180.000000	87.987	-173.5040
2200.000000	88.080	-174.6259
2240.000000	88.231	-176.9273
2270.000000	88.317	-178.6757
2300.000000	88.381	179.5812
2330.000000	88.422	177.8461
2360.000000	88.440	176.1402
2400.000000	88.429	173.9503
2430.000000	88.393	172.3830
2470.000000	88.319	170.4249
2500.000000	88.246	169.0834
2540.000000	88.128	167.4597
2580.000000	87.993	166.0386
2620.000000	87.847	164.8343
2650.000000	87.734	164.0832
2690.000000	87.588	163.2351
2720.000000	87.480	162.6797
2760.000000	87.336	162.0208
2800.000000	87.194	161.4581
2850.000000	87.013	160.8995
2900.000000	86.828	160.5138
2950.000000	86.650	160.3410
3000.000000	86.478	160.3369
3040.000000	86.344	160.4094
3070.000000	86.245	160.5280
3110.000000	86.119	160.7870
3150.000000	85.998	161.1485
3200.000000	85.855	161.7711
3250.000000	85.729	162.6042
3300.000000	85.624	163.6376
3350.000000	85.553	164.8412
3400.000000	85.533	166.1496
3450.000000	85.563	167.4337
3500.000000	85.641	168.6371
3550.000000	85.753	169.7362
3600.000000	85.887	170.7267
3650.000000	86.040	171.5806
3700.000000	86.208	172.3055
3750.000000	86.392	172.9095
3820.000000	86.679	173.5284
3870.000000	86.902	173.7801
3950.000000	87.282	173.7627
4000.000000	87.532	173.4348
4060.000000	87.839	172.6565
4120.000000	88.139	171.3879
4180.000000	88.408	169.5624
4250.000000	88.645	166.7069
4310.000000	88.742	163.7374
4370.000000	88.704	160.4896
4440.000000	88.467	156.7407
4500.000000	88.097	154.0288
4550.000000	87.687	152.4427
4620.000000	87.019	151.6691
4680.000000	86.451	152.5852
4750.000000	85.945	155.2826
4820.000000	85.746	158.7823
4870.000000	85.804	161.0051
4940.000000	86.060	162.9260
5000.000000	86.317	163.2829
5080.000000	86.589	162.3151
5150.000000	86.715	160.5576
5220.000000	86.705	158.2408
5300.000000	86.497	155.3888
5380.000000	86.082	153.0276
5450.000000	85.583	151.8197
5520.000000	85.004	151.7827
5600.000000	84.397	153.5127
5700.000000	84.006	155.9070
5800.000000	83.587	157.0289
5900.000000	83.052	159.1702
6000.000000	82.583	162.2808
6080.000000	82.272	165.1390
6150.000000	82.049	167.8116
6220.000000	81.876	170.6022
6300.000000	81.732	173.9160
6400.000000	81.624	178.1838
6500.000000	81.596	-177.4670
6600.000000	81.657	-173.0730
6700.000000	81.810	-168.6957
6800.000000	82.063	-164.3838
6900.000000	82.436	-160.1552
7000.000000	82.934	-156.0909
7100.000000	83.555	-152.3244
7200.000000	84.301	-148.9583
7300.000000	85.184	-146.1586
7400.000000	86.219	-144.1415
7500.000000	87.420	-143.2612
7620.000000	89.066	-144.4816
7750.000000	90.903	-150.0965
7880.000000	92.321	-161.4060
8000.000000	92.871	-175.7778
8120.000000	92.563	169.7075
8250.000000	91.507	157.6110
8380.000000	90.167	149.9612
8500.000000	88.988	145.4420
8620.000000	87.957	141.8039
8750.000000	86.926	137.6108
8850.000000	86.087	133.8304
9000.000000	84.543	127.7770
9120.000000	82.942	123.9442
9250.000000	80.846	122.4746
9380.000000	78.514	124.8399
9500.000000	76.340	130.6494
9620.000000	74.347	139.5598
9750.000000	72.601	151.7188
9880.000000	71.435	165.1042
10000.000000	70.892	177.3298
10150.000000	70.801	-168.8356
10300.000000	71.140	-157.2713
10440.000000	71.642	-148.7489
10600.000000	72.299	-141.5914
10750.000000	72.899	-137.1331
10900.000000	73.395	-134.4367
11060.000000	73.758	-133.2317
11200.000000	73.901	-133.2368
11380.000000	73.809	-133.8937
11500.000000	73.581	-134.4392
11720.000000	72.807	-134.9738
11800.000000	72.415	-134.7496
12060.000000	70.861	-131.1302
12200.000000	69.941	-127.0701
12410.000000	68.646	-118.5609
12500.000000	68.177	-114.2037
12650.000000	67.564	-106.2608
12800.000000	67.188	-97.9202
13150.000000	67.349	-80.2631
13200.000000	67.481	-78.2073
13400.000000	68.193	-71.8912
13600.000000	69.026	-69.6743
13800.000000	69.612	-72.5327
14000.000000	69.511	-79.3164
14300.000000	67.719	-88.3996
14500.000000	65.721	-89.1744
14750.000000	62.949	-83.6945
15000.000000	60.363	-73.3004
15250.000000	58.199	-60.4406
15500.000000	56.615	-50.0529
15750.000000	55.367	-63.9134
16000.000000	53.433	-138.8357
16250.000000	54.220	130.6157
16500.000000	58.110	97.8784
16750.000000	61.602	91.4051
17000.000000	63.697	80.9550
17250.000000	63.986	68.1512
17500.000000	62.976	62.6333
17750.000000	61.715	65.6966
18000.000000	60.936	72.4962
18250.000000	60.591	78.1120
18500.000000	59.906	81.9865
18750.000000	58.420	92.7739
19000.000000	57.584	110.8904
19250.000000	57.973	127.0781
19500.000000	58.815	139.7733
19750.000000	59.827	149.3472
20000.000000	60.554	154.5950
