* Measurement data measured by REW V5.20.7
* Source: Mic in at rear panel (Pink)(Realtek(R) Audio), MICROPHONE (마스), L, volume: 1.000
* Format: 128k Log Swept Sine, 1 sweep at -12.0 dBFS with no timing reference
* Dated: 2022. 5. 13 오후 8:44:13
* REW Settings:
*  C-weighting compensation: Off
*  Target level: 75.0 dB
* Note: 
* Measurement: L_Foam
* Smoothing: 1/24 octave
* Frequency Step: 1/48 octave
* Start Frequency: 20.300 Hz
*
* Freq(Hz)	SPL(dB)	Phase(degrees)
20.299999	88.414	-141.5308
20.600000	88.439	-141.9189
20.900000	88.487	-142.6078
21.200001	88.527	-143.2518
21.400000	88.550	-143.6608
21.799999	88.590	-144.4836
22.000000	88.608	-144.9172
22.400000	88.644	-145.8417
22.700001	88.671	-146.5894
23.000000	88.699	-147.3798
23.299999	88.721	-148.1917
23.600000	88.735	-149.0023
24.000000	88.747	-150.0491
24.299999	88.756	-150.7932
24.700001	88.770	-151.7270
25.000000	88.783	-152.3876
25.400000	88.806	-153.2239
25.799999	88.841	-154.0235
26.200001	88.886	-154.8105
26.500000	88.923	-155.4091
26.900000	88.968	-156.2282
27.200001	88.995	-156.8501
27.600000	89.019	-157.6607
28.000000	89.030	-158.4120
28.500000	89.035	-159.2526
29.000000	89.040	-160.0427
29.500000	89.048	-160.8532
30.000000	89.042	-161.6804
30.400000	89.028	-162.3080
30.700001	89.019	-162.7423
31.100000	89.017	-163.2872
31.500000	89.025	-163.8352
32.000000	89.043	-164.5886
32.500000	89.061	-165.4210
33.000000	89.071	-166.2600
33.500000	89.076	-167.0479
34.000000	89.083	-167.7974
34.500000	89.093	-168.5494
35.000000	89.100	-169.2953
35.500000	89.103	-169.9817
36.000000	89.109	-170.5941
36.500000	89.120	-171.1888
37.000000	89.128	-171.8223
37.500000	89.122	-172.4706
38.200001	89.105	-173.3050
38.700001	89.102	-173.9027
39.500000	89.072	-175.0895
40.000000	89.001	-175.8228
40.599998	88.882	-176.3385
41.200001	88.800	-176.4351
41.799999	88.798	-176.5783
42.500000	88.845	-177.3123
43.099998	88.859	-178.2652
43.700001	88.849	-179.1499
44.400002	88.841	-179.9861
45.000000	88.846	179.3546
45.500000	88.850	178.8099
46.200001	88.849	178.0792
46.799999	88.843	177.4816
47.500000	88.828	176.8115
48.200001	88.801	176.2160
48.700001	88.777	175.8575
49.400002	88.736	175.4303
50.000000	88.703	175.0767
50.799999	88.664	174.5036
51.500000	88.621	173.8766
52.200001	88.568	173.2370
53.000000	88.518	172.5810
53.799999	88.484	171.9373
54.500000	88.453	171.3857
55.200001	88.423	170.9041
56.000000	88.397	170.3772
57.000000	88.353	169.6834
58.000000	88.288	169.1046
59.000000	88.224	168.5074
60.000000	88.150	167.8584
60.799999	88.097	167.3885
61.500000	88.060	166.9664
62.200001	88.025	166.5370
63.000000	87.992	166.0578
64.000000	87.959	165.3711
65.000000	87.915	164.6562
66.000000	87.870	164.0553
67.000000	87.823	163.4598
68.000000	87.762	162.9309
69.000000	87.695	162.4499
70.000000	87.611	161.9849
71.000000	87.534	161.6585
72.000000	87.487	161.2986
73.000000	87.438	160.7569
74.000000	87.365	160.2413
75.000000	87.292	159.9336
76.199997	87.241	159.7056
77.500000	87.206	159.2887
78.800003	87.141	158.7717
80.000000	87.066	158.3267
81.199997	86.967	157.8495
82.500000	86.852	157.5064
83.800003	86.783	157.1772
85.000000	86.732	156.7624
86.199997	86.675	156.3825
87.500000	86.610	155.9802
88.500000	86.552	155.6770
90.000000	86.448	155.2574
91.199997	86.356	155.0051
92.500000	86.272	154.7783
93.800003	86.201	154.4955
95.000000	86.134	154.2348
96.199997	86.062	154.0685
97.500000	85.991	153.9758
98.800003	85.919	153.8391
100.000000	85.841	153.6763
101.500000	85.739	153.4767
103.000000	85.647	153.2953
104.400002	85.578	153.1297
106.000000	85.506	152.9330
107.500000	85.436	152.7593
109.000000	85.362	152.5663
110.599998	85.282	152.3065
112.000000	85.201	152.0641
113.800003	85.091	152.0027
115.000000	85.035	152.1071
117.199997	84.945	152.2649
118.000000	84.908	152.2766
120.599998	84.758	152.0872
122.000000	84.668	151.9922
124.099998	84.566	151.9977
125.000000	84.533	152.0219
126.500000	84.479	152.0865
128.000000	84.423	152.1383
131.500000	84.264	151.9216
132.000000	84.240	151.8760
134.000000	84.154	151.8421
136.000000	84.102	152.0136
138.000000	84.046	152.2715
140.000000	83.974	152.4901
143.000000	83.863	152.5458
145.000000	83.809	152.5524
147.500000	83.751	152.7137
150.000000	83.682	152.8934
152.500000	83.598	152.9891
155.000000	83.542	153.1402
157.500000	83.502	153.3068
160.000000	83.435	153.5027
162.500000	83.363	153.7585
165.000000	83.318	154.0265
167.500000	83.287	154.2494
170.000000	83.242	154.4078
172.500000	83.187	154.5858
175.000000	83.151	154.8353
177.500000	83.109	155.1118
180.000000	83.043	155.3916
182.500000	82.958	155.5926
185.000000	82.874	155.7550
187.500000	82.803	155.9208
190.000000	82.746	156.1226
192.500000	82.707	156.3471
195.000000	82.688	156.5873
197.500000	82.678	156.8016
200.000000	82.663	156.9734
203.000000	82.642	157.1405
206.000000	82.625	157.3203
209.000000	82.605	157.5080
212.000000	82.572	157.6838
214.000000	82.553	157.8466
218.000000	82.542	158.1889
220.000000	82.535	158.3245
224.000000	82.508	158.5326
227.000000	82.488	158.6934
230.000000	82.469	158.9148
233.000000	82.446	159.1428
236.000000	82.427	159.2920
240.000000	82.412	159.4309
243.000000	82.405	159.5979
247.000000	82.406	159.7847
250.000000	82.407	159.9168
254.000000	82.396	160.1707
258.000000	82.370	160.3439
262.000000	82.356	160.4188
265.000000	82.358	160.4987
269.000000	82.372	160.6938
272.000000	82.379	160.8498
276.000000	82.374	161.0301
280.000000	82.362	161.1351
285.000000	82.353	161.2013
290.000000	82.348	161.2704
295.000000	82.346	161.4346
300.000000	82.343	161.6040
304.000000	82.340	161.6433
307.000000	82.339	161.6817
311.000000	82.335	161.7612
315.000000	82.334	161.8160
320.000000	82.343	161.8794
325.000000	82.348	161.9547
330.000000	82.341	162.0126
335.000000	82.330	162.0284
340.000000	82.322	162.0694
345.000000	82.316	162.1742
350.000000	82.314	162.2353
355.000000	82.309	162.2713
360.000000	82.300	162.3073
365.000000	82.287	162.3328
370.000000	82.271	162.4055
375.000000	82.263	162.4931
382.000000	82.251	162.5985
387.000000	82.240	162.6279
395.000000	82.232	162.6118
400.000000	82.226	162.6086
406.000000	82.215	162.6379
412.000000	82.199	162.6753
418.000000	82.185	162.7109
425.000000	82.177	162.7421
431.000000	82.165	162.7636
437.000000	82.158	162.8112
444.000000	82.146	162.8504
450.000000	82.130	162.8545
455.000000	82.122	162.8681
462.000000	82.118	162.8890
468.000000	82.115	162.9082
475.000000	82.110	162.9263
482.000000	82.099	162.9583
487.000000	82.088	163.0005
494.000000	82.074	163.0591
500.000000	82.067	163.0869
508.000000	82.060	163.1453
515.000000	82.047	163.2229
522.000000	82.032	163.2728
530.000000	82.021	163.3144
538.000000	82.020	163.3377
545.000000	82.016	163.4089
552.000000	82.002	163.5056
560.000000	81.981	163.5758
570.000000	81.967	163.6620
580.000000	81.959	163.7809
590.000000	81.947	163.8926
600.000000	81.922	164.0255
608.000000	81.905	164.1563
615.000000	81.891	164.2678
622.000000	81.878	164.3649
630.000000	81.869	164.4441
640.000000	81.855	164.5787
650.000000	81.841	164.7598
660.000000	81.831	164.9215
670.000000	81.818	165.0654
680.000000	81.802	165.2690
690.000000	81.788	165.4998
700.000000	81.773	165.7463
710.000000	81.757	166.0321
720.000000	81.750	166.2831
730.000000	81.746	166.4857
740.000000	81.744	166.6627
750.000000	81.742	166.8812
762.000000	81.737	167.1936
775.000000	81.735	167.5310
788.000000	81.746	167.8370
800.000000	81.753	168.1739
812.000000	81.758	168.5107
825.000000	81.760	168.8630
838.000000	81.771	169.1943
850.000000	81.794	169.4993
862.000000	81.815	169.7903
875.000000	81.831	170.1099
885.000000	81.841	170.3718
900.000000	81.863	170.7810
912.000000	81.898	171.0884
925.000000	81.947	171.3870
938.000000	81.995	171.6607
950.000000	82.036	171.8817
962.000000	82.074	172.1011
975.000000	82.120	172.3118
988.000000	82.185	172.4956
1000.000000	82.247	172.6683
1015.000000	82.293	172.8485
1030.000000	82.346	172.9861
1044.000000	82.406	173.0847
1060.000000	82.473	173.1678
1075.000000	82.531	173.2347
1090.000000	82.587	173.2641
1106.000000	82.656	173.2805
1120.000000	82.718	173.3035
1138.000000	82.792	173.3262
1150.000000	82.843	173.3179
1172.000000	82.917	173.2623
1180.000000	82.939	173.2331
1206.000000	83.001	173.1219
1220.000000	83.020	173.1002
1241.000000	83.032	173.0479
1250.000000	83.038	173.0132
1265.000000	83.063	172.9763
1280.000000	83.115	172.9478
1315.000000	83.320	172.8281
1320.000000	83.353	172.8128
1340.000000	83.473	172.7695
1360.000000	83.573	172.7605
1380.000000	83.641	172.7841
1400.000000	83.675	172.8068
1430.000000	83.711	172.9033
1450.000000	83.738	172.9834
1475.000000	83.779	173.0505
1500.000000	83.825	173.1826
1525.000000	83.873	173.3301
1550.000000	83.921	173.4872
1575.000000	83.974	173.6668
1600.000000	84.038	173.8669
1625.000000	84.103	174.0936
1650.000000	84.172	174.3214
1675.000000	84.238	174.5595
1700.000000	84.307	174.8187
1725.000000	84.390	175.0939
1750.000000	84.478	175.3690
1775.000000	84.564	175.6403
1800.000000	84.655	175.9203
1825.000000	84.749	176.2055
1850.000000	84.846	176.4929
1875.000000	84.949	176.7669
1900.000000	85.058	177.0369
1925.000000	85.171	177.3028
1950.000000	85.289	177.5580
1975.000000	85.409	177.7801
2000.000000	85.531	177.9755
2030.000000	85.679	178.2056
2060.000000	85.833	178.4360
2090.000000	85.992	178.6375
2120.000000	86.157	178.8098
2140.000000	86.267	178.9152
2180.000000	86.493	179.0707
2200.000000	86.612	179.1143
2240.000000	86.858	179.1462
2270.000000	87.043	179.1102
2300.000000	87.226	179.0325
2330.000000	87.411	178.9221
2360.000000	87.602	178.7619
2400.000000	87.864	178.4353
2430.000000	88.064	178.1175
2470.000000	88.336	177.6156
2500.000000	88.537	177.1606
2540.000000	88.799	176.4112
2580.000000	89.053	175.5163
2620.000000	89.295	174.5117
2650.000000	89.471	173.6719
2690.000000	89.699	172.4272
2720.000000	89.861	171.4037
2760.000000	90.064	169.9318
2800.000000	90.248	168.3419
2850.000000	90.449	166.2148
2900.000000	90.609	163.9650
2950.000000	90.719	161.6410
3000.000000	90.781	159.3071
3040.000000	90.803	157.4517
3070.000000	90.801	156.0750
3110.000000	90.777	154.2777
3150.000000	90.729	152.5615
3200.000000	90.644	150.5791
3250.000000	90.535	148.7985
3300.000000	90.402	147.2062
3350.000000	90.252	145.8011
3400.000000	90.094	144.5807
3450.000000	89.933	143.5262
3500.000000	89.771	142.6319
3550.000000	89.613	141.8906
3600.000000	89.458	141.2921
3650.000000	89.304	140.8557
3700.000000	89.152	140.5471
3750.000000	89.008	140.3385
3820.000000	88.823	140.2039
3870.000000	88.703	140.2147
3950.000000	88.553	140.3703
4000.000000	88.485	140.5195
4060.000000	88.419	140.7307
4120.000000	88.361	140.9838
4180.000000	88.305	141.2534
4250.000000	88.243	141.5544
4310.000000	88.203	141.7825
4370.000000	88.186	141.9389
4440.000000	88.206	142.0276
4500.000000	88.255	142.0204
4550.000000	88.313	141.9410
4620.000000	88.411	141.6769
4680.000000	88.507	141.2748
4750.000000	88.617	140.5965
4820.000000	88.715	139.7138
4870.000000	88.775	138.9590
4940.000000	88.840	137.7024
5000.000000	88.872	136.4566
5080.000000	88.871	134.6270
5150.000000	88.827	132.9272
5220.000000	88.737	131.2050
5300.000000	88.575	129.2618
5380.000000	88.353	127.4268
5450.000000	88.117	126.0173
5520.000000	87.852	124.8797
5600.000000	87.524	123.9483
5700.000000	87.095	123.3240
5800.000000	86.671	123.2373
5900.000000	86.275	123.6290
6000.000000	85.941	124.4454
6080.000000	85.734	125.3175
6150.000000	85.594	126.1402
6220.000000	85.488	126.9681
6300.000000	85.399	127.8793
6400.000000	85.333	128.8617
6500.000000	85.302	129.5911
6600.000000	85.276	130.0495
6700.000000	85.235	130.2376
6800.000000	85.172	130.2657
6900.000000	85.077	130.3073
7000.000000	84.956	130.4608
7100.000000	84.813	130.7905
7200.000000	84.663	131.3127
7300.000000	84.530	131.9826
7400.000000	84.420	132.7670
7500.000000	84.316	133.6888
7620.000000	84.193	134.9331
7750.000000	84.048	136.3752
7880.000000	83.873	137.8107
8000.000000	83.676	138.9878
8120.000000	83.451	139.9409
8250.000000	83.196	140.7682
8380.000000	82.941	141.4257
8500.000000	82.706	141.9277
8620.000000	82.447	142.3784
8750.000000	82.114	142.9109
8850.000000	81.836	143.4131
9000.000000	81.416	144.3866
9120.000000	81.064	145.4613
9250.000000	80.675	146.9316
9380.000000	80.296	148.5850
9500.000000	79.933	150.2782
9620.000000	79.571	152.2747
9750.000000	79.213	154.7357
9880.000000	78.895	157.3510
10000.000000	78.636	159.7690
10150.000000	78.358	162.7344
10300.000000	78.131	165.6666
10440.000000	77.967	168.3912
10600.000000	77.818	171.3317
10750.000000	77.690	173.7848
10900.000000	77.568	175.8929
11060.000000	77.418	177.9081
11200.000000	77.245	179.6677
11380.000000	76.977	-177.6349
11500.000000	76.797	-175.4707
11720.000000	76.537	-171.0111
11800.000000	76.470	-169.2877
12060.000000	76.359	-163.6381
12200.000000	76.366	-160.7567
12410.000000	76.425	-156.6898
12500.000000	76.456	-155.0070
12650.000000	76.515	-152.2281
12800.000000	76.596	-149.4557
13150.000000	76.871	-142.9222
13200.000000	76.910	-141.9831
13400.000000	77.054	-138.2127
13600.000000	77.213	-134.4457
13800.000000	77.487	-130.8739
14000.000000	77.950	-127.9366
14300.000000	78.966	-126.2632
14500.000000	79.657	-128.2612
14750.000000	80.096	-134.4577
15000.000000	79.750	-142.0314
15250.000000	78.726	-147.2340
15500.000000	77.390	-148.9834
15750.000000	76.052	-148.1902
16000.000000	74.915	-145.4566
16250.000000	74.135	-141.3346
16500.000000	73.710	-137.1630
16750.000000	73.489	-133.7956
17000.000000	73.343	-131.0375
17250.000000	73.283	-128.6589
17500.000000	73.308	-126.7222
17750.000000	73.361	-125.4542
18000.000000	73.378	-125.0918
18250.000000	73.267	-125.6091
18500.000000	72.922	-126.2956
18750.000000	72.409	-125.4881
19000.000000	72.130	-123.5481
19250.000000	72.059	-124.3215
19500.000000	71.517	-127.7442
19750.000000	70.332	-130.4935
20000.000000	69.274	-131.5990
