* Measurement data measured by REW V5.20.7
* Source: Input device not selected, no input selected, L, volume: no control
* Format: 128k Log Swept Sine, 1 sweep at -12.0 dBFS with no timing reference
* Dated: 2022. 5. 1 ¿ÀÈÄ 6:53:25
* REW Settings:
*  C-weighting compensation: Off
*  Target level: 75.0 dB
* Note: 
* Measurement: R
* Smoothing: 1/24 octave
* Frequency Step: 1/48 octave
* Start Frequency: 20.300 Hz
*
* Freq(Hz)	SPL(dB)	Phase(degrees)
20.299999	83.050	-153.4677
20.600000	83.044	-153.6396
20.900000	83.041	-153.9520
21.200001	83.056	-154.2849
21.400000	83.071	-154.5592
21.799999	83.094	-155.2465
22.000000	83.094	-155.6323
22.400000	83.073	-156.3527
22.700001	83.053	-156.7658
23.000000	83.048	-157.0730
23.299999	83.069	-157.3708
23.600000	83.113	-157.7656
24.000000	83.189	-158.5660
24.299999	83.235	-159.3702
24.700001	83.257	-160.5671
25.000000	83.244	-161.4004
25.400000	83.203	-162.2605
25.799999	83.171	-162.8087
26.200001	83.176	-163.2032
26.500000	83.203	-163.5395
26.900000	83.251	-164.1625
27.200001	83.278	-164.7675
27.600000	83.286	-165.6672
28.000000	83.259	-166.5102
28.500000	83.203	-167.3220
29.000000	83.164	-167.9482
29.500000	83.148	-168.6488
30.000000	83.124	-169.5501
30.400000	83.077	-170.2874
30.700001	83.027	-170.7382
31.100000	82.963	-171.1190
31.500000	82.929	-171.2951
32.000000	82.946	-171.4688
32.500000	83.008	-171.8376
33.000000	83.075	-172.4269
33.500000	83.131	-173.1244
34.000000	83.164	-173.8559
34.500000	83.163	-174.5270
35.000000	83.127	-174.9391
35.500000	83.095	-174.9810
36.000000	83.106	-174.9100
36.500000	83.139	-175.1309
37.000000	83.123	-175.6641
37.500000	83.033	-176.0575
38.200001	82.911	-175.8895
38.700001	82.914	-175.7660
39.500000	82.970	-176.6456
40.000000	82.979	-177.5891
40.599998	83.007	-178.9906
41.200001	83.023	178.8116
41.799999	82.880	176.1867
42.500000	82.504	174.6311
43.099998	82.294	175.2003
43.700001	82.349	175.8937
44.400002	82.507	175.5189
45.000000	82.555	174.9600
45.500000	82.588	174.8564
46.200001	82.692	174.7448
46.799999	82.765	174.2137
47.500000	82.751	173.5937
48.200001	82.709	173.4800
48.700001	82.720	173.4633
49.400002	82.767	172.9181
50.000000	82.750	171.9032
50.799999	82.573	170.7375
51.500000	82.392	170.7199
52.200001	82.344	171.0742
53.000000	82.376	170.7094
53.799999	82.312	169.9327
54.500000	82.205	169.7429
55.200001	82.136	169.8859
56.000000	82.100	169.9717
57.000000	82.058	169.8211
58.000000	82.002	169.5487
59.000000	81.976	169.1582
60.000000	81.943	168.2413
60.799999	81.869	167.7134
61.500000	81.869	167.5776
62.200001	81.950	167.0020
63.000000	81.978	165.4927
64.000000	81.794	164.0889
65.000000	81.625	164.1481
66.000000	81.580	164.3247
67.000000	81.553	164.1571
68.000000	81.509	163.7008
69.000000	81.426	163.0759
70.000000	81.348	162.4670
71.000000	81.293	161.4992
72.000000	81.198	160.6496
73.000000	81.202	160.3050
74.000000	81.267	159.3970
75.000000	81.199	158.9767
76.199997	81.286	160.2830
77.500000	81.598	159.7932
78.800003	81.395	157.8887
80.000000	81.005	158.2701
81.199997	80.689	158.4126
82.500000	80.346	159.8555
83.800003	80.498	160.1603
85.000000	80.529	158.0414
86.199997	80.440	156.8790
87.500000	80.441	156.3876
88.500000	80.461	156.0555
90.000000	80.465	155.7171
91.199997	80.462	155.2941
92.500000	80.394	154.7696
93.800003	80.334	154.6046
95.000000	80.318	154.3934
96.199997	80.279	154.1365
97.500000	80.246	154.3149
98.800003	80.298	154.2586
100.000000	80.291	153.5685
101.500000	80.136	152.9435
103.000000	79.968	152.9924
104.400002	79.918	152.5240
106.000000	79.791	150.3790
107.500000	79.550	148.6167
109.000000	79.393	147.9405
110.599998	79.366	148.3715
112.000000	79.402	149.3261
113.800003	79.420	150.6275
115.000000	79.401	150.7331
117.199997	79.250	148.2396
118.000000	79.139	146.5339
120.599998	78.426	143.7402
122.000000	78.288	145.9690
124.099998	78.582	148.7043
125.000000	78.619	149.1154
126.500000	78.436	150.2288
128.000000	78.180	152.8864
131.500000	78.897	158.0941
132.000000	79.018	157.2478
134.000000	79.127	153.1234
136.000000	79.058	150.4891
138.000000	78.754	150.2341
140.000000	78.490	150.4387
143.000000	78.229	149.5677
145.000000	78.390	147.9074
147.500000	78.190	149.6921
150.000000	78.406	153.3056
152.500000	78.277	153.1343
155.000000	77.773	148.7525
157.500000	77.385	144.5110
160.000000	77.186	147.7710
162.500000	77.226	152.8582
165.000000	76.865	151.5043
167.500000	76.682	148.0750
170.000000	77.505	145.9216
172.500000	77.957	146.6700
175.000000	77.697	149.5904
177.500000	77.279	150.3061
180.000000	77.221	148.9714
182.500000	77.391	147.2411
185.000000	77.264	146.6740
187.500000	77.015	147.6969
190.000000	76.945	148.7366
192.500000	76.925	149.4501
195.000000	76.922	150.2703
197.500000	77.009	150.5008
200.000000	77.020	150.2236
203.000000	76.882	150.0096
206.000000	76.620	149.3722
209.000000	76.381	149.4625
212.000000	76.270	150.2766
214.000000	76.337	150.5784
218.000000	76.547	148.8648
220.000000	76.481	147.8257
224.000000	76.300	145.9822
227.000000	76.477	144.2365
230.000000	76.439	144.7586
233.000000	76.160	147.7704
236.000000	75.954	149.0109
240.000000	75.946	149.1064
243.000000	75.954	149.5439
247.000000	75.804	149.2402
250.000000	75.759	148.2468
254.000000	75.808	148.9290
258.000000	75.781	150.5073
262.000000	75.624	150.8694
265.000000	75.566	150.9770
269.000000	75.534	151.5101
272.000000	75.537	151.8655
276.000000	75.491	151.5082
280.000000	75.363	150.6710
285.000000	75.283	150.4142
290.000000	75.215	151.0510
295.000000	75.163	151.4128
300.000000	75.129	151.8760
304.000000	75.091	152.5250
307.000000	75.065	152.6868
311.000000	74.968	152.6257
315.000000	74.831	152.7233
320.000000	74.725	152.9350
325.000000	74.623	153.4182
330.000000	74.515	154.0051
335.000000	74.484	154.6845
340.000000	74.484	155.3264
345.000000	74.471	155.6421
350.000000	74.508	155.8381
355.000000	74.541	156.1562
360.000000	74.559	156.6134
365.000000	74.549	157.1043
370.000000	74.461	157.2618
375.000000	74.389	157.1419
382.000000	74.339	156.9759
387.000000	74.310	157.0797
395.000000	74.220	157.3777
400.000000	74.201	157.3214
406.000000	74.190	157.0718
412.000000	74.178	157.3486
418.000000	74.125	158.1717
425.000000	73.999	158.5773
431.000000	73.953	158.7858
437.000000	73.972	159.1572
444.000000	73.939	159.3805
450.000000	73.891	159.6082
455.000000	73.857	159.8887
462.000000	73.827	160.4116
468.000000	73.839	160.9236
475.000000	73.824	161.5109
482.000000	73.751	161.8093
487.000000	73.701	161.8369
494.000000	73.691	162.0799
500.000000	73.722	162.3683
508.000000	73.716	163.1005
515.000000	73.669	163.7551
522.000000	73.607	163.8513
530.000000	73.568	163.6735
538.000000	73.591	164.0253
545.000000	73.591	164.3264
552.000000	73.576	164.8185
560.000000	73.566	165.4879
570.000000	73.534	166.5295
580.000000	73.532	167.1402
590.000000	73.553	167.5430
600.000000	73.525	168.0069
608.000000	73.468	168.4232
615.000000	73.437	168.8237
622.000000	73.437	169.3002
630.000000	73.447	169.6614
640.000000	73.463	170.0178
650.000000	73.462	170.6263
660.000000	73.426	170.8592
670.000000	73.433	171.2668
680.000000	73.448	172.0536
690.000000	73.417	173.0277
700.000000	73.464	173.5668
710.000000	73.558	173.8679
720.000000	73.593	174.1758
730.000000	73.538	174.6702
740.000000	73.506	175.0981
750.000000	73.549	175.7862
762.000000	73.669	176.5689
775.000000	73.747	177.4194
788.000000	73.741	178.2684
800.000000	73.767	178.7802
812.000000	73.817	179.2907
825.000000	73.883	179.8618
838.000000	73.960	-179.5107
850.000000	74.062	-179.0025
862.000000	74.105	-178.3348
875.000000	74.084	-177.6135
885.000000	74.095	-177.1187
900.000000	74.198	-176.4935
912.000000	74.285	-176.1483
925.000000	74.372	-175.5267
938.000000	74.493	-174.9215
950.000000	74.570	-174.4838
962.000000	74.642	-174.1177
975.000000	74.771	-173.9735
988.000000	74.951	-174.0820
1000.000000	75.085	-174.2521
1015.000000	75.109	-173.3915
1030.000000	75.180	-172.4491
1044.000000	75.299	-171.8617
1060.000000	75.453	-171.3526
1075.000000	75.582	-171.0401
1090.000000	75.683	-170.8107
1106.000000	75.790	-170.5815
1120.000000	75.905	-170.2339
1138.000000	76.060	-169.8406
1150.000000	76.146	-169.6835
1172.000000	76.305	-169.3935
1180.000000	76.358	-169.2891
1206.000000	76.566	-169.1049
1220.000000	76.718	-169.1577
1241.000000	76.895	-169.0459
1250.000000	76.953	-168.9285
1265.000000	77.038	-168.8075
1280.000000	77.127	-168.6578
1315.000000	77.415	-168.4024
1320.000000	77.463	-168.4438
1340.000000	77.658	-168.5722
1360.000000	77.824	-168.5335
1380.000000	77.987	-168.5890
1400.000000	78.147	-168.7527
1430.000000	78.351	-169.0170
1450.000000	78.526	-169.1666
1475.000000	78.727	-169.5656
1500.000000	78.881	-170.0266
1525.000000	79.028	-170.2551
1550.000000	79.193	-170.5195
1575.000000	79.341	-170.8878
1600.000000	79.464	-171.3390
1625.000000	79.601	-171.6401
1650.000000	79.735	-171.8616
1675.000000	79.853	-171.9730
1700.000000	79.984	-171.9597
1725.000000	80.146	-172.0491
1750.000000	80.339	-172.1190
1775.000000	80.526	-172.1496
1800.000000	80.707	-172.2370
1825.000000	80.893	-172.5448
1850.000000	81.098	-172.9609
1875.000000	81.312	-173.3904
1900.000000	81.522	-173.8734
1925.000000	81.736	-174.4471
1950.000000	81.956	-175.1310
1975.000000	82.172	-175.9769
2000.000000	82.382	-176.9613
2030.000000	82.629	-178.2139
2060.000000	82.853	-179.5408
2090.000000	83.046	178.9329
2120.000000	83.237	177.2927
2140.000000	83.360	176.2066
2180.000000	83.570	173.9178
2200.000000	83.658	172.6853
2240.000000	83.798	170.0682
2270.000000	83.863	168.0207
2300.000000	83.897	165.9139
2330.000000	83.902	163.8410
2360.000000	83.874	161.7651
2400.000000	83.767	159.0829
2430.000000	83.634	157.2478
2470.000000	83.383	155.2205
2500.000000	83.157	154.1992
2540.000000	82.850	153.6832
2580.000000	82.613	154.1630
2620.000000	82.497	155.2128
2650.000000	82.508	155.8481
2690.000000	82.624	156.0789
2720.000000	82.732	155.7780
2760.000000	82.860	154.9073
2800.000000	82.944	153.7528
2850.000000	82.960	152.1778
2900.000000	82.908	150.6349
2950.000000	82.834	149.2687
3000.000000	82.744	148.1248
3040.000000	82.651	147.2971
3070.000000	82.574	146.7830
3110.000000	82.468	146.1797
3150.000000	82.361	145.5647
3200.000000	82.238	144.9052
3250.000000	82.140	144.4624
3300.000000	82.040	144.0109
3350.000000	81.934	143.6394
3400.000000	81.828	143.2205
3450.000000	81.734	142.6943
3500.000000	81.633	142.1218
3550.000000	81.492	141.3549
3600.000000	81.300	140.4822
3650.000000	81.047	139.8193
3700.000000	80.740	139.6759
3750.000000	80.421	140.2707
3820.000000	80.023	142.1680
3870.000000	79.847	143.6850
3950.000000	79.768	145.6857
4000.000000	79.788	146.5716
4060.000000	79.769	147.2654
4120.000000	79.671	147.7891
4180.000000	79.521	149.0190
4250.000000	79.437	151.4050
4310.000000	79.494	153.2787
4370.000000	79.604	154.7294
4440.000000	79.764	155.8502
4500.000000	79.909	156.3674
4550.000000	80.007	156.6218
4620.000000	80.074	156.6778
4680.000000	80.047	156.9072
4750.000000	79.953	158.2375
4820.000000	79.979	160.5480
4870.000000	80.124	162.1705
4940.000000	80.445	163.7057
5000.000000	80.768	164.3235
5080.000000	81.163	164.5201
5150.000000	81.483	164.4109
5220.000000	81.782	164.0495
5300.000000	82.104	163.3356
5380.000000	82.425	162.2563
5450.000000	82.683	161.0026
5520.000000	82.891	159.5085
5600.000000	83.070	157.6074
5700.000000	83.235	155.0077
5800.000000	83.296	152.2140
5900.000000	83.235	149.3058
6000.000000	83.052	146.6124
6080.000000	82.788	145.0240
6150.000000	82.478	144.3368
6220.000000	82.148	144.6008
6300.000000	81.845	146.0705
6400.000000	81.669	148.6842
6500.000000	81.726	151.0161
6600.000000	81.911	152.6485
6700.000000	82.120	153.7929
6800.000000	82.323	154.7221
6900.000000	82.538	155.5291
7000.000000	82.782	156.0960
7100.000000	83.015	156.3781
7200.000000	83.211	156.5411
7300.000000	83.407	157.0150
7400.000000	83.702	157.8655
7500.000000	84.170	158.3176
7620.000000	84.821	157.1539
7750.000000	85.354	153.8567
7880.000000	85.622	149.7463
8000.000000	85.746	145.9250
8120.000000	85.748	141.8666
8250.000000	85.528	137.8930
8380.000000	85.349	134.9500
8500.000000	85.282	130.8403
8620.000000	84.897	125.2035
8750.000000	84.003	120.4135
8850.000000	83.136	118.6339
9000.000000	81.819	118.5298
9120.000000	80.854	119.6667
9250.000000	79.851	121.9458
9380.000000	78.897	125.8944
9500.000000	78.193	131.0569
9620.000000	77.800	136.8121
9750.000000	77.718	142.3651
9880.000000	77.817	146.7036
10000.000000	77.956	149.8052
10150.000000	78.161	152.7372
10300.000000	78.368	154.7681
10440.000000	78.586	155.9597
10600.000000	78.855	156.3036
10750.000000	79.065	155.3300
10900.000000	79.148	153.1751
11060.000000	79.013	150.1560
11200.000000	78.661	147.5454
11380.000000	77.955	144.8082
11500.000000	77.352	143.4608
11720.000000	75.833	143.3988
11800.000000	75.170	144.8628
12060.000000	73.284	155.6259
12200.000000	72.801	163.1209
12410.000000	72.665	173.2813
12500.000000	72.658	176.9442
12650.000000	72.593	-177.6508
12800.000000	72.482	-172.4037
13150.000000	72.588	-157.0568
13200.000000	72.681	-154.7256
13400.000000	73.219	-146.2453
13600.000000	73.887	-139.2710
13800.000000	74.546	-133.0615
14000.000000	75.227	-126.7782
14300.000000	76.862	-117.0512
14500.000000	78.527	-113.0713
14750.000000	80.615	-115.1358
15000.000000	81.843	-124.7583
15250.000000	81.924	-135.3577
15500.000000	81.352	-141.7234
15750.000000	80.836	-144.2757
16000.000000	80.716	-146.2900
16250.000000	80.801	-150.5627
16500.000000	80.687	-157.9312
16750.000000	80.019	-166.8942
17000.000000	78.680	-174.2336
17250.000000	76.900	-177.2686
17500.000000	75.051	-176.2635
17750.000000	73.347	-172.8972
18000.000000	71.903	-167.9939
18250.000000	70.674	-161.9923
18500.000000	69.606	-155.4338
18750.000000	68.664	-149.0331
19000.000000	67.757	-143.2909
19250.000000	66.760	-137.8404
19500.000000	65.588	-131.0375
19750.000000	64.403	-121.4476
20000.000000	63.722	-114.0933
