* Measurement data measured by REW V5.20.7
* Source: Input device not selected, no input selected, L, volume: no control
* Format: 128k Log Swept Sine, 1 sweep at -12.0 dBFS with no timing reference
* Dated: 2022. 5. 1 ¿ÀÈÄ 6:57:32
* REW Settings:
*  C-weighting compensation: Off
*  Target level: 75.0 dB
* Note: 
* Measurement: B_L
* Smoothing: 1/24 octave
* Frequency Step: 1/48 octave
* Start Frequency: 20.300 Hz
*
* Freq(Hz)	SPL(dB)	Phase(degrees)
20.299999	82.374	-147.2762
20.600000	82.357	-147.8091
20.900000	82.314	-148.6115
21.200001	82.264	-148.9690
21.400000	82.249	-148.9940
21.799999	82.289	-148.9686
22.000000	82.343	-149.0271
22.400000	82.471	-149.8667
22.700001	82.522	-151.0129
23.000000	82.489	-152.2861
23.299999	82.383	-153.2395
23.600000	82.258	-153.6400
24.000000	82.177	-153.4378
24.299999	82.236	-153.3120
24.700001	82.417	-154.0969
25.000000	82.512	-155.6441
25.400000	82.433	-158.3817
25.799999	82.073	-160.1895
26.200001	81.612	-159.4855
26.500000	81.432	-157.4037
26.900000	81.632	-154.1282
27.200001	82.053	-152.7939
27.600000	82.674	-153.6397
28.000000	83.058	-156.8982
28.500000	83.055	-161.5533
29.000000	82.718	-163.9879
29.500000	82.440	-163.8944
30.000000	82.454	-163.2833
30.400000	82.576	-163.6057
30.700001	82.646	-164.3516
31.100000	82.663	-165.5490
31.500000	82.615	-166.5354
32.000000	82.547	-167.2842
32.500000	82.526	-167.8345
33.000000	82.535	-168.5292
33.500000	82.541	-169.3677
34.000000	82.532	-170.2251
34.500000	82.512	-171.0265
35.000000	82.478	-171.7048
35.500000	82.440	-172.1645
36.000000	82.418	-172.3821
36.500000	82.435	-172.4833
37.000000	82.490	-172.7412
37.500000	82.545	-173.3966
38.200001	82.507	-174.7721
38.700001	82.380	-175.4043
39.500000	82.267	-175.3610
40.000000	82.337	-175.9156
40.599998	82.356	-178.1937
41.200001	82.063	179.3125
41.799999	81.603	179.0750
42.500000	81.464	-178.8318
43.099998	81.767	-178.3269
43.700001	82.035	-179.8308
44.400002	82.120	178.2382
45.000000	82.163	177.5534
45.500000	82.241	177.2286
46.200001	82.335	176.7747
46.799999	82.367	176.6248
47.500000	82.370	176.7324
48.200001	82.335	177.1570
48.700001	82.341	177.6785
49.400002	82.476	177.7537
50.000000	82.579	176.1909
50.799999	82.392	173.0233
51.500000	82.058	171.7695
52.200001	81.957	171.6702
53.000000	82.121	170.6712
53.799999	82.268	169.1719
54.500000	82.409	168.5665
55.200001	82.585	168.2512
56.000000	82.699	168.1409
57.000000	82.744	168.8909
58.000000	82.668	168.9072
59.000000	82.220	168.2758
60.000000	81.503	168.0323
60.799999	80.914	169.7138
61.500000	81.014	173.0082
62.200001	81.960	173.7179
63.000000	83.002	166.9706
64.000000	83.071	154.7443
65.000000	82.408	150.6242
66.000000	82.077	151.9941
67.000000	81.796	156.1282
68.000000	81.990	162.1286
69.000000	82.227	162.1853
70.000000	81.438	160.3802
71.000000	80.302	162.2318
72.000000	79.678	164.8036
73.000000	80.065	168.1385
74.000000	81.266	166.3484
75.000000	81.832	159.2097
76.199997	81.797	155.3210
77.500000	81.796	156.8901
78.800003	81.909	159.5231
80.000000	81.593	159.5258
81.199997	80.715	165.5458
82.500000	81.341	172.2150
83.800003	81.748	163.8976
85.000000	80.988	157.8138
86.199997	80.534	157.6032
87.500000	80.592	158.1604
88.500000	80.687	158.7829
90.000000	80.914	159.0861
91.199997	80.850	157.2291
92.500000	80.400	156.2028
93.800003	80.092	156.6910
95.000000	80.046	157.2318
96.199997	80.219	157.4921
97.500000	80.416	156.4678
98.800003	80.364	155.5082
100.000000	80.236	155.5781
101.500000	80.074	155.7257
103.000000	79.885	155.3904
104.400002	79.723	154.6326
106.000000	79.599	153.5959
107.500000	79.547	152.9958
109.000000	79.518	152.9977
110.599998	79.464	153.3551
112.000000	79.375	153.2204
113.800003	79.259	151.9558
115.000000	79.303	150.6524
117.199997	80.079	148.7896
118.000000	80.583	147.8573
120.599998	81.040	142.3015
122.000000	80.334	144.5593
124.099998	79.630	150.3197
125.000000	79.424	151.6635
126.500000	79.144	152.2754
128.000000	78.914	151.1295
131.500000	78.611	149.1935
132.000000	78.609	149.0865
134.000000	78.533	148.8092
136.000000	78.484	148.9047
138.000000	78.445	148.2238
140.000000	78.287	148.1507
143.000000	78.281	148.9228
145.000000	78.241	147.9958
147.500000	78.000	148.1713
150.000000	77.853	148.7354
152.500000	77.830	148.0854
155.000000	77.878	146.9003
157.500000	77.820	146.9947
160.000000	77.632	148.7775
162.500000	77.832	149.8739
165.000000	78.218	148.3097
167.500000	78.074	147.2848
170.000000	77.697	148.3062
172.500000	77.401	148.0999
175.000000	77.125	147.6535
177.500000	76.777	148.9405
180.000000	76.501	151.0649
182.500000	76.512	151.0454
185.000000	76.579	149.4052
187.500000	76.708	150.8101
190.000000	77.158	153.9668
192.500000	77.304	156.6024
195.000000	77.078	160.3141
197.500000	76.949	163.9980
200.000000	77.184	164.7691
203.000000	77.007	160.3370
206.000000	76.542	158.3114
209.000000	76.711	158.3287
212.000000	76.818	158.5702
214.000000	76.703	156.9080
218.000000	76.523	152.0516
220.000000	76.688	151.1078
224.000000	76.702	149.3440
227.000000	76.348	145.7038
230.000000	76.116	145.0978
233.000000	76.090	147.6860
236.000000	76.023	149.0131
240.000000	75.953	148.6971
243.000000	75.911	148.9810
247.000000	75.833	149.6090
250.000000	75.837	149.6255
254.000000	75.827	149.2299
258.000000	75.744	149.4655
262.000000	75.595	149.9577
265.000000	75.458	150.1243
269.000000	75.397	150.1957
272.000000	75.409	150.3626
276.000000	75.402	150.7834
280.000000	75.364	151.0301
285.000000	75.289	150.7538
290.000000	75.112	150.7697
295.000000	75.039	150.9174
300.000000	75.056	151.2354
304.000000	74.987	151.2320
307.000000	74.914	151.1616
311.000000	74.834	151.3021
315.000000	74.763	151.5723
320.000000	74.661	151.8331
325.000000	74.614	152.2230
330.000000	74.580	152.9007
335.000000	74.552	153.2708
340.000000	74.536	153.0313
345.000000	74.495	153.0544
350.000000	74.425	153.4574
355.000000	74.342	154.0044
360.000000	74.205	154.8195
365.000000	74.094	155.2816
370.000000	74.058	155.2299
375.000000	74.050	155.1183
382.000000	74.043	154.9921
387.000000	74.026	155.2688
395.000000	73.938	155.8115
400.000000	73.899	156.3661
406.000000	73.861	156.7994
412.000000	73.821	156.6974
418.000000	73.799	156.4618
425.000000	73.811	156.8628
431.000000	73.781	157.5532
437.000000	73.696	158.1387
444.000000	73.582	158.9701
450.000000	73.516	159.3776
455.000000	73.503	159.3220
462.000000	73.517	159.2432
468.000000	73.503	159.6360
475.000000	73.437	159.9981
482.000000	73.401	160.2250
487.000000	73.398	160.3678
494.000000	73.383	160.7144
500.000000	73.367	161.0738
508.000000	73.353	161.2980
515.000000	73.359	161.6824
522.000000	73.342	162.2598
530.000000	73.252	163.0355
538.000000	73.180	163.5052
545.000000	73.214	163.4217
552.000000	73.271	163.6346
560.000000	73.215	164.3071
570.000000	73.116	164.6741
580.000000	73.128	165.0570
590.000000	73.148	165.5950
600.000000	73.100	166.5038
608.000000	73.111	167.0482
615.000000	73.147	167.2267
622.000000	73.176	167.4650
630.000000	73.191	167.8979
640.000000	73.171	168.4927
650.000000	73.134	169.0084
660.000000	73.137	169.4055
670.000000	73.185	169.8131
680.000000	73.203	170.7831
690.000000	73.190	171.7466
700.000000	73.188	172.1389
710.000000	73.192	172.4744
720.000000	73.174	172.8034
730.000000	73.194	173.0334
740.000000	73.248	173.4655
750.000000	73.292	173.9589
762.000000	73.346	174.8770
775.000000	73.365	176.4855
788.000000	73.354	177.2426
800.000000	73.428	177.1932
812.000000	73.468	177.4254
825.000000	73.516	178.1739
838.000000	73.617	178.8792
850.000000	73.656	179.3370
862.000000	73.635	179.5012
875.000000	73.684	179.9149
885.000000	73.762	-179.4661
900.000000	73.814	-178.4191
912.000000	73.892	-177.9769
925.000000	73.994	-177.4977
938.000000	74.067	-176.8519
950.000000	74.162	-176.3985
962.000000	74.298	-176.1975
975.000000	74.411	-175.8868
988.000000	74.504	-174.5615
1000.000000	74.576	-173.3831
1015.000000	74.676	-173.6515
1030.000000	74.811	-173.9744
1044.000000	74.927	-174.0483
1060.000000	75.089	-173.7675
1075.000000	75.197	-173.3073
1090.000000	75.272	-172.7803
1106.000000	75.404	-172.7024
1120.000000	75.521	-172.6463
1138.000000	75.629	-172.3332
1150.000000	75.713	-172.2187
1172.000000	75.881	-172.0242
1180.000000	75.936	-171.8954
1206.000000	76.126	-171.6349
1220.000000	76.223	-171.5920
1241.000000	76.375	-171.5042
1250.000000	76.446	-171.4716
1265.000000	76.563	-171.4261
1280.000000	76.683	-171.4201
1315.000000	76.896	-171.4133
1320.000000	76.925	-171.3552
1340.000000	77.064	-171.1703
1360.000000	77.220	-171.2112
1380.000000	77.360	-171.2516
1400.000000	77.483	-171.5139
1430.000000	77.677	-171.7515
1450.000000	77.823	-171.9358
1475.000000	77.977	-172.1880
1500.000000	78.075	-172.2534
1525.000000	78.209	-172.3085
1550.000000	78.351	-172.4109
1575.000000	78.478	-172.6688
1600.000000	78.604	-172.5837
1625.000000	78.731	-172.1671
1650.000000	78.871	-171.8872
1675.000000	79.045	-171.6994
1700.000000	79.206	-171.3956
1725.000000	79.361	-170.9041
1750.000000	79.566	-170.3785
1775.000000	79.832	-169.9860
1800.000000	80.151	-169.7304
1825.000000	80.496	-169.8660
1850.000000	80.820	-170.4450
1875.000000	81.115	-171.2952
1900.000000	81.396	-172.2494
1925.000000	81.651	-173.1617
1950.000000	81.888	-174.1236
1975.000000	82.115	-175.2404
2000.000000	82.336	-176.4624
2030.000000	82.591	-178.0093
2060.000000	82.831	-179.6075
2090.000000	83.060	178.7675
2120.000000	83.277	177.0379
2140.000000	83.412	175.8704
2180.000000	83.663	173.4843
2200.000000	83.785	172.1837
2240.000000	84.040	169.2125
2270.000000	84.205	166.7664
2300.000000	84.342	164.1370
2330.000000	84.440	161.2324
2360.000000	84.472	158.1127
2400.000000	84.385	153.7662
2430.000000	84.197	150.5722
2470.000000	83.767	147.0427
2500.000000	83.338	145.5664
2540.000000	82.798	145.3026
2580.000000	82.484	146.1995
2620.000000	82.428	147.1635
2650.000000	82.485	147.3322
2690.000000	82.585	146.5616
2720.000000	82.635	145.3539
2760.000000	82.603	143.3170
2800.000000	82.430	141.3835
2850.000000	82.104	139.6605
2900.000000	81.740	138.8524
2950.000000	81.408	138.4873
3000.000000	81.117	138.4089
3040.000000	80.901	138.7336
3070.000000	80.750	139.1284
3110.000000	80.599	139.7232
3150.000000	80.506	140.2217
3200.000000	80.395	140.6678
3250.000000	80.276	141.1357
3300.000000	80.181	141.6692
3350.000000	80.084	141.9462
3400.000000	79.999	142.1969
3450.000000	79.921	142.4948
3500.000000	79.843	142.7166
3550.000000	79.749	142.9238
3600.000000	79.622	143.2546
3650.000000	79.443	143.7309
3700.000000	79.275	144.5376
3750.000000	79.165	145.8604
3820.000000	79.149	148.1015
3870.000000	79.223	149.3300
3950.000000	79.375	150.4949
4000.000000	79.432	150.8304
4060.000000	79.429	151.3260
4120.000000	79.423	152.4540
4180.000000	79.515	153.8712
4250.000000	79.715	155.0967
4310.000000	79.910	155.7365
4370.000000	80.109	156.0450
4440.000000	80.350	156.0722
4500.000000	80.546	155.6845
4550.000000	80.673	154.9826
4620.000000	80.802	153.8722
4680.000000	80.882	153.0417
4750.000000	80.944	151.8730
4820.000000	80.901	150.5302
4870.000000	80.788	149.7954
4940.000000	80.562	149.8162
5000.000000	80.417	150.7154
5080.000000	80.417	152.3374
5150.000000	80.584	153.5867
5220.000000	80.868	154.4481
5300.000000	81.269	154.5472
5380.000000	81.647	153.2015
5450.000000	81.877	150.8573
5520.000000	81.935	147.9426
5600.000000	81.730	145.2304
5700.000000	81.277	144.8123
5800.000000	81.136	146.6053
5900.000000	81.307	147.3278
6000.000000	81.477	146.6421
6080.000000	81.510	145.7839
6150.000000	81.461	145.0566
6220.000000	81.358	144.6389
6300.000000	81.201	144.8726
6400.000000	81.071	146.2383
6500.000000	81.096	148.0142
6600.000000	81.236	149.5841
6700.000000	81.455	150.8641
6800.000000	81.732	151.9231
6900.000000	82.034	152.7359
7000.000000	82.357	153.0432
7100.000000	82.687	153.0711
7200.000000	83.035	153.1889
7300.000000	83.422	153.2543
7400.000000	83.869	152.8868
7500.000000	84.384	151.7524
7620.000000	85.023	148.9283
7750.000000	85.574	144.1959
7880.000000	85.882	138.2313
8000.000000	85.934	131.9717
8120.000000	85.723	125.4971
8250.000000	85.183	119.2803
8380.000000	84.472	114.5127
8500.000000	83.662	111.1244
8620.000000	82.708	109.8576
8750.000000	81.924	110.9585
8850.000000	81.662	111.1091
9000.000000	81.170	108.0137
9120.000000	80.394	105.5522
9250.000000	79.319	104.7587
9380.000000	78.135	106.2177
9500.000000	77.117	109.6819
9620.000000	76.373	114.4275
9750.000000	75.955	119.5453
9880.000000	75.763	123.3766
10000.000000	75.610	125.9396
10150.000000	75.414	128.5744
10300.000000	75.249	130.5582
10440.000000	75.134	131.9363
10600.000000	74.978	132.6482
10750.000000	74.738	132.1964
10900.000000	74.323	131.3596
11060.000000	73.650	131.1814
11200.000000	72.939	132.0837
11380.000000	71.971	134.4760
11500.000000	71.351	136.7617
11720.000000	70.268	142.3811
11800.000000	69.888	145.0116
12060.000000	68.797	155.0437
12200.000000	68.404	160.6535
12410.000000	67.921	168.2070
12500.000000	67.680	171.4444
12650.000000	67.246	177.5955
12800.000000	66.843	-174.7984
13150.000000	66.423	-154.4087
13200.000000	66.444	-151.4300
13400.000000	66.763	-139.4143
13600.000000	67.388	-128.6795
13800.000000	68.190	-118.4426
14000.000000	69.244	-108.3183
14300.000000	71.392	-95.1573
14500.000000	73.138	-89.2975
14750.000000	75.387	-86.6838
15000.000000	77.261	-89.8535
15250.000000	78.448	-96.9544
15500.000000	78.993	-104.0613
15750.000000	79.295	-108.9898
16000.000000	79.805	-113.1476
16250.000000	80.499	-119.5491
16500.000000	80.916	-130.3322
16750.000000	80.602	-143.8331
17000.000000	79.433	-155.8088
17250.000000	77.635	-163.0945
17500.000000	75.591	-165.5893
17750.000000	73.611	-164.6864
18000.000000	71.824	-161.5657
18250.000000	70.259	-156.9041
18500.000000	68.858	-151.5294
18750.000000	67.600	-145.5804
19000.000000	66.423	-139.1461
19250.000000	65.132	-132.0413
19500.000000	63.779	-123.0962
19750.000000	62.657	-112.8187
20000.000000	62.065	-105.6070
