* Measurement data measured by REW V5.20.9
* Source: Mic in at rear panel (Pink)(Realtek(R) Audio), MICROPHONE (마스), L, volume: 0.500
* Format: 256k Log Swept Sine, 1 sweep at -12.0 dBFS with no timing reference
* Dated: 2022. 9. 17 오후 9:48:28
* REW Settings:
*  C-weighting compensation: Off
*  Target level: 75.0 dB
* Note: 
* Measurement: R_white
* Smoothing: 1/24 octave
* Frequency Step: 1/48 octave
* Start Frequency: 20.300 Hz
*
* Freq(Hz)	SPL(dB)	Phase(degrees)
20.299999	75.030	-143.7298
20.600000	75.046	-144.2539
20.900000	75.069	-145.1599
21.200001	75.073	-145.9332
21.400000	75.071	-146.3665
21.799999	75.069	-147.1294
22.000000	75.074	-147.5067
22.400000	75.094	-148.3290
22.700001	75.108	-149.0343
23.000000	75.114	-149.7993
23.299999	75.109	-150.5611
23.600000	75.097	-151.2663
24.000000	75.085	-152.0748
24.299999	75.091	-152.6082
24.700001	75.124	-153.3199
25.000000	75.162	-153.9274
25.400000	75.214	-154.8752
25.799999	75.245	-155.9142
26.200001	75.250	-156.8980
26.500000	75.242	-157.5198
26.900000	75.230	-158.1634
27.200001	75.231	-158.5456
27.600000	75.251	-159.0223
28.000000	75.285	-159.5734
28.500000	75.323	-160.4135
29.000000	75.333	-161.3029
29.500000	75.324	-162.1104
30.000000	75.313	-162.8403
30.400000	75.303	-163.4236
30.700001	75.291	-163.8646
31.100000	75.267	-164.4102
31.500000	75.241	-164.8557
32.000000	75.229	-165.2930
32.500000	75.251	-165.7922
33.000000	75.285	-166.5486
33.500000	75.291	-167.4928
34.000000	75.260	-168.3403
34.500000	75.224	-168.9228
35.000000	75.217	-169.3685
35.500000	75.235	-169.9227
36.000000	75.243	-170.6282
36.500000	75.226	-171.3078
37.000000	75.205	-171.8181
37.500000	75.203	-172.2442
38.200001	75.222	-173.0380
38.700001	75.214	-173.7556
39.500000	75.154	-174.7177
40.000000	75.123	-175.1417
40.599998	75.106	-175.6570
41.200001	75.089	-176.2703
41.799999	75.057	-176.8446
42.500000	75.030	-177.3470
43.099998	75.033	-177.7727
43.700001	75.045	-178.3252
44.400002	75.041	-179.0557
45.000000	75.022	-179.6126
45.500000	75.008	-179.9964
46.200001	75.006	179.4910
46.799999	75.012	178.9380
47.500000	74.996	178.1523
48.200001	74.946	177.4764
48.700001	74.910	177.1562
49.400002	74.888	176.7584
50.000000	74.878	176.2818
50.799999	74.835	175.6260
51.500000	74.797	175.2523
52.200001	74.787	174.8702
53.000000	74.770	174.2520
53.799999	74.727	173.7230
54.500000	74.700	173.3722
55.200001	74.683	172.9433
56.000000	74.649	172.3834
57.000000	74.592	171.7859
58.000000	74.540	171.2429
59.000000	74.492	170.7166
60.000000	74.450	170.1404
60.799999	74.412	169.6469
61.500000	74.377	169.2457
62.200001	74.344	168.8726
63.000000	74.310	168.4619
64.000000	74.273	167.9789
65.000000	74.243	167.4556
66.000000	74.198	166.8887
67.000000	74.144	166.4393
68.000000	74.104	166.0315
69.000000	74.062	165.5419
70.000000	74.007	165.0967
71.000000	73.958	164.7372
72.000000	73.920	164.3582
73.000000	73.880	163.9364
74.000000	73.835	163.5236
75.000000	73.788	163.1454
76.199997	73.735	162.6967
77.500000	73.674	162.2382
78.800003	73.621	161.8166
80.000000	73.573	161.3586
81.199997	73.508	160.9328
82.500000	73.440	160.6230
83.800003	73.390	160.2791
85.000000	73.338	159.8947
86.199997	73.284	159.5208
87.500000	73.228	159.1047
88.500000	73.184	158.8062
90.000000	73.125	158.4027
91.199997	73.078	158.0903
92.500000	73.027	157.8065
93.800003	72.983	157.5065
95.000000	72.938	157.1673
96.199997	72.884	156.8256
97.500000	72.824	156.4710
98.800003	72.765	156.1405
100.000000	72.712	155.8680
101.500000	72.646	155.5940
103.000000	72.584	155.3839
104.400002	72.529	155.1763
106.000000	72.464	154.8954
107.500000	72.399	154.6183
109.000000	72.336	154.3944
110.599998	72.279	154.1770
112.000000	72.228	153.9619
113.800003	72.151	153.6916
115.000000	72.098	153.5149
117.199997	72.012	153.1445
118.000000	71.981	152.9916
120.599998	71.883	152.6651
122.000000	71.843	152.5580
124.099998	71.773	152.3481
125.000000	71.738	152.2621
126.500000	71.681	152.1187
128.000000	71.630	151.9478
131.500000	71.510	151.4764
132.000000	71.491	151.4264
134.000000	71.415	151.2891
136.000000	71.347	151.1544
138.000000	71.281	151.0011
140.000000	71.218	150.8430
143.000000	71.112	150.5350
145.000000	71.034	150.3765
147.500000	70.945	150.2020
150.000000	70.867	150.1288
152.500000	70.797	150.0518
155.000000	70.722	149.9431
157.500000	70.642	149.7953
160.000000	70.563	149.6919
162.500000	70.495	149.5949
165.000000	70.423	149.4938
167.500000	70.347	149.4694
170.000000	70.273	149.4595
172.500000	70.198	149.4391
175.000000	70.125	149.4190
177.500000	70.053	149.4324
180.000000	69.987	149.4642
182.500000	69.926	149.4867
185.000000	69.867	149.5039
187.500000	69.808	149.5149
190.000000	69.749	149.5118
192.500000	69.694	149.5187
195.000000	69.640	149.5272
197.500000	69.578	149.5418
200.000000	69.513	149.5400
203.000000	69.441	149.4996
206.000000	69.371	149.4940
209.000000	69.297	149.5789
212.000000	69.226	149.6598
214.000000	69.182	149.6860
218.000000	69.095	149.7592
220.000000	69.050	149.8298
224.000000	68.962	149.9630
227.000000	68.899	150.0582
230.000000	68.837	150.2240
233.000000	68.776	150.4265
236.000000	68.716	150.6285
240.000000	68.652	150.9494
243.000000	68.616	151.1923
247.000000	68.571	151.4522
250.000000	68.538	151.6136
254.000000	68.497	151.7500
258.000000	68.453	151.8207
262.000000	68.402	151.8854
265.000000	68.360	151.9282
269.000000	68.300	151.9901
272.000000	68.251	152.0483
276.000000	68.186	152.1520
280.000000	68.132	152.2668
285.000000	68.071	152.4231
290.000000	68.006	152.5524
295.000000	67.942	152.7030
300.000000	67.880	152.9457
304.000000	67.832	153.1521
307.000000	67.796	153.3006
311.000000	67.745	153.5095
315.000000	67.695	153.7225
320.000000	67.641	153.9829
325.000000	67.589	154.2384
330.000000	67.537	154.5079
335.000000	67.487	154.7961
340.000000	67.435	155.0803
345.000000	67.385	155.3754
350.000000	67.345	155.6977
355.000000	67.307	156.0253
360.000000	67.264	156.3125
365.000000	67.227	156.5663
370.000000	67.191	156.8143
375.000000	67.153	157.0699
382.000000	67.102	157.4466
387.000000	67.064	157.6597
395.000000	66.992	158.0172
400.000000	66.946	158.2939
406.000000	66.898	158.6104
412.000000	66.851	158.9546
418.000000	66.803	159.3591
425.000000	66.746	159.8245
431.000000	66.693	160.2030
437.000000	66.646	160.6521
444.000000	66.606	161.2585
450.000000	66.585	161.8121
455.000000	66.582	162.2968
462.000000	66.598	162.8947
468.000000	66.618	163.2402
475.000000	66.630	163.4698
482.000000	66.630	163.6465
487.000000	66.618	163.7819
494.000000	66.590	164.0059
500.000000	66.563	164.2419
508.000000	66.530	164.6129
515.000000	66.504	164.9538
522.000000	66.484	165.2969
530.000000	66.455	165.6858
538.000000	66.427	166.1161
545.000000	66.415	166.5234
552.000000	66.402	166.9131
560.000000	66.388	167.3289
570.000000	66.375	167.8347
580.000000	66.357	168.3664
590.000000	66.341	168.9364
600.000000	66.330	169.5103
608.000000	66.323	169.9806
615.000000	66.319	170.3995
622.000000	66.319	170.8189
630.000000	66.316	171.2679
640.000000	66.309	171.8231
650.000000	66.306	172.3883
660.000000	66.307	172.9679
670.000000	66.309	173.5387
680.000000	66.315	174.1012
690.000000	66.324	174.6802
700.000000	66.333	175.2691
710.000000	66.340	175.8346
720.000000	66.351	176.3965
730.000000	66.366	176.9499
740.000000	66.385	177.5229
750.000000	66.405	178.0952
762.000000	66.431	178.7680
775.000000	66.465	179.5078
788.000000	66.503	-179.7434
800.000000	66.541	-179.0628
812.000000	66.582	-178.4207
825.000000	66.630	-177.7195
838.000000	66.682	-177.0000
850.000000	66.737	-176.3672
862.000000	66.796	-175.7622
875.000000	66.859	-175.1097
885.000000	66.910	-174.6168
900.000000	66.991	-173.8921
912.000000	67.059	-173.3372
925.000000	67.138	-172.7478
938.000000	67.219	-172.1870
950.000000	67.298	-171.7010
962.000000	67.378	-171.2227
975.000000	67.468	-170.7207
988.000000	67.558	-170.2478
1000.000000	67.641	-169.8390
1015.000000	67.751	-169.4120
1030.000000	67.864	-169.0314
1044.000000	67.969	-168.6622
1060.000000	68.090	-168.2788
1075.000000	68.202	-167.9587
1090.000000	68.313	-167.6607
1106.000000	68.435	-167.3801
1120.000000	68.544	-167.1507
1138.000000	68.686	-166.8904
1150.000000	68.781	-166.7260
1172.000000	68.950	-166.4325
1180.000000	69.011	-166.3336
1206.000000	69.209	-166.0441
1220.000000	69.315	-165.8895
1241.000000	69.474	-165.6459
1250.000000	69.543	-165.5405
1265.000000	69.659	-165.3770
1280.000000	69.774	-165.2486
1315.000000	70.043	-164.9894
1320.000000	70.081	-164.9529
1340.000000	70.233	-164.8264
1360.000000	70.385	-164.7255
1380.000000	70.537	-164.6326
1400.000000	70.694	-164.5364
1430.000000	70.939	-164.4348
1450.000000	71.105	-164.4061
1475.000000	71.317	-164.4013
1500.000000	71.530	-164.4215
1525.000000	71.744	-164.4526
1550.000000	71.961	-164.5312
1575.000000	72.181	-164.6663
1600.000000	72.405	-164.8562
1625.000000	72.631	-165.0994
1650.000000	72.858	-165.4315
1675.000000	73.085	-165.8520
1700.000000	73.312	-166.3640
1725.000000	73.530	-166.9805
1750.000000	73.734	-167.7099
1775.000000	73.917	-168.5236
1800.000000	74.071	-169.3734
1825.000000	74.193	-170.1519
1850.000000	74.291	-170.7089
1875.000000	74.389	-170.9298
1900.000000	74.520	-170.8227
1925.000000	74.717	-170.5695
1950.000000	74.984	-170.4178
1975.000000	75.300	-170.5711
2000.000000	75.639	-171.1230
2030.000000	76.045	-172.2918
2060.000000	76.431	-173.9275
2090.000000	76.783	-175.9421
2120.000000	77.096	-178.2730
2140.000000	77.282	-179.9775
2180.000000	77.586	176.3048
2200.000000	77.701	174.3118
2240.000000	77.842	170.1459
2270.000000	77.861	166.9607
2300.000000	77.798	163.8608
2330.000000	77.648	161.0590
2360.000000	77.423	158.8159
2400.000000	77.084	157.0519
2430.000000	76.887	156.5964
2470.000000	76.792	156.4379
2500.000000	76.830	156.0764
2540.000000	76.934	154.8729
2580.000000	77.008	152.9790
2620.000000	77.016	150.7523
2650.000000	76.977	149.0437
2690.000000	76.877	146.8426
2720.000000	76.774	145.2921
2760.000000	76.608	143.3705
2800.000000	76.417	141.6110
2850.000000	76.147	139.6442
2900.000000	75.848	137.9188
2950.000000	75.519	136.4412
3000.000000	75.155	135.2657
3040.000000	74.839	134.6088
3070.000000	74.591	134.3235
3110.000000	74.250	134.2718
3150.000000	73.912	134.6501
3200.000000	73.521	135.7410
3250.000000	73.204	137.4072
3300.000000	72.990	139.4026
3350.000000	72.884	141.4095
3400.000000	72.866	143.1635
3450.000000	72.905	144.5838
3500.000000	72.969	145.7271
3550.000000	73.045	146.6662
3600.000000	73.132	147.4319
3650.000000	73.223	148.0192
3700.000000	73.310	148.4477
3750.000000	73.388	148.7726
3820.000000	73.489	149.1325
3870.000000	73.558	149.3309
3950.000000	73.670	149.4427
4000.000000	73.736	149.2775
4060.000000	73.787	148.7422
4120.000000	73.753	147.8531
4180.000000	73.561	147.0878
4250.000000	73.158	147.7983
4310.000000	72.890	150.4023
4370.000000	72.893	153.7157
4440.000000	73.170	156.7109
4500.000000	73.483	158.1624
4550.000000	73.738	158.7703
4620.000000	74.057	159.0254
4680.000000	74.290	158.9037
4750.000000	74.516	158.5450
4820.000000	74.703	158.0969
4870.000000	74.820	157.7651
4940.000000	74.968	157.2667
5000.000000	75.086	156.8035
5080.000000	75.237	156.1351
5150.000000	75.364	155.4432
5220.000000	75.480	154.6037
5300.000000	75.587	153.4729
5380.000000	75.657	152.2225
5450.000000	75.685	151.0961
5520.000000	75.683	149.9969
5600.000000	75.654	148.8097
5700.000000	75.584	147.4192
5800.000000	75.480	146.1003
5900.000000	75.328	144.8295
6000.000000	75.108	143.6779
6080.000000	74.874	142.9730
6150.000000	74.623	142.6559
6220.000000	74.333	142.7713
6300.000000	73.966	143.6638
6400.000000	73.534	146.3654
6500.000000	73.360	150.7757
6600.000000	73.623	155.0102
6700.000000	74.076	157.1445
6800.000000	74.437	157.7475
6900.000000	74.704	158.1068
7000.000000	74.963	158.7169
7100.000000	75.267	159.4936
7200.000000	75.631	160.1954
7300.000000	76.056	160.6363
7400.000000	76.540	160.6588
7500.000000	77.078	160.0904
7620.000000	77.785	158.3467
7750.000000	78.547	154.6700
7880.000000	79.079	148.7923
8000.000000	79.224	141.9843
8120.000000	79.002	135.0344
8250.000000	78.368	128.6431
8380.000000	77.419	124.9561
8500.000000	76.524	124.6963
8620.000000	75.959	126.3046
8750.000000	75.805	126.8955
8850.000000	75.699	125.2484
9000.000000	75.098	121.9403
9120.000000	74.348	121.0279
9250.000000	73.546	121.9364
9380.000000	72.882	123.9744
9500.000000	72.408	126.3145
9620.000000	72.066	128.7823
9750.000000	71.833	131.2869
9880.000000	71.706	133.2923
10000.000000	71.623	134.5657
10150.000000	71.493	135.6631
10300.000000	71.344	136.8193
10440.000000	71.284	137.9689
10600.000000	71.346	138.3485
10750.000000	71.393	137.0476
10900.000000	71.250	134.4510
11060.000000	70.802	131.4301
11200.000000	70.196	129.5835
11380.000000	69.299	128.8665
11500.000000	68.728	129.1178
11720.000000	67.811	129.6847
11800.000000	67.493	129.6744
12060.000000	66.324	128.6693
12200.000000	65.514	127.8723
12410.000000	63.984	127.3282
12500.000000	63.220	127.5654
12650.000000	61.821	128.7648
12800.000000	60.272	131.0572
13150.000000	55.872	144.3424
13200.000000	55.142	147.9703
13400.000000	52.238	168.7924
13600.000000	50.426	-162.2735
13800.000000	50.874	-132.5576
14000.000000	52.837	-108.2344
14300.000000	56.687	-83.8606
14500.000000	59.372	-74.6681
14750.000000	62.501	-70.6016
15000.000000	64.960	-74.2448
15250.000000	66.412	-82.5722
15500.000000	66.996	-90.1128
15750.000000	67.278	-93.6526
16000.000000	67.801	-94.4999
16250.000000	68.704	-96.0389
16500.000000	69.677	-101.1072
16750.000000	70.224	-110.3175
17000.000000	70.001	-121.0621
17250.000000	69.062	-129.4030
17500.000000	67.773	-133.7141
17750.000000	66.456	-134.7706
18000.000000	65.237	-133.6979
18250.000000	64.154	-131.3056
18500.000000	63.206	-128.2874
18750.000000	62.344	-125.0839
19000.000000	61.489	-121.6476
19250.000000	60.603	-117.5884
19500.000000	59.713	-112.6355
19750.000000	58.896	-106.9415
20000.000000	58.157	-100.7781
