* Measurement data measured by REW V5.20.13
* Source: 마이크(2- Realtek(R) Audi, MICROPHONE (마스), L, volume: 0.300
* Format: 128k Log Swept Sine, 2 sweeps at -28.0 dBFS with no timing reference
* Dated: 2023. 3. 31 오후 9:04:01
* REW Settings:
*  C-weighting compensation: Off
*  Target level: 75.0 dB
* Note: 
* Measurement: 3월 31
* Smoothing: 1/24 octave
* Frequency Step: 1/48 octave
* Start Frequency: 20.300 Hz
*
* Freq(Hz)	SPL(dB)	Phase(degrees)
20.299999	74.101	45.1895
20.600000	74.124	44.7751
20.900000	74.168	44.0463
21.200001	74.204	43.3818
21.400000	74.226	42.9670
21.799999	74.267	42.1447
22.000000	74.287	41.7173
22.400000	74.326	40.8266
22.700001	74.353	40.1317
23.000000	74.378	39.4194
23.299999	74.401	38.7012
23.600000	74.424	37.9849
24.000000	74.456	37.0376
24.299999	74.483	36.3294
24.700001	74.520	35.3802
25.000000	74.549	34.6631
25.400000	74.584	33.7111
25.799999	74.613	32.7901
26.200001	74.639	31.9272
26.500000	74.658	31.3233
26.900000	74.684	30.5661
27.200001	74.704	30.0202
27.600000	74.730	29.3060
28.000000	74.752	28.6050
28.500000	74.772	27.7674
29.000000	74.785	26.9952
29.500000	74.797	26.2751
30.000000	74.811	25.5651
30.400000	74.821	24.9863
30.700001	74.826	24.5479
31.100000	74.830	23.9682
31.500000	74.833	23.4010
32.000000	74.839	22.7035
32.500000	74.846	21.9987
33.000000	74.853	21.2779
33.500000	74.856	20.5574
34.000000	74.859	19.8594
34.500000	74.862	19.1876
35.000000	74.866	18.5296
35.500000	74.872	17.8750
36.000000	74.875	17.2264
36.500000	74.877	16.5915
37.000000	74.878	15.9718
37.500000	74.878	15.3631
38.200001	74.875	14.5240
38.700001	74.871	13.9368
39.500000	74.863	13.0277
40.000000	74.857	12.4802
40.599998	74.851	11.8419
41.200001	74.845	11.2173
41.799999	74.839	10.6026
42.500000	74.829	9.9081
43.099998	74.818	9.3432
43.700001	74.807	8.8016
44.400002	74.792	8.1845
45.000000	74.776	7.6673
45.500000	74.760	7.2487
46.200001	74.738	6.6756
46.799999	74.719	6.1838
47.500000	74.695	5.6031
48.200001	74.672	5.0164
48.700001	74.655	4.5952
49.400002	74.632	4.0107
50.000000	74.615	3.5217
50.799999	74.596	2.8782
51.500000	74.580	2.3198
52.200001	74.563	1.7927
53.000000	74.544	1.2459
53.799999	74.527	0.7247
54.500000	74.508	0.2767
55.200001	74.486	-0.1498
56.000000	74.456	-0.6163
57.000000	74.413	-1.2020
58.000000	74.361	-1.7845
59.000000	74.303	-2.3385
60.000000	74.251	-2.8661
60.799999	74.218	-3.3114
61.500000	74.193	-3.7433
62.200001	74.167	-4.1997
63.000000	74.134	-4.7111
64.000000	74.095	-5.3006
65.000000	74.060	-5.8267
66.000000	74.033	-6.3005
67.000000	74.008	-6.7732
68.000000	73.974	-7.2252
69.000000	73.935	-7.6057
70.000000	73.896	-7.9715
71.000000	73.853	-8.3704
72.000000	73.802	-8.7783
73.000000	73.748	-9.1774
74.000000	73.697	-9.5661
75.000000	73.651	-9.9392
76.199997	73.607	-10.3945
77.500000	73.562	-10.9068
78.800003	73.512	-11.3892
80.000000	73.460	-11.7714
81.199997	73.409	-12.1130
82.500000	73.355	-12.5129
83.800003	73.297	-12.9350
85.000000	73.241	-13.3231
86.199997	73.185	-13.6756
87.500000	73.132	-14.0063
88.500000	73.095	-14.2793
90.000000	73.031	-14.6945
91.199997	72.977	-14.9855
92.500000	72.921	-15.3056
93.800003	72.866	-15.6113
95.000000	72.819	-15.8793
96.199997	72.773	-16.1359
97.500000	72.722	-16.3906
98.800003	72.666	-16.6201
100.000000	72.611	-16.7998
101.500000	72.547	-17.0142
103.000000	72.490	-17.3026
104.400002	72.435	-17.6369
106.000000	72.363	-18.0013
107.500000	72.300	-18.2042
109.000000	72.249	-18.3928
110.599998	72.190	-18.6304
112.000000	72.132	-18.8321
113.800003	72.057	-19.0824
115.000000	72.009	-19.2441
117.199997	71.927	-19.5106
118.000000	71.898	-19.5958
120.599998	71.805	-19.8639
122.000000	71.750	-20.0225
124.099998	71.662	-20.2753
125.000000	71.625	-20.3734
126.500000	71.567	-20.5150
128.000000	71.516	-20.6361
131.500000	71.399	-20.8484
132.000000	71.383	-20.8735
134.000000	71.315	-20.9850
136.000000	71.248	-21.1183
138.000000	71.179	-21.2590
140.000000	71.109	-21.3692
143.000000	71.009	-21.5211
145.000000	70.944	-21.6383
147.500000	70.855	-21.7598
150.000000	70.756	-21.8408
152.500000	70.660	-21.8926
155.000000	70.589	-21.9218
157.500000	70.531	-21.9758
160.000000	70.463	-22.0155
162.500000	70.388	-22.0679
165.000000	70.309	-22.1587
167.500000	70.230	-22.2118
170.000000	70.143	-22.2395
172.500000	70.037	-22.1890
175.000000	69.950	-21.9783
177.500000	69.897	-21.8670
180.000000	69.846	-21.9039
182.500000	69.784	-21.9916
185.000000	69.720	-21.9939
187.500000	69.664	-21.8951
190.000000	69.610	-21.7663
192.500000	69.553	-21.6738
195.000000	69.492	-21.6273
197.500000	69.430	-21.5719
200.000000	69.367	-21.4858
203.000000	69.290	-21.3802
206.000000	69.216	-21.2880
209.000000	69.149	-21.1834
212.000000	69.086	-21.0689
214.000000	69.043	-20.9873
218.000000	68.957	-20.7902
220.000000	68.915	-20.6931
224.000000	68.835	-20.5043
227.000000	68.777	-20.3631
230.000000	68.718	-20.2203
233.000000	68.657	-20.0680
236.000000	68.594	-19.8984
240.000000	68.517	-19.6419
243.000000	68.462	-19.4649
247.000000	68.391	-19.2959
250.000000	68.341	-19.1222
254.000000	68.265	-18.7371
258.000000	68.186	-18.4345
262.000000	68.135	-18.2671
265.000000	68.099	-18.0786
269.000000	68.025	-17.7838
272.000000	67.963	-17.5987
276.000000	67.886	-17.4419
280.000000	67.832	-17.3293
285.000000	67.783	-17.0084
290.000000	67.718	-16.6027
295.000000	67.651	-16.2103
300.000000	67.583	-15.8268
304.000000	67.527	-15.5364
307.000000	67.485	-15.3305
311.000000	67.432	-15.0688
315.000000	67.384	-14.7915
320.000000	67.326	-14.4190
325.000000	67.269	-14.0485
330.000000	67.212	-13.6922
335.000000	67.159	-13.3360
340.000000	67.107	-12.9687
345.000000	67.056	-12.6012
350.000000	67.008	-12.2349
355.000000	66.960	-11.8490
360.000000	66.914	-11.4720
365.000000	66.869	-11.1019
370.000000	66.825	-10.7217
375.000000	66.783	-10.3304
382.000000	66.725	-9.7972
387.000000	66.685	-9.4218
395.000000	66.624	-8.8151
400.000000	66.586	-8.4346
406.000000	66.542	-7.9840
412.000000	66.502	-7.5339
418.000000	66.463	-7.0813
425.000000	66.417	-6.5544
431.000000	66.380	-6.0994
437.000000	66.344	-5.6422
444.000000	66.304	-5.1061
450.000000	66.272	-4.6494
455.000000	66.245	-4.2661
462.000000	66.210	-3.7371
468.000000	66.182	-3.2914
475.000000	66.150	-2.7527
482.000000	66.119	-2.2065
487.000000	66.097	-1.8283
494.000000	66.067	-1.3097
500.000000	66.043	-0.8667
508.000000	66.014	-0.2651
515.000000	65.990	0.2662
522.000000	65.967	0.7942
530.000000	65.943	1.4007
538.000000	65.921	2.0036
545.000000	65.903	2.5256
552.000000	65.887	3.0544
560.000000	65.870	3.6638
570.000000	65.848	4.4236
580.000000	65.830	5.1762
590.000000	65.815	5.9309
600.000000	65.803	6.6790
608.000000	65.795	7.2767
615.000000	65.789	7.8005
622.000000	65.784	8.3228
630.000000	65.781	8.9177
640.000000	65.780	9.6542
650.000000	65.779	10.3944
660.000000	65.780	11.1392
670.000000	65.784	11.8691
680.000000	65.789	12.5966
690.000000	65.795	13.3381
700.000000	65.803	14.0766
710.000000	65.815	14.8072
720.000000	65.829	15.5380
730.000000	65.846	16.2609
740.000000	65.864	16.9878
750.000000	65.883	17.7115
762.000000	65.910	18.5806
775.000000	65.943	19.5200
788.000000	65.981	20.4547
800.000000	66.020	21.3185
812.000000	66.064	22.1761
825.000000	66.115	23.0894
838.000000	66.170	23.9896
850.000000	66.225	24.8068
862.000000	66.285	25.6226
875.000000	66.352	26.5034
885.000000	66.407	27.1612
900.000000	66.494	28.1210
912.000000	66.568	28.8618
925.000000	66.652	29.6383
938.000000	66.738	30.3972
950.000000	66.820	31.0827
962.000000	66.904	31.7434
975.000000	66.999	32.4266
988.000000	67.097	33.0771
1000.000000	67.188	33.6505
1015.000000	67.306	34.3373
1030.000000	67.426	34.9961
1044.000000	67.539	35.5713
1060.000000	67.665	36.1701
1075.000000	67.784	36.6993
1090.000000	67.903	37.2004
1106.000000	68.030	37.6978
1120.000000	68.141	38.1088
1138.000000	68.280	38.6012
1150.000000	68.372	38.9045
1172.000000	68.539	39.4276
1180.000000	68.600	39.6101
1206.000000	68.792	40.1758
1220.000000	68.893	40.4617
1241.000000	69.042	40.8604
1250.000000	69.105	41.0240
1265.000000	69.210	41.2902
1280.000000	69.313	41.5488
1315.000000	69.553	42.1362
1320.000000	69.587	42.2168
1340.000000	69.723	42.5267
1360.000000	69.859	42.8282
1380.000000	69.995	43.1267
1400.000000	70.132	43.4180
1430.000000	70.340	43.8316
1450.000000	70.481	44.0916
1475.000000	70.661	44.3935
1500.000000	70.844	44.6610
1525.000000	71.031	44.8989
1550.000000	71.223	45.1049
1575.000000	71.420	45.2622
1600.000000	71.622	45.3605
1625.000000	71.827	45.3936
1650.000000	72.034	45.3526
1675.000000	72.243	45.2275
1700.000000	72.452	45.0183
1725.000000	72.659	44.7266
1750.000000	72.860	44.3529
1775.000000	73.053	43.9080
1800.000000	73.238	43.4067
1825.000000	73.415	42.8652
1850.000000	73.586	42.3010
1875.000000	73.753	41.7173
1900.000000	73.917	41.1074
1925.000000	74.080	40.4568
1950.000000	74.241	39.7521
1975.000000	74.398	38.9884
2000.000000	74.550	38.1684
2030.000000	74.724	37.1131
2060.000000	74.887	35.9788
2090.000000	75.037	34.7755
2120.000000	75.175	33.5184
2140.000000	75.259	32.6536
2180.000000	75.410	30.8635
2200.000000	75.475	29.9447
2240.000000	75.586	28.0704
2270.000000	75.653	26.6393
2300.000000	75.705	25.1978
2330.000000	75.743	23.7568
2360.000000	75.768	22.3195
2400.000000	75.780	20.4159
2430.000000	75.776	19.0061
2470.000000	75.753	17.1551
2500.000000	75.725	15.7838
2540.000000	75.675	13.9677
2580.000000	75.611	12.1389
2620.000000	75.535	10.2493
2650.000000	75.467	8.7463
2690.000000	75.348	6.5412
2720.000000	75.219	4.6981
2760.000000	74.951	2.0898
2800.000000	74.530	-0.2133
2850.000000	73.836	-1.7505
2900.000000	73.059	-1.2241
2950.000000	72.438	2.1218
3000.000000	72.381	6.0900
3040.000000	72.603	7.4475
3070.000000	72.762	7.1819
3110.000000	72.822	5.6199
3150.000000	72.628	3.7484
3200.000000	72.099	3.0441
3250.000000	71.593	4.7905
3300.000000	71.338	7.3995
3350.000000	71.263	9.6118
3400.000000	71.250	11.2603
3450.000000	71.251	12.5361
3500.000000	71.251	13.6110
3550.000000	71.250	14.5832
3600.000000	71.249	15.4947
3650.000000	71.251	16.3652
3700.000000	71.255	17.1976
3750.000000	71.261	17.9998
3820.000000	71.268	19.1488
3870.000000	71.285	20.0202
3950.000000	71.344	21.3669
4000.000000	71.396	22.0762
4060.000000	71.446	22.7520
4120.000000	71.463	23.4989
4180.000000	71.491	24.5595
4250.000000	71.587	25.8717
4310.000000	71.707	26.8433
4370.000000	71.846	27.6663
4440.000000	72.031	28.4383
4500.000000	72.212	28.8928
4550.000000	72.379	29.0428
4620.000000	72.617	28.6749
4680.000000	72.755	27.6626
4750.000000	72.717	26.3671
4820.000000	72.584	26.5000
4870.000000	72.603	27.0288
4940.000000	72.729	26.8642
5000.000000	72.768	25.4687
5080.000000	72.328	23.0427
5150.000000	71.412	26.0356
5220.000000	71.175	35.0139
5300.000000	72.169	42.1203
5380.000000	73.174	43.2076
5450.000000	73.801	42.3086
5520.000000	74.282	41.0197
5600.000000	74.734	39.3678
5700.000000	75.198	36.9934
5800.000000	75.540	34.3976
5900.000000	75.827	32.0300
6000.000000	76.148	29.3034
6080.000000	76.383	26.3002
6150.000000	76.513	22.8325
6220.000000	76.476	18.5201
6300.000000	76.064	13.5236
6400.000000	74.978	11.0219
6500.000000	73.937	14.7410
6600.000000	73.678	20.6105
6700.000000	73.965	24.7190
6800.000000	74.380	26.9987
6900.000000	74.838	28.2513
7000.000000	75.325	28.6187
7100.000000	75.813	28.1996
7200.000000	76.292	27.1232
7300.000000	76.770	25.3786
7400.000000	77.228	22.7251
7500.000000	77.584	18.9508
7620.000000	77.714	13.6613
7750.000000	77.557	9.3442
7880.000000	77.464	6.6675
8000.000000	77.562	4.0328
8120.000000	77.651	-0.2441
8250.000000	77.455	-5.5841
8380.000000	77.041	-10.0472
8500.000000	76.578	-13.2933
8620.000000	76.090	-15.7747
8750.000000	75.594	-18.1422
8850.000000	75.161	-20.0113
9000.000000	74.361	-21.4462
9120.000000	73.788	-21.1827
9250.000000	73.342	-20.6166
9380.000000	72.999	-20.5455
9500.000000	72.658	-21.0029
9620.000000	72.191	-21.4306
9750.000000	71.522	-20.2643
9880.000000	71.015	-16.5003
10000.000000	70.982	-12.7215
10150.000000	71.321	-9.9768
10300.000000	71.766	-10.0130
10440.000000	72.041	-12.0821
10600.000000	72.133	-15.4353
10750.000000	72.049	-19.0222
10900.000000	71.800	-22.6996
11060.000000	71.421	-26.6411
11200.000000	70.938	-30.5894
11380.000000	69.890	-34.5849
11500.000000	69.024	-35.3396
11720.000000	67.537	-33.4419
11800.000000	67.089	-32.1137
12060.000000	66.032	-28.5133
12200.000000	65.406	-27.8028
12410.000000	63.876	-23.0375
12500.000000	63.203	-18.0535
12650.000000	62.676	-7.5857
12800.000000	62.980	1.8110
13150.000000	64.749	13.9463
13200.000000	65.044	14.8170
13400.000000	66.251	16.0151
13600.000000	67.259	13.3006
13800.000000	67.829	8.2602
14000.000000	68.070	3.2059
14300.000000	68.293	-4.5227
14500.000000	68.308	-11.6817
14750.000000	67.798	-23.3191
15000.000000	66.335	-35.2494
15250.000000	63.717	-41.2702
15500.000000	60.243	-34.3224
15750.000000	57.324	-14.6018
16000.000000	56.803	8.2413
16250.000000	58.234	26.0053
16500.000000	60.418	36.5131
16750.000000	62.749	39.6348
17000.000000	64.821	35.4843
17250.000000	66.262	24.8100
17500.000000	66.796	10.1238
17750.000000	66.374	-4.4696
18000.000000	65.208	-15.6437
18250.000000	63.649	-22.5144
18500.000000	61.988	-25.9555
18750.000000	60.345	-26.9361
19000.000000	58.744	-25.6946
19250.000000	57.251	-22.1646
19500.000000	56.033	-16.9927
19750.000000	55.226	-11.8909
