* Measurement data measured by REW V5.20.13
* Source: 마이크(2- Realtek(R) Audi, MICROPHONE (마스), L, volume: 0.300
* Format: 128k Log Swept Sine, 2 sweeps at -28.0 dBFS with no timing reference
* Dated: 2023. 3. 31 오후 9:02:02
* REW Settings:
*  C-weighting compensation: Off
*  Target level: 75.0 dB
* Note: 
* Measurement: 3월 31
* Smoothing: 1/24 octave
* Frequency Step: 1/48 octave
* Start Frequency: 20.300 Hz
*
* Freq(Hz)	SPL(dB)	Phase(degrees)
20.299999	75.034	39.4279
20.600000	75.052	39.0162
20.900000	75.088	38.2895
21.200001	75.116	37.6196
21.400000	75.131	37.1989
21.799999	75.155	36.3707
22.000000	75.166	35.9496
22.400000	75.184	35.1017
22.700001	75.197	34.4645
23.000000	75.211	33.8220
23.299999	75.225	33.1714
23.600000	75.241	32.5105
24.000000	75.263	31.6129
24.299999	75.280	30.9318
24.700001	75.301	30.0244
25.000000	75.316	29.3545
25.400000	75.334	28.4881
25.799999	75.351	27.6613
26.200001	75.369	26.8748
26.500000	75.383	26.3074
26.900000	75.402	25.5740
27.200001	75.415	25.0377
27.600000	75.431	24.3403
28.000000	75.443	23.6667
28.500000	75.453	22.8634
29.000000	75.461	22.0980
29.500000	75.467	21.3553
30.000000	75.470	20.6223
30.400000	75.472	20.0422
30.700001	75.472	19.6120
31.100000	75.472	19.0444
31.500000	75.472	18.4805
32.000000	75.472	17.7746
32.500000	75.472	17.0669
33.000000	75.470	16.3661
33.500000	75.467	15.6825
34.000000	75.462	15.0227
34.500000	75.457	14.3881
35.000000	75.451	13.7775
35.500000	75.446	13.1856
36.000000	75.440	12.6040
36.500000	75.432	12.0265
37.000000	75.422	11.4537
37.500000	75.409	10.8913
38.200001	75.389	10.1283
38.700001	75.376	9.5944
39.500000	75.357	8.7312
40.000000	75.346	8.1823
40.599998	75.329	7.5315
41.200001	75.313	6.9127
41.799999	75.298	6.3290
42.500000	75.284	5.6782
43.099998	75.271	5.1470
43.700001	75.258	4.6470
44.400002	75.243	4.0845
45.000000	75.227	3.5998
45.500000	75.209	3.2001
46.200001	75.178	2.6666
46.799999	75.151	2.2258
47.500000	75.121	1.6956
48.200001	75.090	1.1400
48.700001	75.068	0.7347
49.400002	75.037	0.1592
50.000000	75.011	-0.3337
50.799999	74.977	-0.9549
51.500000	74.952	-1.4522
52.200001	74.931	-1.9212
53.000000	74.911	-2.4216
53.799999	74.894	-2.9067
54.500000	74.876	-3.3669
55.200001	74.845	-3.8274
56.000000	74.802	-4.2898
57.000000	74.741	-4.8584
58.000000	74.663	-5.2702
59.000000	74.633	-5.4529
60.000000	74.648	-5.9910
60.799999	74.627	-6.6201
61.500000	74.583	-7.0613
62.200001	74.537	-7.3318
63.000000	74.501	-7.5348
64.000000	74.467	-7.8632
65.000000	74.426	-8.1409
66.000000	74.427	-8.5204
67.000000	74.402	-9.4534
68.000000	74.294	-10.2039
69.000000	74.218	-10.6012
70.000000	74.167	-11.1308
71.000000	74.110	-11.5703
72.000000	74.074	-11.9535
73.000000	74.038	-12.3887
74.000000	73.994	-12.7605
75.000000	73.953	-13.1003
76.199997	73.899	-13.5244
77.500000	73.831	-13.9640
78.800003	73.765	-14.3163
80.000000	73.715	-14.6423
81.199997	73.668	-14.9973
82.500000	73.612	-15.3960
83.800003	73.552	-15.7254
85.000000	73.503	-16.0194
86.199997	73.450	-16.3529
87.500000	73.376	-16.6673
88.500000	73.318	-16.7896
90.000000	73.266	-16.9104
91.199997	73.235	-17.2441
92.500000	73.166	-17.6515
93.800003	73.094	-17.8672
95.000000	73.050	-18.0495
96.199997	73.007	-18.3674
97.500000	72.930	-18.6782
98.800003	72.857	-18.7701
100.000000	72.814	-18.9245
101.500000	72.748	-19.3251
103.000000	72.660	-19.7315
104.400002	72.584	-19.9917
106.000000	72.531	-20.2470
107.500000	72.493	-20.5602
109.000000	72.442	-20.7981
110.599998	72.378	-20.9001
112.000000	72.321	-20.9423
113.800003	72.243	-21.0972
115.000000	72.184	-21.3037
117.199997	72.070	-21.6163
118.000000	72.039	-21.6764
120.599998	71.969	-21.8217
122.000000	71.931	-21.8792
124.099998	71.870	-21.9925
125.000000	71.850	-22.0805
126.500000	71.825	-22.3407
128.000000	71.791	-22.6457
131.500000	71.651	-22.8568
132.000000	71.625	-22.8620
134.000000	71.489	-22.9456
136.000000	71.351	-22.8132
138.000000	71.306	-22.8097
140.000000	71.254	-23.0705
143.000000	71.114	-23.1473
145.000000	71.009	-23.0818
147.500000	70.962	-23.1173
150.000000	70.929	-23.3419
152.500000	70.864	-23.4365
155.000000	70.740	-23.6214
157.500000	70.630	-23.6104
160.000000	70.578	-23.5634
162.500000	70.528	-23.4471
165.000000	70.455	-23.3674
167.500000	70.369	-23.4112
170.000000	70.282	-23.4670
172.500000	70.196	-23.4362
175.000000	70.112	-23.2958
177.500000	70.050	-23.2106
180.000000	69.991	-23.1936
182.500000	69.933	-23.0816
185.000000	69.876	-22.9740
187.500000	69.808	-22.9442
190.000000	69.737	-22.9423
192.500000	69.669	-22.9409
195.000000	69.599	-22.8808
197.500000	69.537	-22.7273
200.000000	69.484	-22.5772
203.000000	69.419	-22.4288
206.000000	69.344	-22.2906
209.000000	69.272	-22.1543
212.000000	69.204	-22.0288
214.000000	69.160	-21.9166
218.000000	69.074	-21.6463
220.000000	69.032	-21.5247
224.000000	68.949	-21.3175
227.000000	68.888	-21.1563
230.000000	68.822	-20.9944
233.000000	68.755	-20.7925
236.000000	68.697	-20.5686
240.000000	68.629	-20.3814
243.000000	68.576	-20.2983
247.000000	68.502	-20.0471
250.000000	68.454	-19.8676
254.000000	68.390	-19.5632
258.000000	68.316	-19.0596
262.000000	68.243	-18.7934
265.000000	68.195	-18.6830
269.000000	68.134	-18.4736
272.000000	68.088	-18.2859
276.000000	68.035	-18.0191
280.000000	67.978	-17.7623
285.000000	67.898	-17.4129
290.000000	67.829	-17.0140
295.000000	67.766	-16.6882
300.000000	67.705	-16.3558
304.000000	67.651	-16.0395
307.000000	67.609	-15.7931
311.000000	67.559	-15.4766
315.000000	67.511	-15.1703
320.000000	67.453	-14.7999
325.000000	67.395	-14.4367
330.000000	67.341	-14.0552
335.000000	67.290	-13.6640
340.000000	67.240	-13.2870
345.000000	67.190	-12.8830
350.000000	67.142	-12.4428
355.000000	67.092	-12.0755
360.000000	67.042	-11.6856
365.000000	66.996	-11.3207
370.000000	66.955	-10.9813
375.000000	66.915	-10.5989
382.000000	66.860	-10.0405
387.000000	66.822	-9.6852
395.000000	66.771	-9.0674
400.000000	66.734	-8.6724
406.000000	66.691	-8.2233
412.000000	66.649	-7.7603
418.000000	66.607	-7.3138
425.000000	66.561	-6.7838
431.000000	66.526	-6.3068
437.000000	66.494	-5.8275
444.000000	66.454	-5.2830
450.000000	66.422	-4.8247
455.000000	66.399	-4.4472
462.000000	66.366	-3.9181
468.000000	66.339	-3.4623
475.000000	66.307	-2.9292
482.000000	66.278	-2.3944
487.000000	66.258	-2.0106
494.000000	66.230	-1.4751
500.000000	66.208	-1.0237
508.000000	66.180	-0.4271
515.000000	66.158	0.1008
522.000000	66.137	0.6253
530.000000	66.116	1.2267
538.000000	66.096	1.8491
545.000000	66.078	2.3813
552.000000	66.059	2.8979
560.000000	66.040	3.4971
570.000000	66.022	4.2559
580.000000	66.009	4.9919
590.000000	65.996	5.7389
600.000000	65.983	6.4878
608.000000	65.976	7.0866
615.000000	65.970	7.6029
622.000000	65.966	8.1052
630.000000	65.963	8.6793
640.000000	65.962	9.4146
650.000000	65.962	10.1475
660.000000	65.963	10.8708
670.000000	65.967	11.5882
680.000000	65.976	12.3069
690.000000	65.984	13.0290
700.000000	65.991	13.7401
710.000000	66.004	14.4602
720.000000	66.020	15.1852
730.000000	66.038	15.9075
740.000000	66.057	16.6255
750.000000	66.078	17.3397
762.000000	66.107	18.1870
775.000000	66.140	19.1151
788.000000	66.176	20.0432
800.000000	66.218	20.8700
812.000000	66.265	21.7003
825.000000	66.318	22.5899
838.000000	66.373	23.4645
850.000000	66.429	24.2620
862.000000	66.490	25.0611
875.000000	66.560	25.9060
885.000000	66.618	26.5342
900.000000	66.707	27.4621
912.000000	66.783	28.1839
925.000000	66.868	28.9437
938.000000	66.956	29.6730
950.000000	67.040	30.3154
962.000000	67.128	30.9383
975.000000	67.225	31.5900
988.000000	67.326	32.2110
1000.000000	67.421	32.7589
1015.000000	67.541	33.4059
1030.000000	67.661	34.0162
1044.000000	67.776	34.5579
1060.000000	67.906	35.1238
1075.000000	68.028	35.6046
1090.000000	68.148	36.0598
1106.000000	68.277	36.5070
1120.000000	68.390	36.8616
1138.000000	68.534	37.2932
1150.000000	68.628	37.5577
1172.000000	68.797	38.0015
1180.000000	68.858	38.1515
1206.000000	69.056	38.6075
1220.000000	69.161	38.8331
1241.000000	69.315	39.1579
1250.000000	69.379	39.2890
1265.000000	69.487	39.4987
1280.000000	69.593	39.7037
1315.000000	69.837	40.1306
1320.000000	69.871	40.1857
1340.000000	70.010	40.4012
1360.000000	70.149	40.6120
1380.000000	70.287	40.8101
1400.000000	70.427	40.9992
1430.000000	70.634	41.2543
1450.000000	70.775	41.4045
1475.000000	70.952	41.5761
1500.000000	71.132	41.7296
1525.000000	71.316	41.8517
1550.000000	71.503	41.9410
1575.000000	71.695	42.0010
1600.000000	71.893	42.0208
1625.000000	72.096	41.9889
1650.000000	72.306	41.8969
1675.000000	72.521	41.7317
1700.000000	72.740	41.4842
1725.000000	72.964	41.1516
1750.000000	73.193	40.7271
1775.000000	73.426	40.1950
1800.000000	73.665	39.5343
1825.000000	73.907	38.7297
1850.000000	74.151	37.7576
1875.000000	74.398	36.5829
1900.000000	74.645	35.1558
1925.000000	74.886	33.4006
1950.000000	75.110	31.2176
1975.000000	75.289	28.4927
2000.000000	75.378	25.1633
2030.000000	75.267	20.6247
2060.000000	74.826	16.6449
2090.000000	74.120	15.0870
2120.000000	73.469	16.6051
2140.000000	73.230	18.5942
2180.000000	73.238	22.2288
2200.000000	73.374	23.3138
2240.000000	73.690	24.0818
2270.000000	73.901	23.8392
2300.000000	74.071	23.2100
2330.000000	74.202	22.3630
2360.000000	74.299	21.4001
2400.000000	74.382	20.0384
2430.000000	74.415	19.0086
2470.000000	74.425	17.6745
2500.000000	74.410	16.7240
2540.000000	74.366	15.5577
2580.000000	74.296	14.5451
2620.000000	74.208	13.7383
2650.000000	74.135	13.3031
2690.000000	74.041	12.9790
2720.000000	73.982	12.9430
2760.000000	73.937	13.2262
2800.000000	73.992	13.8738
2850.000000	74.302	14.2453
2900.000000	74.712	12.5330
2950.000000	74.950	9.1908
3000.000000	75.027	5.3759
3040.000000	75.020	1.8713
3070.000000	74.946	-1.2744
3110.000000	74.652	-6.1406
3150.000000	74.002	-10.7223
3200.000000	72.701	-12.8659
3250.000000	71.401	-9.5959
3300.000000	70.702	-4.0579
3350.000000	70.512	0.5886
3400.000000	70.502	3.7671
3450.000000	70.518	6.0489
3500.000000	70.538	7.8931
3550.000000	70.563	9.4457
3600.000000	70.588	10.8110
3650.000000	70.619	12.0479
3700.000000	70.655	13.1437
3750.000000	70.690	14.1188
3820.000000	70.731	15.3746
3870.000000	70.758	16.2497
3950.000000	70.809	17.6554
4000.000000	70.849	18.5133
4060.000000	70.897	19.4935
4120.000000	70.936	20.5429
4180.000000	70.989	21.8821
4250.000000	71.149	23.6739
4310.000000	71.380	24.8446
4370.000000	71.633	25.4590
4440.000000	71.916	25.6418
4500.000000	72.132	25.4559
4550.000000	72.295	25.1492
4620.000000	72.510	24.4659
4680.000000	72.682	23.4226
4750.000000	72.798	21.3347
4820.000000	72.658	18.5759
4870.000000	72.317	17.2763
4940.000000	71.662	18.5384
5000.000000	71.343	22.2446
5080.000000	71.535	27.1477
5150.000000	71.950	29.4709
5220.000000	72.337	30.3397
5300.000000	72.672	30.6326
5380.000000	72.950	31.0750
5450.000000	73.263	31.7189
5520.000000	73.694	31.8966
5600.000000	74.203	30.7127
5700.000000	74.662	27.7354
5800.000000	74.920	24.2159
5900.000000	75.016	20.4324
6000.000000	74.915	16.5138
6080.000000	74.659	13.6494
6150.000000	74.298	11.7593
6220.000000	73.825	10.9995
6300.000000	73.275	12.0745
6400.000000	72.893	15.3641
6500.000000	72.879	18.4191
6600.000000	72.991	20.6578
6700.000000	73.174	22.6817
6800.000000	73.474	24.3887
6900.000000	73.858	25.3546
7000.000000	74.260	25.5000
7100.000000	74.627	24.9636
7200.000000	74.932	24.1522
7300.000000	75.230	23.5250
7400.000000	75.617	22.8308
7500.000000	76.067	21.2761
7620.000000	76.524	18.0946
7750.000000	76.845	14.0631
7880.000000	77.109	10.1768
8000.000000	77.389	5.9024
8120.000000	77.566	0.2018
8250.000000	77.465	-6.9813
8380.000000	76.999	-13.8578
8500.000000	76.308	-18.6854
8620.000000	75.540	-21.7348
8750.000000	74.752	-23.7895
8850.000000	74.173	-24.7744
9000.000000	73.370	-25.3621
9120.000000	72.811	-25.4435
9250.000000	72.254	-25.4443
9380.000000	71.713	-25.3749
9500.000000	71.199	-25.3069
9620.000000	70.602	-24.9746
9750.000000	69.831	-23.2692
9880.000000	69.084	-19.0072
10000.000000	68.740	-13.1120
10150.000000	69.049	-5.9852
10300.000000	69.891	-2.0819
10440.000000	70.761	-2.1942
10600.000000	71.496	-6.2477
10750.000000	71.766	-12.0628
10900.000000	71.673	-18.1640
11060.000000	71.258	-24.2971
11200.000000	70.648	-28.9164
11380.000000	69.576	-32.8688
11500.000000	68.773	-33.8758
11720.000000	67.416	-32.9655
11800.000000	67.002	-32.1774
12060.000000	65.873	-29.2092
12200.000000	65.341	-27.2687
12410.000000	64.683	-23.7889
12500.000000	64.473	-22.2878
12650.000000	64.200	-20.1592
12800.000000	63.951	-18.6321
13150.000000	63.238	-15.6018
13200.000000	63.136	-15.0821
13400.000000	62.783	-13.0174
13600.000000	62.486	-11.5423
13800.000000	62.112	-10.7388
14000.000000	61.577	-9.7847
14300.000000	60.580	-6.2796
14500.000000	59.940	-2.3018
14750.000000	59.323	4.2587
15000.000000	59.077	11.7856
15250.000000	59.195	18.5360
15500.000000	59.448	24.1559
15750.000000	59.824	29.6137
16000.000000	60.477	34.7344
16250.000000	61.418	38.4956
16500.000000	62.575	40.2776
16750.000000	63.917	39.5891
17000.000000	65.355	35.3137
17250.000000	66.600	26.0390
17500.000000	67.230	11.7685
17750.000000	66.942	-4.5764
18000.000000	65.753	-18.6516
18250.000000	63.962	-27.9992
18500.000000	61.941	-32.7736
18750.000000	59.946	-34.0905
19000.000000	58.114	-32.9003
19250.000000	56.533	-30.1334
19500.000000	55.233	-26.8785
19750.000000	54.197	-24.0262
