* Measurement data measured by REW V5.20.13
* Source: EXCL: Microphone(High Definition Audio Device), MICROPHONE (마스), R, volume: 1.000
* Format: 256k Log Swept Sine, 1 sweep at -12.0 dBFS with no timing reference
* Dated: 2023. 2. 22 오후 1:46:00
* REW Settings:
*  C-weighting compensation: Off
*  Target level: 75.0 dB
* Note: 
* Measurement: R_111
* Smoothing: 1/24 octave
* Frequency Step: 1/48 octave
* Start Frequency: 20.300 Hz
*
* Freq(Hz)	SPL(dB)	Phase(degrees)
20.299999	97.379	174.7378
20.600000	97.403	174.6149
20.900000	97.444	174.3579
21.200001	97.462	174.0289
21.400000	97.460	173.8121
21.799999	97.436	173.4612
22.000000	97.422	173.3442
22.400000	97.409	173.1821
22.700001	97.418	173.0150
23.000000	97.432	172.7166
23.299999	97.434	172.2935
23.600000	97.416	171.8242
24.000000	97.363	171.2956
24.299999	97.319	171.0651
24.700001	97.281	170.9486
25.000000	97.277	170.8846
25.400000	97.293	170.6694
25.799999	97.301	170.2836
26.200001	97.282	169.9014
26.500000	97.256	169.7411
26.900000	97.231	169.7336
27.200001	97.235	169.7961
27.600000	97.275	169.7778
28.000000	97.328	169.4804
28.500000	97.356	168.7828
29.000000	97.318	168.1314
29.500000	97.255	167.8444
30.000000	97.230	167.8157
30.400000	97.250	167.7170
30.700001	97.276	167.4985
31.100000	97.297	167.0237
31.500000	97.286	166.4718
32.000000	97.235	165.9451
32.500000	97.186	165.7327
33.000000	97.182	165.6454
33.500000	97.218	165.3869
34.000000	97.248	164.8674
34.500000	97.239	164.2850
35.000000	97.203	163.8710
35.500000	97.168	163.6715
36.000000	97.149	163.5567
36.500000	97.138	163.4304
37.000000	97.125	163.3135
37.500000	97.114	163.2406
38.200001	97.111	163.1162
38.700001	97.111	162.9394
39.500000	97.096	162.5877
40.000000	97.085	162.3409
40.599998	97.069	161.9298
41.200001	97.024	161.4460
41.799999	96.953	161.1462
42.500000	96.895	161.1494
43.099998	96.903	161.1416
43.700001	96.929	160.8542
44.400002	96.929	160.2789
45.000000	96.899	159.8160
45.500000	96.869	159.5166
46.200001	96.832	159.2158
46.799999	96.813	159.0370
47.500000	96.811	158.8068
48.200001	96.818	158.4379
48.700001	96.815	158.1192
49.400002	96.799	157.7078
50.000000	96.784	157.4238
50.799999	96.775	157.1259
51.500000	96.781	156.8883
52.200001	96.793	156.5521
53.000000	96.784	156.0333
53.799999	96.738	155.6125
54.500000	96.694	155.4176
55.200001	96.664	155.2878
56.000000	96.646	155.0985
57.000000	96.628	154.6707
58.000000	96.588	154.0996
59.000000	96.539	153.6213
60.000000	96.499	153.1629
60.799999	96.473	152.8347
61.500000	96.463	152.6077
62.200001	96.469	152.3519
63.000000	96.477	151.9593
64.000000	96.468	151.4377
65.000000	96.447	151.0030
66.000000	96.425	150.5831
67.000000	96.396	150.1398
68.000000	96.363	149.7206
69.000000	96.334	149.2689
70.000000	96.296	148.7996
71.000000	96.258	148.4499
72.000000	96.239	148.1475
73.000000	96.226	147.7870
74.000000	96.209	147.4165
75.000000	96.189	147.0273
76.199997	96.156	146.5565
77.500000	96.121	146.0645
78.800003	96.086	145.5916
80.000000	96.064	145.1431
81.199997	96.037	144.6516
82.500000	96.003	144.2187
83.800003	95.977	143.8333
85.000000	95.948	143.4570
86.199997	95.917	143.0814
87.500000	95.883	142.6355
88.500000	95.860	142.2750
90.000000	95.832	141.6567
91.199997	95.799	141.1354
92.500000	95.762	140.6595
93.800003	95.737	140.1865
95.000000	95.713	139.7157
96.199997	95.685	139.2420
97.500000	95.651	138.7492
98.800003	95.618	138.2986
100.000000	95.585	137.9038
101.500000	95.545	137.4488
103.000000	95.511	136.9608
104.400002	95.475	136.4621
106.000000	95.433	135.8876
107.500000	95.396	135.3651
109.000000	95.364	134.8706
110.599998	95.328	134.3706
112.000000	95.292	133.9934
113.800003	95.253	133.5706
115.000000	95.233	133.2415
117.199997	95.183	132.5309
118.000000	95.160	132.2871
120.599998	95.091	131.5151
122.000000	95.053	131.0663
124.099998	95.005	130.3867
125.000000	94.986	130.0685
126.500000	94.951	129.5581
128.000000	94.917	129.1057
131.500000	94.836	128.0869
132.000000	94.821	127.9452
134.000000	94.763	127.4145
136.000000	94.716	126.8643
138.000000	94.675	126.2150
140.000000	94.633	125.5512
143.000000	94.572	124.6129
145.000000	94.521	123.9996
147.500000	94.448	123.3011
150.000000	94.384	122.6925
152.500000	94.326	122.0864
155.000000	94.268	121.4565
157.500000	94.213	120.7667
160.000000	94.156	120.1127
162.500000	94.102	119.5200
165.000000	94.042	118.8671
167.500000	93.970	118.1633
170.000000	93.903	117.4855
172.500000	93.840	116.8308
175.000000	93.778	116.2438
177.500000	93.724	115.6381
180.000000	93.670	114.9681
182.500000	93.612	114.3397
185.000000	93.556	113.7531
187.500000	93.497	113.1388
190.000000	93.434	112.4913
192.500000	93.371	111.8399
195.000000	93.311	111.2330
197.500000	93.258	110.6556
200.000000	93.210	110.0620
203.000000	93.144	109.3412
206.000000	93.073	108.6802
209.000000	93.008	108.0344
212.000000	92.951	107.3939
214.000000	92.914	106.9820
218.000000	92.839	106.1458
220.000000	92.802	105.7262
224.000000	92.725	104.9408
227.000000	92.657	104.3128
230.000000	92.590	103.5822
233.000000	92.525	102.8638
236.000000	92.455	102.2404
240.000000	92.358	101.4845
243.000000	92.297	100.9376
247.000000	92.217	100.1561
250.000000	92.148	99.5261
254.000000	92.060	98.7359
258.000000	91.984	97.9608
262.000000	91.914	97.1740
265.000000	91.859	96.6034
269.000000	91.774	95.8295
272.000000	91.712	95.2753
276.000000	91.642	94.5015
280.000000	91.569	93.6528
285.000000	91.478	92.7813
290.000000	91.373	91.9716
295.000000	91.271	91.1009
300.000000	91.166	90.1509
304.000000	91.093	89.3836
307.000000	91.052	88.8584
311.000000	90.999	88.1932
315.000000	90.935	87.5049
320.000000	90.850	86.6529
325.000000	90.763	85.8566
330.000000	90.665	85.0845
335.000000	90.588	84.3200
340.000000	90.517	83.5330
345.000000	90.423	82.7174
350.000000	90.324	81.9120
355.000000	90.239	81.1286
360.000000	90.175	80.4210
365.000000	90.111	79.6626
370.000000	90.034	78.8110
375.000000	89.942	78.0169
382.000000	89.812	77.0156
387.000000	89.716	76.3082
395.000000	89.560	75.2327
400.000000	89.475	74.5573
406.000000	89.393	73.7278
412.000000	89.316	72.9688
418.000000	89.230	72.1093
425.000000	89.131	71.0203
431.000000	89.059	70.2150
437.000000	88.989	69.4771
444.000000	88.907	68.5344
450.000000	88.820	67.7694
455.000000	88.742	67.1798
462.000000	88.645	66.2874
468.000000	88.570	65.5191
475.000000	88.489	64.6597
482.000000	88.411	63.7297
487.000000	88.362	63.0593
494.000000	88.292	62.1798
500.000000	88.230	61.4996
508.000000	88.155	60.6690
515.000000	88.080	59.9897
522.000000	87.996	59.2728
530.000000	87.921	58.2769
538.000000	87.847	57.2781
545.000000	87.779	56.5867
552.000000	87.717	55.9939
560.000000	87.642	55.2573
570.000000	87.555	54.2807
580.000000	87.479	53.2090
590.000000	87.402	52.1823
600.000000	87.341	51.3053
608.000000	87.287	50.6147
615.000000	87.246	49.8885
622.000000	87.206	49.2253
630.000000	87.152	48.5623
640.000000	87.088	47.7079
650.000000	87.036	46.8165
660.000000	86.985	45.9425
670.000000	86.934	45.1186
680.000000	86.900	44.3306
690.000000	86.874	43.5960
700.000000	86.845	42.9236
710.000000	86.811	42.3292
720.000000	86.781	41.7598
730.000000	86.763	41.0761
740.000000	86.762	40.3604
750.000000	86.757	39.6688
762.000000	86.734	38.9114
775.000000	86.722	38.1543
788.000000	86.741	37.4196
800.000000	86.766	36.7174
812.000000	86.797	35.9624
825.000000	86.848	35.2078
838.000000	86.898	34.5076
850.000000	86.944	33.9301
862.000000	86.994	33.2952
875.000000	87.059	32.6080
885.000000	87.126	32.1183
900.000000	87.238	31.1905
912.000000	87.319	30.3458
925.000000	87.388	29.5022
938.000000	87.459	28.6404
950.000000	87.529	27.8606
962.000000	87.599	27.0990
975.000000	87.690	26.2548
988.000000	87.792	25.5070
1000.000000	87.870	24.9203
1015.000000	87.981	24.1250
1030.000000	88.110	23.2080
1044.000000	88.212	22.3434
1060.000000	88.334	21.3149
1075.000000	88.464	20.3358
1090.000000	88.598	19.3978
1106.000000	88.740	18.4409
1120.000000	88.871	17.5966
1138.000000	89.036	16.5089
1150.000000	89.146	15.7951
1172.000000	89.345	14.4109
1180.000000	89.415	13.9011
1206.000000	89.636	12.2243
1220.000000	89.761	11.3449
1241.000000	89.948	10.0731
1250.000000	90.023	9.5277
1265.000000	90.143	8.6031
1280.000000	90.259	7.6767
1315.000000	90.529	5.6114
1320.000000	90.566	5.3308
1340.000000	90.721	4.2435
1360.000000	90.871	3.1509
1380.000000	91.012	2.0578
1400.000000	91.155	0.9954
1430.000000	91.375	-0.4358
1450.000000	91.520	-1.3702
1475.000000	91.710	-2.4978
1500.000000	91.902	-3.6114
1525.000000	92.083	-4.7157
1550.000000	92.273	-5.7609
1575.000000	92.465	-6.7477
1600.000000	92.656	-7.6915
1625.000000	92.851	-8.6027
1650.000000	93.039	-9.5225
1675.000000	93.225	-10.4047
1700.000000	93.418	-11.2446
1725.000000	93.614	-12.0692
1750.000000	93.808	-12.8700
1775.000000	93.998	-13.6832
1800.000000	94.192	-14.5069
1825.000000	94.389	-15.3609
1850.000000	94.585	-16.2173
1875.000000	94.778	-17.0477
1900.000000	94.969	-17.8983
1925.000000	95.163	-18.7979
1950.000000	95.355	-19.7344
1975.000000	95.544	-20.6902
2000.000000	95.731	-21.6622
2030.000000	95.945	-22.8484
2060.000000	96.146	-24.0920
2090.000000	96.337	-25.3770
2120.000000	96.523	-26.6533
2140.000000	96.644	-27.5083
2180.000000	96.868	-29.2334
2200.000000	96.971	-30.1022
2240.000000	97.164	-31.8838
2270.000000	97.293	-33.2650
2300.000000	97.407	-34.6517
2330.000000	97.504	-36.0276
2360.000000	97.581	-37.3930
2400.000000	97.656	-39.1597
2430.000000	97.695	-40.4185
2470.000000	97.724	-41.9902
2500.000000	97.729	-43.0882
2540.000000	97.715	-44.4314
2580.000000	97.680	-45.6409
2620.000000	97.631	-46.6944
2650.000000	97.585	-47.3528
2690.000000	97.515	-48.0711
2720.000000	97.459	-48.5038
2760.000000	97.383	-48.9423
2800.000000	97.307	-49.2332
2850.000000	97.219	-49.4041
2900.000000	97.140	-49.3947
2950.000000	97.073	-49.1918
3000.000000	97.018	-48.8523
3040.000000	96.985	-48.5040
3070.000000	96.966	-48.1897
3110.000000	96.950	-47.7089
3150.000000	96.942	-47.1712
3200.000000	96.945	-46.4667
3250.000000	96.960	-45.7174
3300.000000	96.991	-44.9140
3350.000000	97.035	-44.0884
3400.000000	97.091	-43.2522
3450.000000	97.163	-42.4036
3500.000000	97.252	-41.5631
3550.000000	97.355	-40.7339
3600.000000	97.463	-39.9297
3650.000000	97.574	-39.1585
3700.000000	97.691	-38.4293
3750.000000	97.813	-37.7345
3820.000000	97.980	-36.8373
3870.000000	98.092	-36.2574
3950.000000	98.254	-35.3960
4000.000000	98.347	-34.9018
4060.000000	98.449	-34.3449
4120.000000	98.540	-33.8046
4180.000000	98.616	-33.2624
4250.000000	98.686	-32.5777
4310.000000	98.730	-31.9313
4370.000000	98.758	-31.2211
4440.000000	98.777	-30.2878
4500.000000	98.790	-29.4081
4550.000000	98.798	-28.6161
4620.000000	98.813	-27.4005
4680.000000	98.833	-26.2559
4750.000000	98.870	-24.8431
4820.000000	98.923	-23.4279
4870.000000	98.967	-22.4396
4940.000000	99.031	-21.0924
5000.000000	99.087	-19.9594
5080.000000	99.162	-18.4700
5150.000000	99.230	-17.1884
5220.000000	99.299	-15.9237
5300.000000	99.379	-14.5035
5380.000000	99.457	-13.1154
5450.000000	99.522	-11.9258
5520.000000	99.585	-10.7402
5600.000000	99.653	-9.3868
5700.000000	99.739	-7.7284
5800.000000	99.810	-6.2176
5900.000000	99.824	-4.5786
6000.000000	99.864	-2.5829
6080.000000	99.885	-1.1513
6150.000000	99.858	0.4632
6220.000000	99.885	2.6671
6300.000000	100.036	5.2065
6400.000000	100.327	7.8515
6500.000000	100.690	9.8692
6600.000000	101.105	10.9640
6700.000000	101.483	10.7657
6800.000000	101.687	9.4486
6900.000000	101.651	8.0844
7000.000000	101.447	7.8721
7100.000000	101.230	9.1536
7200.000000	101.129	11.4444
7300.000000	101.190	14.0498
7400.000000	101.401	16.4207
7500.000000	101.733	18.1785
7620.000000	102.244	19.1153
7750.000000	102.848	18.3133
7880.000000	103.322	15.2573
8000.000000	103.520	10.3536
8120.000000	103.360	3.9916
8250.000000	102.687	-3.0458
8380.000000	101.532	-8.4304
8500.000000	100.181	-11.0737
8620.000000	98.686	-11.4786
8750.000000	96.981	-9.2047
8850.000000	95.740	-5.7900
9000.000000	94.109	0.5068
9120.000000	92.939	6.2393
9250.000000	91.782	13.0849
9380.000000	90.739	20.4498
9500.000000	89.875	27.5848
9620.000000	89.097	35.0045
9750.000000	88.353	43.3104
9880.000000	87.709	51.7656
10000.000000	87.198	59.6380
10150.000000	86.669	69.5661
10300.000000	86.256	79.5486
10440.000000	85.985	88.8284
10600.000000	85.821	99.2662
10750.000000	85.827	108.6895
10900.000000	86.013	117.4098
11060.000000	86.401	125.1290
11200.000000	86.789	129.4671
11380.000000	86.907	131.3044
11500.000000	86.506	132.2205
11720.000000	85.210	139.4839
11800.000000	84.824	143.4047
12060.000000	83.895	155.9542
12200.000000	83.427	163.0288
12410.000000	82.852	174.0276
12500.000000	82.645	178.5242
12650.000000	82.276	-174.1946
12800.000000	81.882	-166.7177
13150.000000	81.113	-148.5744
13200.000000	81.023	-145.9648
13400.000000	80.724	-135.6202
13600.000000	80.564	-125.7627
13800.000000	80.553	-117.6357
14000.000000	80.418	-113.3243
14300.000000	78.188	-102.4548
14500.000000	76.334	-77.2644
14750.000000	77.724	-45.1391
15000.000000	80.174	-28.2707
15250.000000	82.517	-18.5533
15500.000000	85.226	-13.5146
15750.000000	88.076	-16.8809
16000.000000	90.142	-33.2846
16250.000000	90.414	-60.9507
16500.000000	88.525	-88.2652
16750.000000	84.827	-105.1389
17000.000000	80.049	-111.1056
17250.000000	74.812	-109.6195
17500.000000	69.265	-105.6463
17750.000000	63.566	-156.5352
18000.000000	57.697	26.0952
18250.000000	51.633	125.5574
18500.000000	47.706	-11.9443
18750.000000	48.842	-111.8379
19000.000000	50.814	105.1914
19250.000000	51.680	164.6055
19500.000000	51.689	-39.6084
19750.000000	52.819	80.5195
20000.000000	54.132	-31.2402
