* Measurement data measured by REW V5.20.13
* Source: EXCL: Microphone(High Definition Audio Device), MICROPHONE (마스), R, volume: 1.000
* Format: 256k Log Swept Sine, 1 sweep at -12.0 dBFS with no timing reference
* Dated: 2023. 2. 22 오후 1:55:36
* REW Settings:
*  C-weighting compensation: Off
*  Target level: 75.0 dB
* Note: 
* Measurement: L_000
* Smoothing: 1/24 octave
* Frequency Step: 1/48 octave
* Start Frequency: 20.300 Hz
*
* Freq(Hz)	SPL(dB)	Phase(degrees)
20.299999	87.611	36.4811
20.600000	87.621	36.1432
20.900000	87.646	35.6261
21.200001	87.682	35.3454
21.400000	87.717	35.2300
21.799999	87.808	34.9841
22.000000	87.858	34.7902
22.400000	87.946	34.2536
22.700001	87.990	33.8050
23.000000	88.013	33.4183
23.299999	88.024	33.1645
23.600000	88.035	33.0602
24.000000	88.071	33.1044
24.299999	88.124	33.1752
24.700001	88.224	33.1643
25.000000	88.307	32.9990
25.400000	88.402	32.5655
25.799999	88.459	32.0291
26.200001	88.483	31.5897
26.500000	88.494	31.3828
26.900000	88.520	31.2058
27.200001	88.554	31.0243
27.600000	88.602	30.5644
28.000000	88.617	29.8486
28.500000	88.548	28.9619
29.000000	88.414	28.6638
29.500000	88.315	29.0655
30.000000	88.322	29.6123
30.400000	88.378	29.7564
30.700001	88.419	29.6628
31.100000	88.448	29.4466
31.500000	88.457	29.3282
32.000000	88.485	29.3945
32.500000	88.560	29.4205
33.000000	88.648	29.1230
33.500000	88.700	28.6248
34.000000	88.716	28.2720
34.500000	88.741	28.1433
35.000000	88.797	27.9692
35.500000	88.848	27.5102
36.000000	88.844	26.9141
36.500000	88.785	26.5601
37.000000	88.723	26.6538
37.500000	88.709	27.0222
38.200001	88.776	27.4194
38.700001	88.855	27.4440
39.500000	88.989	27.0157
40.000000	89.049	26.4276
40.599998	89.052	25.6214
41.200001	88.992	25.2393
41.799999	88.960	25.4162
42.500000	89.014	25.6292
43.099998	89.059	25.4147
43.700001	89.045	25.2817
44.400002	89.035	25.6425
45.000000	89.098	25.9561
45.500000	89.166	25.8825
46.200001	89.216	25.4702
46.799999	89.225	25.1766
47.500000	89.232	24.9187
48.200001	89.235	24.7359
48.700001	89.251	24.7146
49.400002	89.322	24.6170
50.000000	89.393	24.1881
50.799999	89.416	23.4625
51.500000	89.402	23.2564
52.200001	89.426	23.2699
53.000000	89.466	23.1346
53.799999	89.477	23.1149
54.500000	89.507	23.3087
55.200001	89.574	23.4018
56.000000	89.646	23.2050
57.000000	89.680	22.8790
58.000000	89.705	22.7559
59.000000	89.743	22.6102
60.000000	89.765	22.4184
60.799999	89.780	22.3310
61.500000	89.800	22.2863
62.200001	89.825	22.2103
63.000000	89.849	22.0967
64.000000	89.884	22.0235
65.000000	89.937	21.8462
66.000000	89.964	21.5856
67.000000	89.987	21.5619
68.000000	90.039	21.5868
69.000000	90.093	21.5128
70.000000	90.137	21.4080
71.000000	90.174	21.2886
72.000000	90.206	21.1342
73.000000	90.231	20.8912
74.000000	90.240	20.6456
75.000000	90.250	20.4835
76.199997	90.281	20.3419
77.500000	90.332	20.1746
78.800003	90.373	19.9621
80.000000	90.397	19.8744
81.199997	90.427	19.8425
82.500000	90.467	19.7959
83.800003	90.510	19.7138
85.000000	90.553	19.6409
86.199997	90.598	19.5279
87.500000	90.627	19.4096
88.500000	90.646	19.4284
90.000000	90.699	19.4169
91.199997	90.732	19.2226
92.500000	90.755	19.0078
93.800003	90.790	18.8380
95.000000	90.841	18.6457
96.199997	90.892	18.3661
97.500000	90.926	18.0846
98.800003	90.943	17.9998
100.000000	90.966	18.0481
101.500000	91.005	18.0508
103.000000	91.036	17.8855
104.400002	91.047	17.7100
106.000000	91.069	17.6009
107.500000	91.101	17.4667
109.000000	91.139	17.3756
110.599998	91.187	17.2489
112.000000	91.220	17.0946
113.800003	91.251	16.9182
115.000000	91.273	16.8384
117.199997	91.332	16.6750
118.000000	91.354	16.5835
120.599998	91.411	16.3543
122.000000	91.442	16.2346
124.099998	91.481	15.9974
125.000000	91.496	15.9035
126.500000	91.523	15.7762
128.000000	91.556	15.6601
131.500000	91.629	15.3318
132.000000	91.637	15.2853
134.000000	91.671	15.0887
136.000000	91.705	14.8727
138.000000	91.749	14.6607
140.000000	91.794	14.4368
143.000000	91.850	14.2178
145.000000	91.888	14.0372
147.500000	91.936	13.7427
150.000000	91.985	13.4682
152.500000	92.028	13.3404
155.000000	92.069	13.2512
157.500000	92.108	12.9754
160.000000	92.140	12.6591
162.500000	92.181	12.4649
165.000000	92.222	12.3446
167.500000	92.254	12.1416
170.000000	92.280	11.8039
172.500000	92.306	11.4914
175.000000	92.337	11.3071
177.500000	92.374	11.1753
180.000000	92.406	10.9871
182.500000	92.428	10.8185
185.000000	92.454	10.6692
187.500000	92.481	10.4980
190.000000	92.510	10.3231
192.500000	92.537	10.1220
195.000000	92.557	9.9019
197.500000	92.577	9.6756
200.000000	92.609	9.4503
203.000000	92.656	9.1457
206.000000	92.689	8.9065
209.000000	92.712	8.7349
212.000000	92.726	8.5040
214.000000	92.735	8.3117
218.000000	92.768	7.9578
220.000000	92.792	7.8211
224.000000	92.835	7.5200
227.000000	92.858	7.2984
230.000000	92.883	7.1363
233.000000	92.914	6.9503
236.000000	92.943	6.7113
240.000000	92.978	6.4089
243.000000	92.998	6.1599
247.000000	93.008	5.8343
250.000000	93.015	5.6527
254.000000	93.029	5.4153
258.000000	93.050	5.1479
262.000000	93.084	4.9157
265.000000	93.110	4.7372
269.000000	93.136	4.4771
272.000000	93.154	4.2635
276.000000	93.172	3.9979
280.000000	93.184	3.7570
285.000000	93.205	3.4888
290.000000	93.230	3.2438
295.000000	93.256	2.9539
300.000000	93.289	2.6232
304.000000	93.308	2.3550
307.000000	93.317	2.1886
311.000000	93.326	1.9647
315.000000	93.343	1.7147
320.000000	93.375	1.5052
325.000000	93.396	1.3607
330.000000	93.410	1.0727
335.000000	93.430	0.7802
340.000000	93.456	0.5367
345.000000	93.474	0.3122
350.000000	93.484	0.0600
355.000000	93.489	-0.2104
360.000000	93.492	-0.4846
365.000000	93.494	-0.7155
370.000000	93.501	-0.9048
375.000000	93.510	-1.0875
382.000000	93.523	-1.3627
387.000000	93.522	-1.5423
395.000000	93.508	-1.8640
400.000000	93.508	-2.0387
406.000000	93.515	-2.2490
412.000000	93.518	-2.4750
418.000000	93.522	-2.6502
425.000000	93.529	-2.8911
431.000000	93.527	-3.1053
437.000000	93.527	-3.3182
444.000000	93.530	-3.5635
450.000000	93.526	-3.7763
455.000000	93.528	-3.9160
462.000000	93.543	-4.0765
468.000000	93.558	-4.2115
475.000000	93.562	-4.3542
482.000000	93.560	-4.5186
487.000000	93.559	-4.6457
494.000000	93.566	-4.8492
500.000000	93.571	-4.9847
508.000000	93.568	-5.0613
515.000000	93.566	-5.1704
522.000000	93.568	-5.3196
530.000000	93.569	-5.4680
538.000000	93.570	-5.5638
545.000000	93.575	-5.6243
552.000000	93.580	-5.7142
560.000000	93.579	-5.8498
570.000000	93.577	-5.9280
580.000000	93.579	-6.0223
590.000000	93.589	-6.1607
600.000000	93.585	-6.2073
608.000000	93.582	-6.2515
615.000000	93.584	-6.2791
622.000000	93.585	-6.2880
630.000000	93.587	-6.2772
640.000000	93.595	-6.2348
650.000000	93.602	-6.2372
660.000000	93.609	-6.2568
670.000000	93.609	-6.2398
680.000000	93.602	-6.1807
690.000000	93.602	-6.1043
700.000000	93.607	-5.9903
710.000000	93.619	-5.8521
720.000000	93.635	-5.7556
730.000000	93.653	-5.6878
740.000000	93.675	-5.5434
750.000000	93.701	-5.3223
762.000000	93.728	-5.1500
775.000000	93.749	-4.9961
788.000000	93.772	-4.7538
800.000000	93.801	-4.5478
812.000000	93.837	-4.3355
825.000000	93.886	-4.0791
838.000000	93.938	-3.8189
850.000000	93.983	-3.6102
862.000000	94.034	-3.4105
875.000000	94.095	-3.1521
885.000000	94.147	-2.9384
900.000000	94.230	-2.6418
912.000000	94.299	-2.4303
925.000000	94.378	-2.2064
938.000000	94.458	-2.0191
950.000000	94.540	-1.8926
962.000000	94.634	-1.7707
975.000000	94.735	-1.6378
988.000000	94.832	-1.5324
1000.000000	94.927	-1.4856
1015.000000	95.050	-1.4342
1030.000000	95.173	-1.4161
1044.000000	95.289	-1.4817
1060.000000	95.421	-1.6112
1075.000000	95.539	-1.7586
1090.000000	95.661	-1.9149
1106.000000	95.799	-2.1026
1120.000000	95.922	-2.3270
1138.000000	96.075	-2.6561
1150.000000	96.174	-2.8920
1172.000000	96.352	-3.3606
1180.000000	96.416	-3.5328
1206.000000	96.610	-4.1576
1220.000000	96.708	-4.4997
1241.000000	96.853	-4.9946
1250.000000	96.913	-5.2086
1265.000000	97.010	-5.5620
1280.000000	97.105	-5.9211
1315.000000	97.321	-6.8030
1320.000000	97.350	-6.9285
1340.000000	97.463	-7.4019
1360.000000	97.571	-7.8373
1380.000000	97.679	-8.2828
1400.000000	97.787	-8.7459
1430.000000	97.948	-9.4130
1450.000000	98.054	-9.8301
1475.000000	98.186	-10.3118
1500.000000	98.318	-10.7808
1525.000000	98.447	-11.2409
1550.000000	98.576	-11.7095
1575.000000	98.707	-12.1634
1600.000000	98.840	-12.6078
1625.000000	98.972	-13.0406
1650.000000	99.104	-13.4448
1675.000000	99.234	-13.8458
1700.000000	99.366	-14.2567
1725.000000	99.499	-14.6649
1750.000000	99.632	-15.0612
1775.000000	99.765	-15.4745
1800.000000	99.902	-15.9056
1825.000000	100.044	-16.3481
1850.000000	100.187	-16.7949
1875.000000	100.328	-17.2696
1900.000000	100.470	-17.7628
1925.000000	100.618	-18.2777
1950.000000	100.769	-18.8509
1975.000000	100.919	-19.4728
2000.000000	101.065	-20.1110
2030.000000	101.237	-20.9204
2060.000000	101.407	-21.7946
2090.000000	101.572	-22.7221
2120.000000	101.730	-23.7137
2140.000000	101.831	-24.4167
2180.000000	102.019	-25.9106
2200.000000	102.103	-26.6971
2240.000000	102.248	-28.3344
2270.000000	102.335	-29.6004
2300.000000	102.401	-30.8706
2330.000000	102.451	-32.1253
2360.000000	102.481	-33.3480
2400.000000	102.495	-34.9071
2430.000000	102.489	-36.0089
2470.000000	102.461	-37.3698
2500.000000	102.426	-38.3006
2540.000000	102.363	-39.4193
2580.000000	102.283	-40.3859
2620.000000	102.190	-41.1941
2650.000000	102.114	-41.6949
2690.000000	102.009	-42.2179
2720.000000	101.928	-42.5099
2760.000000	101.822	-42.7702
2800.000000	101.720	-42.8977
2850.000000	101.598	-42.8991
2900.000000	101.486	-42.7122
2950.000000	101.384	-42.3856
3000.000000	101.296	-41.9520
3040.000000	101.238	-41.5284
3070.000000	101.203	-41.1710
3110.000000	101.165	-40.6520
3150.000000	101.137	-40.0986
3200.000000	101.114	-39.3469
3250.000000	101.103	-38.5422
3300.000000	101.107	-37.7056
3350.000000	101.124	-36.8496
3400.000000	101.156	-35.9911
3450.000000	101.206	-35.1355
3500.000000	101.271	-34.2911
3550.000000	101.349	-33.4701
3600.000000	101.436	-32.6880
3650.000000	101.530	-31.9436
3700.000000	101.630	-31.2375
3750.000000	101.734	-30.5768
3820.000000	101.882	-29.7290
3870.000000	101.985	-29.1755
3950.000000	102.137	-28.3704
4000.000000	102.224	-27.9121
4060.000000	102.321	-27.3926
4120.000000	102.408	-26.8899
4180.000000	102.484	-26.3874
4250.000000	102.558	-25.7734
4310.000000	102.606	-25.2020
4370.000000	102.637	-24.5750
4440.000000	102.660	-23.7720
4500.000000	102.677	-23.0004
4550.000000	102.692	-22.2935
4620.000000	102.720	-21.2242
4680.000000	102.756	-20.2754
4750.000000	102.808	-19.1821
4820.000000	102.861	-18.1103
4870.000000	102.897	-17.3525
4940.000000	102.945	-16.2958
5000.000000	102.986	-15.3934
5080.000000	103.041	-14.1972
5150.000000	103.089	-13.1485
5220.000000	103.136	-12.0969
5300.000000	103.187	-10.9104
5380.000000	103.233	-9.7298
5450.000000	103.272	-8.6928
5520.000000	103.309	-7.6475
5600.000000	103.350	-6.4392
5700.000000	103.403	-4.9513
5800.000000	103.443	-3.5984
5900.000000	103.427	-2.0715
6000.000000	103.443	-0.1928
6080.000000	103.442	1.1423
6150.000000	103.396	2.6819
6220.000000	103.402	4.8135
6300.000000	103.530	7.2775
6400.000000	103.791	9.8730
6500.000000	104.131	11.9100
6600.000000	104.534	13.0390
6700.000000	104.907	12.8320
6800.000000	105.107	11.4708
6900.000000	105.066	10.0595
7000.000000	104.859	9.8166
7100.000000	104.642	11.0929
7200.000000	104.546	13.4073
7300.000000	104.617	16.0843
7400.000000	104.854	18.5874
7500.000000	105.241	20.4924
7620.000000	105.868	21.4517
7750.000000	106.638	20.1262
7880.000000	107.245	15.6576
8000.000000	107.449	8.8422
8120.000000	107.148	0.7213
8250.000000	106.215	-7.2040
8380.000000	104.806	-12.3477
8500.000000	103.299	-14.3186
8620.000000	101.724	-14.0852
8750.000000	99.983	-11.2241
8850.000000	98.748	-7.4864
9000.000000	97.150	-1.0296
9120.000000	96.007	4.6503
9250.000000	94.873	11.3171
9380.000000	93.843	18.4154
9500.000000	92.982	25.2724
9620.000000	92.207	32.3522
9750.000000	91.459	40.1984
9880.000000	90.804	48.1538
10000.000000	90.279	55.5574
10150.000000	89.723	64.8061
10300.000000	89.276	73.9520
10440.000000	88.959	82.3076
10600.000000	88.712	91.4263
10750.000000	88.582	99.2841
10900.000000	88.520	106.0512
11060.000000	88.420	111.4297
11200.000000	88.108	114.5382
11380.000000	87.056	119.3029
11500.000000	86.002	126.1868
11720.000000	84.864	146.2670
11800.000000	84.947	152.9299
12060.000000	85.305	166.9521
12200.000000	85.209	173.2428
12410.000000	84.987	-176.7920
12500.000000	84.897	-172.6798
12650.000000	84.689	-166.0538
12800.000000	84.416	-159.1971
13150.000000	83.840	-142.2080
13200.000000	83.774	-139.7512
13400.000000	83.569	-130.0047
13600.000000	83.494	-120.7678
13800.000000	83.558	-113.3443
14000.000000	83.462	-110.0046
14300.000000	81.123	-100.0169
14500.000000	79.140	-73.6509
14750.000000	80.716	-40.0205
15000.000000	83.342	-23.2518
15250.000000	85.820	-13.7808
15500.000000	88.681	-8.6620
15750.000000	91.736	-11.7084
16000.000000	94.018	-28.0352
16250.000000	94.467	-56.0261
16500.000000	92.727	-83.5285
16750.000000	89.207	-100.2075
17000.000000	84.698	-105.5680
17250.000000	79.856	-102.6270
17500.000000	74.937	-92.4440
17750.000000	70.250	-77.4503
18000.000000	65.926	-59.4248
18250.000000	61.859	-39.0317
18500.000000	58.004	-20.4912
18750.000000	54.448	-41.6867
19000.000000	51.761	127.9551
19250.000000	51.395	97.2984
19500.000000	52.865	166.1240
19750.000000	54.381	56.2021
20000.000000	55.324	22.2778
