* Measurement data measured by REW V5.20.13
* Source: EXCL: Microphone(High Definition Audio Device), MICROPHONE (마스), R, volume: 1.000
* Format: 256k Log Swept Sine, 1 sweep at -12.0 dBFS with no timing reference
* Dated: 2023. 2. 19 오후 8:53:38
* REW Settings:
*  C-weighting compensation: Off
*  Target level: 75.0 dB
* Note: 
* Measurement: R
* Smoothing: 1/24 octave
* Frequency Step: 1/48 octave
* Start Frequency: 20.300 Hz
*
* Freq(Hz)	SPL(dB)	Phase(degrees)
20.299999	95.944	-170.1742
20.600000	95.960	-170.2272
20.900000	95.987	-170.3203
21.200001	96.004	-170.4031
21.400000	96.009	-170.4494
21.799999	96.014	-170.5281
22.000000	96.017	-170.5671
22.400000	96.023	-170.6612
22.700001	96.030	-170.7593
23.000000	96.037	-170.8874
23.299999	96.042	-171.0421
23.600000	96.046	-171.2158
24.000000	96.051	-171.4610
24.299999	96.056	-171.6422
24.700001	96.065	-171.8695
25.000000	96.074	-172.0272
25.400000	96.089	-172.2217
25.799999	96.109	-172.4010
26.200001	96.132	-172.5716
26.500000	96.150	-172.7008
26.900000	96.171	-172.8807
27.200001	96.183	-173.0181
27.600000	96.192	-173.1900
28.000000	96.196	-173.3266
28.500000	96.199	-173.4313
29.000000	96.203	-173.4864
29.500000	96.211	-173.5459
30.000000	96.220	-173.6552
30.400000	96.226	-173.7792
30.700001	96.228	-173.8823
31.100000	96.228	-174.0185
31.500000	96.226	-174.1477
32.000000	96.224	-174.3063
32.500000	96.226	-174.4771
33.000000	96.231	-174.6707
33.500000	96.241	-174.8838
34.000000	96.252	-175.1036
34.500000	96.262	-175.3182
35.000000	96.269	-175.5142
35.500000	96.276	-175.6749
36.000000	96.283	-175.7963
36.500000	96.294	-175.8937
37.000000	96.308	-175.9987
37.500000	96.319	-176.1356
38.200001	96.323	-176.3557
38.700001	96.316	-176.4812
39.500000	96.306	-176.6103
40.000000	96.303	-176.6976
40.599998	96.300	-176.8314
41.200001	96.295	-176.9610
41.799999	96.296	-177.0772
42.500000	96.308	-177.2492
43.099998	96.322	-177.4460
43.700001	96.332	-177.6495
44.400002	96.340	-177.8668
45.000000	96.347	-178.0455
45.500000	96.352	-178.1916
46.200001	96.358	-178.3683
46.799999	96.359	-178.4628
47.500000	96.365	-178.5065
48.200001	96.379	-178.5470
48.700001	96.389	-178.6045
49.400002	96.399	-178.7082
50.000000	96.404	-178.8041
50.799999	96.406	-178.9604
51.500000	96.395	-179.0646
52.200001	96.387	-179.0704
53.000000	96.406	-179.1350
53.799999	96.425	-179.4798
54.500000	96.407	-179.8378
55.200001	96.379	179.9743
56.000000	96.371	179.8887
57.000000	96.380	179.7330
58.000000	96.397	179.5938
59.000000	96.426	179.4133
60.000000	96.433	179.1220
60.799999	96.416	178.9575
61.500000	96.401	178.9288
62.200001	96.396	178.9279
63.000000	96.395	178.8460
64.000000	96.385	178.6940
65.000000	96.379	178.5857
66.000000	96.385	178.4041
67.000000	96.389	178.1827
68.000000	96.392	178.0057
69.000000	96.397	177.8573
70.000000	96.393	177.7201
71.000000	96.374	177.6839
72.000000	96.361	177.7745
73.000000	96.365	177.8198
74.000000	96.371	177.7085
75.000000	96.368	177.4767
76.199997	96.351	177.1600
77.500000	96.324	176.8980
78.800003	96.308	176.8400
80.000000	96.316	176.7980
81.199997	96.317	176.6908
82.500000	96.305	176.6649
83.800003	96.302	176.7304
85.000000	96.315	176.7468
86.199997	96.330	176.6496
87.500000	96.335	176.4760
88.500000	96.330	176.3396
90.000000	96.317	176.1782
91.199997	96.313	176.0609
92.500000	96.327	175.8538
93.800003	96.351	175.5028
95.000000	96.366	175.1681
96.199997	96.373	174.9522
97.500000	96.376	174.9359
98.800003	96.373	175.0089
100.000000	96.343	175.1144
101.500000	96.298	175.2790
103.000000	96.253	175.2254
104.400002	96.223	175.1663
106.000000	96.236	175.0716
107.500000	96.271	175.0066
109.000000	96.295	174.9643
110.599998	96.279	175.0179
112.000000	96.257	175.1725
113.800003	96.267	175.0269
115.000000	96.268	174.6467
117.199997	96.257	174.0433
118.000000	96.256	173.9203
120.599998	96.249	173.7797
122.000000	96.234	173.7911
124.099998	96.224	173.8050
125.000000	96.227	173.7608
126.500000	96.236	173.6304
128.000000	96.238	173.4927
131.500000	96.219	173.5067
132.000000	96.217	173.5192
134.000000	96.209	173.5199
136.000000	96.202	173.4648
138.000000	96.200	173.4158
140.000000	96.204	173.3779
143.000000	96.206	173.3044
145.000000	96.195	173.3065
147.500000	96.194	173.4933
150.000000	96.216	173.7170
152.500000	96.269	173.7813
155.000000	96.327	173.5444
157.500000	96.389	173.2200
160.000000	96.437	172.8128
162.500000	96.458	172.4210
165.000000	96.464	172.0225
167.500000	96.459	171.6428
170.000000	96.445	171.2239
172.500000	96.416	170.8094
175.000000	96.389	170.4872
177.500000	96.365	170.2594
180.000000	96.335	170.0988
182.500000	96.303	169.9613
185.000000	96.277	169.8156
187.500000	96.256	169.7050
190.000000	96.233	169.6303
192.500000	96.205	169.5292
195.000000	96.176	169.3938
197.500000	96.153	169.2614
200.000000	96.133	169.1563
203.000000	96.114	169.0432
206.000000	96.100	168.9637
209.000000	96.090	168.8683
212.000000	96.077	168.7272
214.000000	96.066	168.6530
218.000000	96.043	168.5991
220.000000	96.029	168.5754
224.000000	96.006	168.4568
227.000000	95.987	168.3769
230.000000	95.963	168.3275
233.000000	95.947	168.2409
236.000000	95.934	168.1569
240.000000	95.911	168.1594
243.000000	95.891	168.2188
247.000000	95.866	168.2339
250.000000	95.841	168.1716
254.000000	95.806	168.1073
258.000000	95.777	168.1568
262.000000	95.759	168.2333
265.000000	95.744	168.2699
269.000000	95.719	168.3620
272.000000	95.707	168.4402
276.000000	95.702	168.4759
280.000000	95.707	168.4958
285.000000	95.722	168.5609
290.000000	95.728	168.6434
295.000000	95.736	168.6695
300.000000	95.751	168.6185
304.000000	95.766	168.5545
307.000000	95.775	168.5146
311.000000	95.783	168.4417
315.000000	95.789	168.3633
320.000000	95.796	168.3208
325.000000	95.806	168.2242
330.000000	95.817	168.1257
335.000000	95.819	168.0510
340.000000	95.824	167.9121
345.000000	95.830	167.7618
350.000000	95.830	167.5873
355.000000	95.823	167.3767
360.000000	95.811	167.1379
365.000000	95.788	166.9239
370.000000	95.759	166.7538
375.000000	95.731	166.5778
382.000000	95.686	166.3619
387.000000	95.639	166.2787
395.000000	95.580	166.1776
400.000000	95.555	166.1338
406.000000	95.521	166.0879
412.000000	95.487	166.0087
418.000000	95.448	165.9737
425.000000	95.401	165.9810
431.000000	95.379	166.0496
437.000000	95.360	166.1317
444.000000	95.318	166.1600
450.000000	95.281	166.2285
455.000000	95.253	166.3251
462.000000	95.218	166.4192
468.000000	95.192	166.4337
475.000000	95.158	166.4675
482.000000	95.119	166.5894
487.000000	95.102	166.6912
494.000000	95.086	166.8332
500.000000	95.065	166.9750
508.000000	95.034	167.1626
515.000000	95.007	167.3262
522.000000	94.980	167.4809
530.000000	94.958	167.6406
538.000000	94.941	167.8688
545.000000	94.917	168.1144
552.000000	94.889	168.3109
560.000000	94.873	168.5226
570.000000	94.863	168.8378
580.000000	94.836	169.1429
590.000000	94.820	169.4696
600.000000	94.805	169.8281
608.000000	94.801	170.1193
615.000000	94.797	170.3839
622.000000	94.789	170.6582
630.000000	94.780	170.9636
640.000000	94.778	171.3230
650.000000	94.783	171.7011
660.000000	94.788	172.0746
670.000000	94.792	172.4174
680.000000	94.802	172.8231
690.000000	94.806	173.2471
700.000000	94.814	173.6533
710.000000	94.833	174.0575
720.000000	94.858	174.4809
730.000000	94.882	174.8689
740.000000	94.896	175.2316
750.000000	94.915	175.6079
762.000000	94.962	176.0892
775.000000	95.009	176.5625
788.000000	95.050	177.0305
800.000000	95.095	177.4808
812.000000	95.149	177.9719
825.000000	95.213	178.4570
838.000000	95.281	178.8333
850.000000	95.343	179.1931
862.000000	95.414	179.5930
875.000000	95.499	-179.9747
885.000000	95.562	-179.6682
900.000000	95.663	-179.3016
912.000000	95.752	-179.0659
925.000000	95.849	-178.7972
938.000000	95.948	-178.5394
950.000000	96.042	-178.3548
962.000000	96.139	-178.2063
975.000000	96.244	-178.0885
988.000000	96.351	-178.0320
1000.000000	96.457	-177.9945
1015.000000	96.592	-177.9785
1030.000000	96.721	-178.0172
1044.000000	96.838	-178.0831
1060.000000	96.975	-178.2477
1075.000000	97.097	-178.4731
1090.000000	97.219	-178.7286
1106.000000	97.357	-179.0445
1120.000000	97.478	-179.3465
1138.000000	97.628	-179.7701
1150.000000	97.722	179.9158
1172.000000	97.888	179.2836
1180.000000	97.946	179.0453
1206.000000	98.129	178.2096
1220.000000	98.223	177.7017
1241.000000	98.357	176.9180
1250.000000	98.412	176.5870
1265.000000	98.502	176.0309
1280.000000	98.587	175.4575
1315.000000	98.774	174.1330
1320.000000	98.800	173.9416
1340.000000	98.903	173.1568
1360.000000	98.993	172.3395
1380.000000	99.081	171.4968
1400.000000	99.170	170.6395
1430.000000	99.290	169.3073
1450.000000	99.363	168.3882
1475.000000	99.447	167.2327
1500.000000	99.526	166.0621
1525.000000	99.596	164.8799
1550.000000	99.652	163.6819
1575.000000	99.699	162.4552
1600.000000	99.739	161.2034
1625.000000	99.769	159.9513
1650.000000	99.783	158.7019
1675.000000	99.780	157.4491
1700.000000	99.764	156.2245
1725.000000	99.730	155.0548
1750.000000	99.682	153.9378
1775.000000	99.625	152.9221
1800.000000	99.566	152.0879
1825.000000	99.519	151.4256
1850.000000	99.505	150.8210
1875.000000	99.524	150.0839
1900.000000	99.556	149.0519
1925.000000	99.567	147.7447
1950.000000	99.534	146.3191
1975.000000	99.462	144.9118
2000.000000	99.362	143.6017
2030.000000	99.218	142.1856
2060.000000	99.055	140.9237
2090.000000	98.880	139.8316
2120.000000	98.699	138.8989
2140.000000	98.576	138.3436
2180.000000	98.328	137.4108
2200.000000	98.203	137.0346
2240.000000	97.957	136.4286
2270.000000	97.781	136.0735
2300.000000	97.611	135.7507
2330.000000	97.442	135.4440
2360.000000	97.269	135.1888
2400.000000	97.038	134.9576
2430.000000	96.866	134.8799
2470.000000	96.636	134.9120
2500.000000	96.468	135.0167
2540.000000	96.252	135.2714
2580.000000	96.046	135.6208
2620.000000	95.852	136.0498
2650.000000	95.711	136.4254
2690.000000	95.532	136.9911
2720.000000	95.402	137.4672
2760.000000	95.234	138.1747
2800.000000	95.073	138.9822
2850.000000	94.885	140.1370
2900.000000	94.731	141.4833
2950.000000	94.626	142.9910
3000.000000	94.577	144.4525
3040.000000	94.571	145.4595
3070.000000	94.576	146.0848
3110.000000	94.582	146.7821
3150.000000	94.581	147.4016
3200.000000	94.569	148.1465
3250.000000	94.556	148.9246
3300.000000	94.550	149.7382
3350.000000	94.553	150.5612
3400.000000	94.572	151.3671
3450.000000	94.610	152.1212
3500.000000	94.667	152.7892
3550.000000	94.736	153.3443
3600.000000	94.809	153.7633
3650.000000	94.879	154.0615
3700.000000	94.938	154.2772
3750.000000	94.983	154.4301
3820.000000	95.018	154.6136
3870.000000	95.028	154.8254
3950.000000	95.052	155.4173
4000.000000	95.092	155.8356
4060.000000	95.171	156.2243
4120.000000	95.272	156.3982
4180.000000	95.375	156.2716
4250.000000	95.479	155.7862
4310.000000	95.537	155.1651
4370.000000	95.554	154.3738
4440.000000	95.522	153.2911
4500.000000	95.454	152.3075
4550.000000	95.363	151.4964
4620.000000	95.186	150.4452
4680.000000	94.996	149.6799
4750.000000	94.738	149.0133
4820.000000	94.446	148.6138
4870.000000	94.219	148.5089
4940.000000	93.885	148.6930
5000.000000	93.596	149.1599
5080.000000	93.220	150.1199
5150.000000	92.911	151.2611
5220.000000	92.625	152.6863
5300.000000	92.330	154.5927
5380.000000	92.078	156.7216
5450.000000	91.893	158.7180
5520.000000	91.743	160.8152
5600.000000	91.617	163.3225
5700.000000	91.534	166.5669
5800.000000	91.533	169.8796
5900.000000	91.620	173.1219
6000.000000	91.807	176.1944
6080.000000	92.036	178.4987
6150.000000	92.297	-179.6807
6220.000000	92.617	-178.1243
6300.000000	93.056	-176.7714
6400.000000	93.715	-175.9510
6500.000000	94.483	-176.5182
6600.000000	95.304	-179.0492
6700.000000	96.068	175.8717
6800.000000	96.598	167.8967
6900.000000	96.693	157.5371
7000.000000	96.217	146.4121
7100.000000	95.172	136.3383
7200.000000	93.635	128.2204
7300.000000	91.578	123.3427
7400.000000	88.988	124.4117
7500.000000	86.030	135.5899
7620.000000	83.779	161.9830
7750.000000	85.185	-174.0796
7880.000000	87.062	-166.1762
8000.000000	88.077	-165.2036
8120.000000	88.664	-165.0359
8250.000000	89.139	-164.4328
8380.000000	89.653	-163.7097
8500.000000	90.247	-163.7488
8620.000000	90.938	-165.4085
8750.000000	91.652	-170.1190
8850.000000	92.012	-176.2289
9000.000000	91.914	171.4622
9120.000000	91.122	161.3972
9250.000000	89.624	153.3183
9380.000000	87.732	149.4743
9500.000000	85.896	149.3207
9620.000000	84.131	151.5842
9750.000000	82.394	155.8358
9880.000000	80.862	161.3688
10000.000000	79.605	167.4128
10150.000000	78.203	176.1288
10300.000000	77.003	-173.7300
10440.000000	76.192	-163.0700
10600.000000	75.784	-150.4224
10750.000000	75.953	-139.6213
10900.000000	76.459	-131.2302
11060.000000	77.129	-124.8881
11200.000000	77.892	-120.7723
11380.000000	79.455	-119.2251
11500.000000	80.692	-124.1298
11720.000000	81.375	-152.1814
11800.000000	80.619	-164.5212
12060.000000	74.410	-177.2955
12200.000000	69.642	-162.6328
12410.000000	62.944	-120.4485
12500.000000	61.387	-99.3454
12650.000000	61.437	-66.9501
12800.000000	63.118	-42.0100
13150.000000	67.886	-6.9101
13200.000000	68.587	-3.5176
13400.000000	71.529	7.1526
13600.000000	74.744	12.9317
13800.000000	77.860	10.9008
14000.000000	80.068	-1.2688
14300.000000	80.861	-27.7508
14500.000000	80.116	-42.4156
14750.000000	78.153	-53.8724
15000.000000	75.348	-51.7250
15250.000000	73.703	-37.4547
15500.000000	75.209	-23.4374
15750.000000	78.250	-22.4951
16000.000000	80.209	-39.6946
16250.000000	80.368	-63.4943
16500.000000	79.672	-84.9179
16750.000000	78.560	-107.5424
17000.000000	76.431	-128.9012
17250.000000	73.317	-141.5587
17500.000000	70.292	-145.6979
17750.000000	68.647	-148.2388
18000.000000	68.411	-157.2070
18250.000000	68.130	-176.0695
18500.000000	66.528	163.3540
18750.000000	63.574	152.7047
19000.000000	60.276	153.1130
19250.000000	58.035	158.1879
19500.000000	57.221	160.3721
19750.000000	56.721	156.2123
20000.000000	56.224	151.3614
