* Measurement data measured by REW V5.20.13
* Source: EXCL: Microphone(High Definition Audio Device), MICROPHONE (마스), R, volume: 1.000
* Format: 256k Log Swept Sine, 1 sweep at -12.0 dBFS with no timing reference
* Dated: 2023. 2. 19 오후 8:56:51
* REW Settings:
*  C-weighting compensation: Off
*  Target level: 75.0 dB
* Note: 
* Measurement: L
* Smoothing: 1/24 octave
* Frequency Step: 1/48 octave
* Start Frequency: 20.300 Hz
*
* Freq(Hz)	SPL(dB)	Phase(degrees)
20.299999	98.128	10.1109
20.600000	98.147	10.0638
20.900000	98.183	9.9788
21.200001	98.211	9.8941
21.400000	98.226	9.8359
21.799999	98.247	9.7080
22.000000	98.256	9.6357
22.400000	98.271	9.4730
22.700001	98.281	9.3329
23.000000	98.289	9.1765
23.299999	98.295	9.0065
23.600000	98.300	8.8286
24.000000	98.306	8.5912
24.299999	98.313	8.4215
24.700001	98.326	8.2088
25.000000	98.338	8.0537
25.400000	98.358	7.8439
25.799999	98.379	7.6318
26.200001	98.397	7.4311
26.500000	98.409	7.2970
26.900000	98.423	7.1446
27.200001	98.432	7.0465
27.600000	98.445	6.9260
28.000000	98.458	6.8015
28.500000	98.472	6.6274
29.000000	98.478	6.4440
29.500000	98.476	6.2728
30.000000	98.473	6.1119
30.400000	98.473	5.9734
30.700001	98.475	5.8559
31.100000	98.477	5.6797
31.500000	98.476	5.4898
32.000000	98.470	5.2568
32.500000	98.466	5.0473
33.000000	98.471	4.8507
33.500000	98.485	4.6408
34.000000	98.503	4.4073
34.500000	98.519	4.1678
35.000000	98.530	3.9557
35.500000	98.539	3.7956
36.000000	98.551	3.6794
36.500000	98.566	3.5770
37.000000	98.582	3.4586
37.500000	98.593	3.3162
38.200001	98.594	3.1232
38.700001	98.589	3.0325
39.500000	98.591	2.9329
40.000000	98.600	2.8183
40.599998	98.608	2.5877
41.200001	98.604	2.3146
41.799999	98.594	2.0802
42.500000	98.587	1.8804
43.099998	98.591	1.7336
43.700001	98.600	1.5832
44.400002	98.609	1.4000
45.000000	98.615	1.2448
45.500000	98.620	1.1278
46.200001	98.629	0.9919
46.799999	98.640	0.8862
47.500000	98.653	0.7349
48.200001	98.660	0.5530
48.700001	98.661	0.4335
49.400002	98.663	0.3019
50.000000	98.669	0.1970
50.799999	98.683	0.0429
51.500000	98.694	-0.0819
52.200001	98.707	-0.2053
53.000000	98.722	-0.3796
53.799999	98.729	-0.5656
54.500000	98.730	-0.7075
55.200001	98.732	-0.8280
56.000000	98.734	-0.9528
57.000000	98.736	-1.1206
58.000000	98.737	-1.3302
59.000000	98.730	-1.5609
60.000000	98.715	-1.7533
60.799999	98.709	-1.8791
61.500000	98.709	-1.9900
62.200001	98.711	-2.1049
63.000000	98.713	-2.2398
64.000000	98.715	-2.4024
65.000000	98.715	-2.5141
66.000000	98.724	-2.6312
67.000000	98.730	-2.8259
68.000000	98.722	-3.0027
69.000000	98.715	-3.1189
70.000000	98.714	-3.2463
71.000000	98.712	-3.3993
72.000000	98.706	-3.5448
73.000000	98.698	-3.6544
74.000000	98.694	-3.7467
75.000000	98.692	-3.8590
76.199997	98.689	-4.0025
77.500000	98.689	-4.1461
78.800003	98.692	-4.3052
80.000000	98.693	-4.4767
81.199997	98.691	-4.6306
82.500000	98.691	-4.7492
83.800003	98.693	-4.8319
85.000000	98.697	-4.9470
86.199997	98.694	-5.1090
87.500000	98.682	-5.2944
88.500000	98.673	-5.4156
90.000000	98.668	-5.5666
91.199997	98.665	-5.6824
92.500000	98.663	-5.7688
93.800003	98.665	-5.8549
95.000000	98.663	-5.9909
96.199997	98.650	-6.1564
97.500000	98.633	-6.3234
98.800003	98.612	-6.4470
100.000000	98.598	-6.4798
101.500000	98.593	-6.5030
103.000000	98.587	-6.5391
104.400002	98.577	-6.5618
106.000000	98.567	-6.5309
107.500000	98.573	-6.4915
109.000000	98.591	-6.4586
110.599998	98.620	-6.4137
112.000000	98.648	-6.4261
113.800003	98.669	-6.5414
115.000000	98.677	-6.6473
117.199997	98.692	-6.8906
118.000000	98.701	-6.9950
120.599998	98.724	-7.3688
122.000000	98.730	-7.5507
124.099998	98.723	-7.8125
125.000000	98.716	-7.8966
126.500000	98.709	-8.0093
128.000000	98.707	-8.1555
131.500000	98.668	-8.4391
132.000000	98.661	-8.4526
134.000000	98.638	-8.4922
136.000000	98.613	-8.5467
138.000000	98.580	-8.4785
140.000000	98.567	-8.2508
143.000000	98.591	-7.8851
145.000000	98.629	-7.7063
147.500000	98.698	-7.5619
150.000000	98.782	-7.6104
152.500000	98.856	-7.9217
155.000000	98.905	-8.4426
157.500000	98.933	-9.0348
160.000000	98.944	-9.5706
162.500000	98.942	-9.9833
165.000000	98.934	-10.2826
167.500000	98.928	-10.5562
170.000000	98.919	-10.9005
172.500000	98.901	-11.2830
175.000000	98.876	-11.6226
177.500000	98.855	-11.9154
180.000000	98.835	-12.1976
182.500000	98.812	-12.4501
185.000000	98.785	-12.6680
187.500000	98.756	-12.8365
190.000000	98.733	-12.9988
192.500000	98.713	-13.1929
195.000000	98.693	-13.3982
197.500000	98.669	-13.5709
200.000000	98.648	-13.6947
203.000000	98.629	-13.8283
206.000000	98.611	-13.9684
209.000000	98.588	-14.1038
212.000000	98.567	-14.2208
214.000000	98.556	-14.3021
218.000000	98.526	-14.4843
220.000000	98.507	-14.5768
224.000000	98.467	-14.7487
227.000000	98.444	-14.8556
230.000000	98.422	-14.9319
233.000000	98.400	-14.9587
236.000000	98.384	-14.9974
240.000000	98.366	-15.1236
243.000000	98.345	-15.2078
247.000000	98.308	-15.2779
250.000000	98.285	-15.3353
254.000000	98.264	-15.4395
258.000000	98.232	-15.5635
262.000000	98.200	-15.6718
265.000000	98.182	-15.7454
269.000000	98.147	-15.8269
272.000000	98.120	-15.8585
276.000000	98.088	-15.8634
280.000000	98.054	-15.8716
285.000000	98.006	-15.8759
290.000000	97.954	-15.7571
295.000000	97.910	-15.5143
300.000000	97.880	-15.1681
304.000000	97.867	-14.8241
307.000000	97.870	-14.5312
311.000000	97.907	-14.1510
315.000000	97.984	-13.8730
320.000000	98.105	-13.7928
325.000000	98.204	-14.1578
330.000000	98.261	-14.8256
335.000000	98.274	-15.5113
340.000000	98.254	-16.0628
345.000000	98.205	-16.4728
350.000000	98.151	-16.7998
355.000000	98.100	-17.0371
360.000000	98.048	-17.2099
365.000000	98.001	-17.3029
370.000000	97.956	-17.3515
375.000000	97.911	-17.3982
382.000000	97.849	-17.4746
387.000000	97.813	-17.5112
395.000000	97.750	-17.4627
400.000000	97.703	-17.4357
406.000000	97.652	-17.4264
412.000000	97.611	-17.4031
418.000000	97.572	-17.3531
425.000000	97.528	-17.2943
431.000000	97.496	-17.2106
437.000000	97.463	-17.0663
444.000000	97.427	-16.9401
450.000000	97.402	-16.8849
455.000000	97.380	-16.7925
462.000000	97.349	-16.6179
468.000000	97.331	-16.4879
475.000000	97.307	-16.3590
482.000000	97.275	-16.2248
487.000000	97.256	-16.1091
494.000000	97.235	-15.9454
500.000000	97.222	-15.8071
508.000000	97.200	-15.6014
515.000000	97.175	-15.4147
522.000000	97.157	-15.2151
530.000000	97.139	-15.0299
538.000000	97.123	-14.8321
545.000000	97.109	-14.6127
552.000000	97.100	-14.3894
560.000000	97.089	-14.1463
570.000000	97.074	-13.8115
580.000000	97.067	-13.4651
590.000000	97.064	-13.2087
600.000000	97.053	-12.9188
608.000000	97.045	-12.6492
615.000000	97.045	-12.4049
622.000000	97.050	-12.1677
630.000000	97.051	-11.8978
640.000000	97.046	-11.5790
650.000000	97.049	-11.2570
660.000000	97.063	-10.9002
670.000000	97.075	-10.5594
680.000000	97.088	-10.2237
690.000000	97.096	-9.8617
700.000000	97.105	-9.4752
710.000000	97.124	-9.1161
720.000000	97.145	-8.7665
730.000000	97.169	-8.4254
740.000000	97.194	-8.0940
750.000000	97.214	-7.7555
762.000000	97.244	-7.3336
775.000000	97.292	-6.9012
788.000000	97.337	-6.4562
800.000000	97.382	-6.0590
812.000000	97.437	-5.6590
825.000000	97.500	-5.2500
838.000000	97.566	-4.8719
850.000000	97.632	-4.5518
862.000000	97.702	-4.1971
875.000000	97.782	-3.8120
885.000000	97.846	-3.5845
900.000000	97.949	-3.3035
912.000000	98.033	-3.0732
925.000000	98.130	-2.8678
938.000000	98.232	-2.6704
950.000000	98.326	-2.5112
962.000000	98.422	-2.3978
975.000000	98.529	-2.3028
988.000000	98.636	-2.2617
1000.000000	98.735	-2.2736
1015.000000	98.864	-2.3511
1030.000000	98.996	-2.4785
1044.000000	99.118	-2.6362
1060.000000	99.250	-2.8797
1075.000000	99.369	-3.1651
1090.000000	99.492	-3.4950
1106.000000	99.628	-3.8973
1120.000000	99.747	-4.2963
1138.000000	99.896	-4.8658
1150.000000	99.990	-5.2693
1172.000000	100.156	-6.0368
1180.000000	100.215	-6.3288
1206.000000	100.395	-7.3714
1220.000000	100.487	-7.9766
1241.000000	100.621	-8.8949
1250.000000	100.675	-9.2977
1265.000000	100.761	-9.9830
1280.000000	100.841	-10.6752
1315.000000	101.015	-12.3782
1320.000000	101.037	-12.6273
1340.000000	101.121	-13.6304
1360.000000	101.196	-14.6653
1380.000000	101.265	-15.7167
1400.000000	101.332	-16.7709
1430.000000	101.421	-18.3912
1450.000000	101.469	-19.4972
1475.000000	101.519	-20.8989
1500.000000	101.559	-22.3136
1525.000000	101.583	-23.7503
1550.000000	101.596	-25.2207
1575.000000	101.594	-26.6938
1600.000000	101.574	-28.1481
1625.000000	101.536	-29.5915
1650.000000	101.481	-31.0356
1675.000000	101.409	-32.4534
1700.000000	101.321	-33.7960
1725.000000	101.213	-35.0385
1750.000000	101.088	-36.1614
1775.000000	100.956	-37.0946
1800.000000	100.831	-37.7785
1825.000000	100.729	-38.2785
1850.000000	100.674	-38.7791
1875.000000	100.655	-39.5079
1900.000000	100.633	-40.5585
1925.000000	100.576	-41.8261
1950.000000	100.476	-43.1467
1975.000000	100.338	-44.3914
2000.000000	100.177	-45.4938
2030.000000	99.967	-46.6146
2060.000000	99.747	-47.5427
2090.000000	99.522	-48.3035
2120.000000	99.296	-48.9186
2140.000000	99.147	-49.2500
2180.000000	98.850	-49.7529
2200.000000	98.703	-49.9263
2240.000000	98.419	-50.1306
2270.000000	98.214	-50.1785
2300.000000	98.016	-50.1526
2330.000000	97.822	-50.0795
2360.000000	97.631	-49.9613
2400.000000	97.381	-49.7071
2430.000000	97.200	-49.4427
2470.000000	96.968	-48.9928
2500.000000	96.799	-48.5776
2540.000000	96.582	-47.9565
2580.000000	96.381	-47.2739
2620.000000	96.191	-46.5035
2650.000000	96.053	-45.8861
2690.000000	95.879	-45.0022
2720.000000	95.755	-44.2898
2760.000000	95.597	-43.2991
2800.000000	95.449	-42.2444
2850.000000	95.282	-40.8068
2900.000000	95.141	-39.2213
2950.000000	95.044	-37.5066
3000.000000	95.002	-35.8101
3040.000000	95.003	-34.5913
3070.000000	95.013	-33.7929
3110.000000	95.024	-32.8737
3150.000000	95.032	-32.0462
3200.000000	95.042	-31.0347
3250.000000	95.051	-30.0261
3300.000000	95.065	-29.0278
3350.000000	95.092	-28.0453
3400.000000	95.137	-27.1012
3450.000000	95.202	-26.2589
3500.000000	95.279	-25.5539
3550.000000	95.358	-25.0042
3600.000000	95.425	-24.5590
3650.000000	95.479	-24.1454
3700.000000	95.530	-23.7539
3750.000000	95.577	-23.3822
3820.000000	95.630	-22.8444
3870.000000	95.661	-22.3939
3950.000000	95.730	-21.5451
4000.000000	95.800	-21.0651
4060.000000	95.910	-20.6637
4120.000000	96.031	-20.5315
4180.000000	96.146	-20.6928
4250.000000	96.254	-21.1992
4310.000000	96.310	-21.8796
4370.000000	96.318	-22.6944
4440.000000	96.269	-23.7185
4500.000000	96.183	-24.5935
4550.000000	96.082	-25.2965
4620.000000	95.900	-26.1835
4680.000000	95.709	-26.7813
4750.000000	95.453	-27.2339
4820.000000	95.168	-27.4005
4870.000000	94.951	-27.3356
4940.000000	94.641	-26.9796
5000.000000	94.377	-26.4336
5080.000000	94.031	-25.3750
5150.000000	93.739	-24.1773
5220.000000	93.461	-22.7260
5300.000000	93.173	-20.7519
5380.000000	92.926	-18.5121
5450.000000	92.745	-16.3918
5520.000000	92.604	-14.1486
5600.000000	92.497	-11.4691
5700.000000	92.442	-8.0266
5800.000000	92.480	-4.5737
5900.000000	92.615	-1.2399
6000.000000	92.858	1.8929
6080.000000	93.136	4.1391
6150.000000	93.441	5.8230
6220.000000	93.807	7.1780
6300.000000	94.300	8.1800
6400.000000	95.016	8.2909
6500.000000	95.801	6.6400
6600.000000	96.560	2.6282
6700.000000	97.131	-4.1752
6800.000000	97.306	-13.5499
6900.000000	96.911	-24.1291
7000.000000	95.880	-33.5211
7100.000000	94.341	-39.6005
7200.000000	92.587	-43.0151
7300.000000	90.434	-43.0652
7400.000000	87.714	-33.4745
7500.000000	85.672	-12.4900
7620.000000	86.683	12.4935
7750.000000	89.005	22.7337
7880.000000	90.379	22.6648
8000.000000	91.035	21.2495
8120.000000	91.474	20.5223
8250.000000	91.961	20.1586
8380.000000	92.567	19.1411
8500.000000	93.208	16.4954
8620.000000	93.777	11.2730
8750.000000	94.042	2.4375
8850.000000	93.834	-5.8221
9000.000000	92.738	-17.5813
9120.000000	91.292	-24.0711
9250.000000	89.421	-27.2131
9380.000000	87.496	-26.8032
9500.000000	85.827	-24.1316
9620.000000	84.323	-19.9465
9750.000000	82.894	-14.2513
9880.000000	81.672	-7.7105
10000.000000	80.714	-1.1091
10150.000000	79.728	7.7030
10300.000000	78.970	16.9917
10440.000000	78.481	25.9693
10600.000000	78.242	36.5063
10750.000000	78.411	46.3624
10900.000000	79.078	55.4216
11060.000000	80.423	62.6170
11200.000000	82.062	64.9507
11380.000000	84.310	58.3556
11500.000000	85.261	45.4144
11720.000000	84.307	13.0476
11800.000000	83.028	4.5653
12060.000000	77.089	-0.8456
12200.000000	73.880	5.3665
12410.000000	69.989	18.7511
12500.000000	68.638	24.8985
12650.000000	66.613	35.5588
12800.000000	64.677	47.3912
13150.000000	60.687	84.6310
13200.000000	60.266	91.3755
13400.000000	59.609	121.9805
13600.000000	61.582	152.2446
13800.000000	64.643	169.2525
14000.000000	66.761	171.0764
14300.000000	67.447	166.2635
14500.000000	67.150	168.6151
14750.000000	67.176	176.9492
15000.000000	68.175	-173.6516
15250.000000	70.150	-167.6718
15500.000000	72.646	-169.0995
15750.000000	74.970	179.7968
16000.000000	76.614	158.7489
16250.000000	76.887	129.3376
16500.000000	75.621	99.0740
16750.000000	73.163	72.5649
17000.000000	69.640	54.1002
17250.000000	65.536	46.0961
17500.000000	61.703	46.0489
17750.000000	58.783	50.5742
18000.000000	57.152	57.6401
18250.000000	56.967	65.9943
18500.000000	58.171	72.1872
18750.000000	60.291	72.1014
19000.000000	62.235	61.4587
19250.000000	62.894	40.3321
19500.000000	61.838	18.5941
19750.000000	59.618	5.3602
20000.000000	57.789	0.4898
