* Measurement data measured by REW V5.20.9
* Source: Mic in at rear panel (Pink)(Realtek(R) Audio), MICROPHONE (마스), L, volume: 0.500
* Format: 256k Log Swept Sine, 1 sweep at -12.0 dBFS with no timing reference
* Dated: 2022. 9. 24 오후 8:33:48
* REW Settings:
*  C-weighting compensation: Off
*  Target level: 75.0 dB
* Note: 
* Measurement: Bass_R
* Smoothing: 1/24 octave
* Frequency Step: 1/48 octave
* Start Frequency: 20.300 Hz
*
* Freq(Hz)	SPL(dB)	Phase(degrees)
20.299999	68.400	-164.0426
20.600000	68.429	-164.0855
20.900000	68.482	-164.1550
21.200001	68.521	-164.1997
21.400000	68.540	-164.2115
21.799999	68.570	-164.2011
22.000000	68.586	-164.1870
22.400000	68.620	-164.1632
22.700001	68.649	-164.1682
23.000000	68.681	-164.2072
23.299999	68.714	-164.2843
23.600000	68.747	-164.3965
24.000000	68.792	-164.5879
24.299999	68.826	-164.7493
24.700001	68.872	-164.9746
25.000000	68.906	-165.1463
25.400000	68.953	-165.3782
25.799999	69.000	-165.6139
26.200001	69.046	-165.8480
26.500000	69.079	-166.0133
26.900000	69.119	-166.2065
27.200001	69.148	-166.3269
27.600000	69.187	-166.4643
28.000000	69.230	-166.6025
28.500000	69.284	-166.8153
29.000000	69.330	-167.0719
29.500000	69.363	-167.3247
30.000000	69.389	-167.5208
30.400000	69.410	-167.6325
30.700001	69.429	-167.7045
31.100000	69.461	-167.8172
31.500000	69.496	-167.9779
32.000000	69.535	-168.2565
32.500000	69.562	-168.5666
33.000000	69.581	-168.8176
33.500000	69.609	-168.9830
34.000000	69.652	-169.1367
34.500000	69.704	-169.3762
35.000000	69.750	-169.7145
35.500000	69.780	-170.0709
36.000000	69.799	-170.3624
36.500000	69.818	-170.5811
37.000000	69.843	-170.7776
37.500000	69.870	-170.9896
38.200001	69.906	-171.3153
38.700001	69.931	-171.5746
39.500000	69.964	-172.0812
40.000000	69.972	-172.4137
40.599998	69.973	-172.7390
41.200001	69.983	-172.9808
41.799999	70.006	-173.2357
42.500000	70.034	-173.6012
43.099998	70.053	-173.8884
43.700001	70.080	-174.1281
44.400002	70.122	-174.4809
45.000000	70.144	-174.8908
45.500000	70.140	-175.1924
46.200001	70.126	-175.3919
46.799999	70.137	-175.4588
47.500000	70.168	-175.7265
48.200001	70.171	-176.1678
48.700001	70.156	-176.4128
49.400002	70.143	-176.5917
50.000000	70.155	-176.7638
50.799999	70.180	-177.1965
51.500000	70.185	-177.6631
52.200001	70.175	-178.0351
53.000000	70.174	-178.1782
53.799999	70.235	-178.2078
54.500000	70.317	-178.5522
55.200001	70.356	-179.1286
56.000000	70.354	-179.5376
57.000000	70.376	-179.8308
58.000000	70.354	179.7773
59.000000	70.334	179.9321
60.000000	70.404	179.6472
60.799999	70.394	178.9258
61.500000	70.341	178.5448
62.200001	70.319	178.3604
63.000000	70.322	177.9320
64.000000	70.284	177.2547
65.000000	70.250	176.9227
66.000000	70.257	176.6048
67.000000	70.264	176.2094
68.000000	70.269	175.8239
69.000000	70.264	175.3942
70.000000	70.242	175.0046
71.000000	70.218	174.6730
72.000000	70.199	174.3452
73.000000	70.187	173.9876
74.000000	70.176	173.5461
75.000000	70.151	173.0916
76.199997	70.114	172.6964
77.500000	70.093	172.3425
78.800003	70.067	171.9540
80.000000	70.036	171.6592
81.199997	70.006	171.3452
82.500000	69.965	171.0522
83.800003	69.940	170.7634
85.000000	69.911	170.3951
86.199997	69.877	170.1022
87.500000	69.859	169.7751
88.500000	69.836	169.4671
90.000000	69.790	169.1205
91.199997	69.755	168.8588
92.500000	69.707	168.5367
93.800003	69.646	168.2551
95.000000	69.598	168.0530
96.199997	69.561	167.8159
97.500000	69.531	167.5519
98.800003	69.508	167.2255
100.000000	69.477	166.8953
101.500000	69.417	166.5288
103.000000	69.339	166.2862
104.400002	69.282	166.1612
106.000000	69.246	165.8578
107.500000	69.209	165.4632
109.000000	69.162	165.1163
110.599998	69.101	164.8719
112.000000	69.048	164.6450
113.800003	68.971	164.2514
115.000000	68.941	163.9603
117.199997	68.949	163.0582
118.000000	68.951	162.6239
120.599998	68.799	161.7190
122.000000	68.682	162.1266
124.099998	68.565	162.6625
125.000000	68.508	162.7307
126.500000	68.408	162.7164
128.000000	68.311	162.6359
131.500000	68.159	162.4925
132.000000	68.141	162.4633
134.000000	68.064	162.4400
136.000000	67.993	162.4844
138.000000	67.917	162.5600
140.000000	67.852	162.5325
143.000000	67.726	161.9488
145.000000	67.620	161.4880
147.500000	67.483	161.0786
150.000000	67.335	161.0023
152.500000	67.190	161.1071
155.000000	67.049	161.2205
157.500000	66.905	161.3829
160.000000	66.751	161.6533
162.500000	66.594	162.1236
165.000000	66.462	162.6077
167.500000	66.336	163.0605
170.000000	66.210	163.6003
172.500000	66.085	164.3465
175.000000	65.980	165.2081
177.500000	65.891	165.9512
180.000000	65.806	166.6202
182.500000	65.731	167.3576
185.000000	65.671	168.1324
187.500000	65.610	168.8423
190.000000	65.550	169.5544
192.500000	65.512	170.2364
195.000000	65.485	170.9020
197.500000	65.455	171.6236
200.000000	65.417	172.3881
203.000000	65.380	173.4080
206.000000	65.376	174.6576
209.000000	65.376	176.2028
212.000000	65.404	177.7461
214.000000	65.466	178.5488
218.000000	65.749	179.7267
220.000000	65.942	-179.9676
224.000000	66.262	179.7247
227.000000	66.390	178.8494
230.000000	66.433	177.8789
233.000000	66.420	177.0764
236.000000	66.376	176.4933
240.000000	66.303	176.0177
243.000000	66.241	175.8306
247.000000	66.157	175.7036
250.000000	66.098	175.6814
254.000000	66.020	175.7526
258.000000	65.944	175.9046
262.000000	65.872	176.1027
265.000000	65.820	176.2553
269.000000	65.755	176.4993
272.000000	65.707	176.7234
276.000000	65.646	177.0696
280.000000	65.587	177.4111
285.000000	65.508	177.8279
290.000000	65.440	178.2654
295.000000	65.372	178.7769
300.000000	65.309	179.3729
304.000000	65.263	179.9031
307.000000	65.232	-179.6698
311.000000	65.196	-179.0814
315.000000	65.170	-178.4916
320.000000	65.145	-177.7775
325.000000	65.129	-177.0933
330.000000	65.118	-176.4471
335.000000	65.108	-175.8324
340.000000	65.103	-175.2321
345.000000	65.091	-174.6727
350.000000	65.079	-174.0990
355.000000	65.069	-173.4855
360.000000	65.062	-172.8775
365.000000	65.058	-172.2535
370.000000	65.063	-171.6330
375.000000	65.070	-171.0129
382.000000	65.085	-170.1528
387.000000	65.099	-169.5897
395.000000	65.134	-168.6844
400.000000	65.158	-168.1046
406.000000	65.185	-167.4703
412.000000	65.215	-166.9240
418.000000	65.251	-166.3871
425.000000	65.298	-165.7825
431.000000	65.338	-165.2809
437.000000	65.379	-164.8187
444.000000	65.428	-164.2908
450.000000	65.473	-163.8371
455.000000	65.511	-163.4962
462.000000	65.561	-163.0584
468.000000	65.603	-162.7202
475.000000	65.657	-162.3392
482.000000	65.709	-161.9296
487.000000	65.743	-161.6470
494.000000	65.789	-161.2620
500.000000	65.831	-160.9726
508.000000	65.886	-160.6669
515.000000	65.927	-160.4305
522.000000	65.966	-160.1836
530.000000	66.011	-159.9060
538.000000	66.057	-159.6437
545.000000	66.093	-159.4245
552.000000	66.123	-159.2300
560.000000	66.157	-159.0189
570.000000	66.192	-158.7143
580.000000	66.227	-158.4428
590.000000	66.263	-158.1754
600.000000	66.292	-157.9361
608.000000	66.307	-157.7529
615.000000	66.316	-157.5789
622.000000	66.327	-157.4101
630.000000	66.340	-157.2480
640.000000	66.349	-157.0692
650.000000	66.355	-156.8889
660.000000	66.355	-156.6951
670.000000	66.344	-156.4606
680.000000	66.327	-156.2274
690.000000	66.307	-155.9746
700.000000	66.284	-155.7164
710.000000	66.258	-155.4895
720.000000	66.225	-155.2482
730.000000	66.179	-154.9542
740.000000	66.123	-154.6091
750.000000	66.060	-154.2311
762.000000	65.983	-153.7234
775.000000	65.890	-153.0458
788.000000	65.785	-152.2150
800.000000	65.688	-151.3537
812.000000	65.584	-150.3418
825.000000	65.473	-149.0286
838.000000	65.378	-147.5066
850.000000	65.306	-145.8982
862.000000	65.256	-144.1275
875.000000	65.244	-142.0656
885.000000	65.264	-140.4097
900.000000	65.346	-137.9145
912.000000	65.456	-135.9538
925.000000	65.617	-133.9183
938.000000	65.821	-132.0798
950.000000	66.036	-130.5848
962.000000	66.268	-129.2749
975.000000	66.527	-128.0460
988.000000	66.795	-127.0125
1000.000000	67.044	-126.2526
1015.000000	67.343	-125.5768
1030.000000	67.634	-125.1025
1044.000000	67.897	-124.8040
1060.000000	68.181	-124.6037
1075.000000	68.433	-124.5307
1090.000000	68.678	-124.5420
1106.000000	68.932	-124.6444
1120.000000	69.142	-124.8073
1138.000000	69.395	-125.0723
1150.000000	69.556	-125.2782
1172.000000	69.833	-125.7113
1180.000000	69.928	-125.8847
1206.000000	70.223	-126.4734
1220.000000	70.371	-126.8111
1241.000000	70.582	-127.3466
1250.000000	70.668	-127.5756
1265.000000	70.806	-127.9506
1280.000000	70.937	-128.3234
1315.000000	71.228	-129.2210
1320.000000	71.268	-129.3477
1340.000000	71.425	-129.8481
1360.000000	71.572	-130.3450
1380.000000	71.711	-130.8475
1400.000000	71.851	-131.3497
1430.000000	72.055	-132.0988
1450.000000	72.189	-132.5954
1475.000000	72.354	-133.2300
1500.000000	72.512	-133.8840
1525.000000	72.668	-134.5369
1550.000000	72.824	-135.2019
1575.000000	72.978	-135.8750
1600.000000	73.128	-136.5735
1625.000000	73.273	-137.3097
1650.000000	73.415	-138.0747
1675.000000	73.557	-138.8756
1700.000000	73.697	-139.7114
1725.000000	73.832	-140.5984
1750.000000	73.961	-141.5300
1775.000000	74.086	-142.4981
1800.000000	74.207	-143.5007
1825.000000	74.324	-144.5636
1850.000000	74.434	-145.6820
1875.000000	74.535	-146.8440
1900.000000	74.628	-148.0434
1925.000000	74.712	-149.2784
1950.000000	74.789	-150.5427
1975.000000	74.858	-151.8260
2000.000000	74.920	-153.1169
2030.000000	74.988	-154.7101
2060.000000	75.048	-156.4068
2090.000000	75.097	-158.2287
2120.000000	75.128	-160.1787
2140.000000	75.133	-161.5341
2180.000000	75.096	-164.3038
2200.000000	75.054	-165.6876
2240.000000	74.931	-168.4031
2270.000000	74.806	-170.3585
2300.000000	74.657	-172.2393
2330.000000	74.483	-174.0470
2360.000000	74.289	-175.7678
2400.000000	74.001	-177.9068
2430.000000	73.763	-179.3851
2470.000000	73.417	178.8368
2500.000000	73.138	177.6708
2540.000000	72.742	176.3719
2580.000000	72.328	175.3752
2620.000000	71.900	174.6977
2650.000000	71.574	174.4162
2690.000000	71.144	174.3342
2720.000000	70.830	174.4826
2760.000000	70.431	174.9362
2800.000000	70.063	175.6201
2850.000000	69.640	176.6657
2900.000000	69.245	177.8682
2950.000000	68.876	179.3033
3000.000000	68.548	-179.0161
3040.000000	68.327	-177.5392
3070.000000	68.185	-176.3933
3110.000000	68.027	-174.8583
3150.000000	67.901	-173.3596
3200.000000	67.777	-171.5780
3250.000000	67.686	-169.9527
3300.000000	67.623	-168.5060
3350.000000	67.578	-167.2459
3400.000000	67.537	-166.1733
3450.000000	67.490	-165.2629
3500.000000	67.432	-164.4450
3550.000000	67.360	-163.6070
3600.000000	67.278	-162.7001
3650.000000	67.196	-161.7116
3700.000000	67.118	-160.6714
3750.000000	67.046	-159.6045
3820.000000	66.957	-158.0819
3870.000000	66.894	-156.9632
3950.000000	66.788	-155.1293
4000.000000	66.731	-153.9507
4060.000000	66.671	-152.5125
4120.000000	66.621	-151.0319
4180.000000	66.580	-149.5223
4250.000000	66.540	-147.7727
4310.000000	66.510	-146.2572
4370.000000	66.482	-144.6845
4440.000000	66.453	-142.7915
4500.000000	66.441	-141.1420
4550.000000	66.442	-139.7447
4620.000000	66.463	-137.7493
4680.000000	66.504	-136.0506
4750.000000	66.563	-134.1027
4820.000000	66.629	-132.1435
4870.000000	66.682	-130.6926
4940.000000	66.774	-128.5382
5000.000000	66.880	-126.5979
5080.000000	67.073	-123.9477
5150.000000	67.300	-121.6201
5220.000000	67.589	-119.3633
5300.000000	67.999	-117.0287
5380.000000	68.489	-115.1653
5450.000000	68.957	-114.0641
5520.000000	69.428	-113.4747
5600.000000	69.939	-113.3470
5700.000000	70.520	-113.7378
5800.000000	71.036	-114.4126
5900.000000	71.510	-115.1589
6000.000000	71.980	-115.8741
6080.000000	72.374	-116.4111
6150.000000	72.741	-116.9025
6220.000000	73.137	-117.4684
6300.000000	73.632	-118.3025
6400.000000	74.319	-119.8551
6500.000000	75.066	-122.2940
6600.000000	75.811	-125.8809
6700.000000	76.482	-130.7239
6800.000000	77.014	-136.7139
6900.000000	77.375	-143.3086
7000.000000	77.539	-149.9220
7100.000000	77.582	-156.1649
7200.000000	77.545	-161.9262
7300.000000	77.396	-167.2899
7400.000000	77.190	-171.9809
7500.000000	76.938	-175.9578
7620.000000	76.671	179.7717
7750.000000	76.524	175.6311
7880.000000	76.435	171.2129
8000.000000	76.375	166.5070
8120.000000	76.252	161.0765
8250.000000	76.007	154.1420
8380.000000	75.587	146.6596
8500.000000	75.031	139.7389
8620.000000	74.244	133.3328
8750.000000	73.207	127.5214
8850.000000	72.320	123.8380
9000.000000	70.973	119.4991
9120.000000	69.901	117.1510
9250.000000	68.722	115.3683
9380.000000	67.631	114.3228
9500.000000	66.703	113.9256
9620.000000	65.842	113.8311
9750.000000	64.975	113.9988
9880.000000	64.170	114.4266
10000.000000	63.456	115.0896
10150.000000	62.622	115.7704
10300.000000	61.858	116.6079
10440.000000	61.163	117.7631
10600.000000	60.408	118.6100
10750.000000	59.742	119.1423
10900.000000	59.077	119.7088
11060.000000	58.378	120.1915
11200.000000	57.760	120.6462
11380.000000	56.907	121.3057
11500.000000	56.321	121.8709
11720.000000	55.241	123.4997
11800.000000	54.838	124.2981
12060.000000	53.575	127.4738
12200.000000	52.966	129.6956
12410.000000	52.114	133.8963
12500.000000	51.751	136.0999
12650.000000	51.128	140.4054
12800.000000	50.562	144.8619
13150.000000	49.696	153.8932
13200.000000	49.631	155.4298
13400.000000	49.564	161.8205
13600.000000	49.915	166.7878
13800.000000	50.596	170.1754
14000.000000	51.212	171.0923
14300.000000	52.384	170.4943
14500.000000	53.258	168.2409
14750.000000	53.826	160.7552
15000.000000	53.713	149.9629
15250.000000	53.345	141.0872
15500.000000	52.897	134.2950
15750.000000	52.238	128.2372
16000.000000	51.682	121.5960
16250.000000	51.078	114.9272
16500.000000	50.369	107.7115
16750.000000	49.584	99.9901
17000.000000	48.513	92.5624
17250.000000	47.112	85.5710
17500.000000	45.465	78.4689
17750.000000	43.318	69.4311
18000.000000	40.553	37.4300
18250.000000	37.014	-167.9323
18500.000000	33.586	146.1042
18750.000000	34.881	135.4414
19000.000000	38.033	-55.1204
19250.000000	40.120	-179.7676
19500.000000	41.271	158.6770
19750.000000	41.785	152.3914
20000.000000	41.898	147.0981
