* Measurement data measured by REW V5.20.9
* Source: Mic in at rear panel (Pink)(Realtek(R) Audio), MICROPHONE (마스), L, volume: 0.500
* Format: 256k Log Swept Sine, 1 sweep at -12.0 dBFS with no timing reference
* Dated: 2022. 9. 24 오후 8:25:15
* REW Settings:
*  C-weighting compensation: Off
*  Target level: 75.0 dB
* Note: 
* Measurement: Default
* Smoothing: 1/24 octave
* Frequency Step: 1/48 octave
* Start Frequency: 20.300 Hz
*
* Freq(Hz)	SPL(dB)	Phase(degrees)
20.299999	67.091	-167.0484
20.600000	67.101	-167.0135
20.900000	67.119	-166.9352
21.200001	67.134	-166.8234
21.400000	67.142	-166.7422
21.799999	67.158	-166.5852
22.000000	67.165	-166.5166
22.400000	67.180	-166.4018
22.700001	67.193	-166.3362
23.000000	67.209	-166.2973
23.299999	67.226	-166.2974
23.600000	67.245	-166.3384
24.000000	67.266	-166.4386
24.299999	67.280	-166.5150
24.700001	67.296	-166.5740
25.000000	67.313	-166.5731
25.400000	67.346	-166.5325
25.799999	67.394	-166.5055
26.200001	67.450	-166.5428
26.500000	67.490	-166.6131
26.900000	67.534	-166.7276
27.200001	67.559	-166.7939
27.600000	67.586	-166.8251
28.000000	67.615	-166.7944
28.500000	67.658	-166.7234
29.000000	67.707	-166.6831
29.500000	67.752	-166.6905
30.000000	67.788	-166.7128
30.400000	67.813	-166.7162
30.700001	67.832	-166.7080
31.100000	67.860	-166.6965
31.500000	67.891	-166.7041
32.000000	67.931	-166.7560
32.500000	67.968	-166.8345
33.000000	68.009	-166.9108
33.500000	68.059	-167.0047
34.000000	68.113	-167.1670
34.500000	68.156	-167.3867
35.000000	68.183	-167.5682
35.500000	68.206	-167.6147
36.000000	68.242	-167.5386
36.500000	68.298	-167.4413
37.000000	68.369	-167.4169
37.500000	68.443	-167.4899
38.200001	68.537	-167.7348
38.700001	68.589	-167.9866
39.500000	68.635	-168.3381
40.000000	68.657	-168.4007
40.599998	68.707	-168.3518
41.200001	68.791	-168.3845
41.799999	68.883	-168.6342
42.500000	68.968	-169.1006
43.099998	69.021	-169.4801
43.700001	69.069	-169.7714
44.400002	69.133	-170.0312
45.000000	69.199	-170.2729
45.500000	69.251	-170.5342
46.200001	69.307	-170.9237
46.799999	69.345	-171.1587
47.500000	69.406	-171.3436
48.200001	69.490	-171.6423
48.700001	69.550	-171.9767
49.400002	69.622	-172.5537
50.000000	69.670	-173.1141
50.799999	69.711	-173.8890
51.500000	69.735	-174.4667
52.200001	69.772	-175.0166
53.000000	69.807	-175.7975
53.799999	69.800	-176.4762
54.500000	69.802	-176.8076
55.200001	69.836	-177.1800
56.000000	69.867	-177.7982
57.000000	69.894	-178.4596
58.000000	69.948	-179.3336
59.000000	69.939	179.6363
60.000000	69.937	179.0712
60.799999	69.991	178.4672
61.500000	70.024	177.6580
62.200001	70.017	176.8751
63.000000	69.995	176.2318
64.000000	69.991	175.5262
65.000000	69.971	174.7317
66.000000	69.922	174.0991
67.000000	69.876	173.5880
68.000000	69.825	173.0634
69.000000	69.767	172.5783
70.000000	69.713	172.0909
71.000000	69.654	171.5540
72.000000	69.588	171.0504
73.000000	69.528	170.5989
74.000000	69.476	170.0937
75.000000	69.415	169.5560
76.199997	69.342	169.0230
77.500000	69.284	168.4517
78.800003	69.216	167.8434
80.000000	69.129	167.4111
81.199997	69.038	167.1853
82.500000	68.948	166.9999
83.800003	68.859	166.7509
85.000000	68.775	166.4623
86.199997	68.698	166.1267
87.500000	68.626	165.7729
88.500000	68.582	165.5279
90.000000	68.515	165.1764
91.199997	68.448	164.9758
92.500000	68.361	164.8214
93.800003	68.263	164.7714
95.000000	68.194	164.7587
96.199997	68.143	164.5857
97.500000	68.085	164.3352
98.800003	68.034	164.1614
100.000000	67.993	164.0596
101.500000	67.936	163.9802
103.000000	67.860	163.9793
104.400002	67.791	164.0493
106.000000	67.729	163.9622
107.500000	67.656	163.7079
109.000000	67.579	163.5084
110.599998	67.505	163.3256
112.000000	67.448	163.2202
113.800003	67.382	163.0367
115.000000	67.326	162.9088
117.199997	67.201	162.8134
118.000000	67.155	162.8213
120.599998	67.014	162.9018
122.000000	66.964	162.9560
124.099998	66.909	162.8203
125.000000	66.878	162.7360
126.500000	66.815	162.6698
128.000000	66.752	162.6978
131.500000	66.598	162.6097
132.000000	66.571	162.6058
134.000000	66.473	162.7148
136.000000	66.403	162.8409
138.000000	66.328	162.8704
140.000000	66.235	162.9001
143.000000	66.099	163.0222
145.000000	66.029	162.9540
147.500000	65.918	162.8112
150.000000	65.770	162.9037
152.500000	65.613	163.1648
155.000000	65.468	163.3578
157.500000	65.335	163.6758
160.000000	65.242	164.2066
162.500000	65.138	164.6665
165.000000	64.998	165.1833
167.500000	64.854	165.8303
170.000000	64.734	166.6175
172.500000	64.639	167.4099
175.000000	64.555	168.1065
177.500000	64.465	168.8230
180.000000	64.387	169.6486
182.500000	64.327	170.5066
185.000000	64.276	171.3378
187.500000	64.231	172.1643
190.000000	64.198	172.9985
192.500000	64.177	173.8236
195.000000	64.154	174.6299
197.500000	64.125	175.4749
200.000000	64.106	176.4047
203.000000	64.104	177.6205
206.000000	64.132	178.9413
209.000000	64.230	-179.7223
212.000000	64.410	-178.4835
214.000000	64.566	-177.8268
218.000000	64.876	-177.5712
220.000000	64.990	-177.9487
224.000000	65.111	-179.0152
227.000000	65.127	-179.6662
230.000000	65.108	179.8717
233.000000	65.071	179.5626
236.000000	65.027	179.3969
240.000000	64.963	179.3464
243.000000	64.914	179.3667
247.000000	64.851	179.5553
250.000000	64.805	179.8364
254.000000	64.755	-179.7084
258.000000	64.733	-179.2809
262.000000	64.728	-178.8953
265.000000	64.727	-178.7017
269.000000	64.718	-178.5929
272.000000	64.703	-178.5256
276.000000	64.672	-178.4254
280.000000	64.630	-178.2758
285.000000	64.567	-177.9403
290.000000	64.495	-177.5324
295.000000	64.440	-177.0738
300.000000	64.402	-176.5287
304.000000	64.368	-176.0576
307.000000	64.343	-175.6941
311.000000	64.315	-175.1625
315.000000	64.295	-174.5811
320.000000	64.279	-173.8983
325.000000	64.265	-173.2433
330.000000	64.256	-172.5455
335.000000	64.252	-171.9002
340.000000	64.254	-171.3384
345.000000	64.250	-170.7558
350.000000	64.243	-170.1629
355.000000	64.243	-169.5717
360.000000	64.254	-168.9769
365.000000	64.270	-168.3629
370.000000	64.283	-167.7558
375.000000	64.296	-167.1629
382.000000	64.323	-166.3289
387.000000	64.344	-165.7472
395.000000	64.381	-164.9160
400.000000	64.410	-164.4348
406.000000	64.446	-163.8320
412.000000	64.486	-163.2312
418.000000	64.528	-162.6947
425.000000	64.583	-162.0604
431.000000	64.633	-161.5638
437.000000	64.679	-161.1442
444.000000	64.734	-160.6506
450.000000	64.787	-160.2136
455.000000	64.829	-159.8946
462.000000	64.884	-159.5132
468.000000	64.934	-159.1882
475.000000	64.992	-158.8055
482.000000	65.044	-158.4516
487.000000	65.082	-158.2123
494.000000	65.138	-157.8871
500.000000	65.185	-157.6356
508.000000	65.241	-157.3487
515.000000	65.287	-157.1116
522.000000	65.329	-156.8477
530.000000	65.374	-156.5639
538.000000	65.424	-156.3068
545.000000	65.470	-156.1134
552.000000	65.509	-155.9398
560.000000	65.546	-155.7171
570.000000	65.586	-155.4221
580.000000	65.629	-155.1853
590.000000	65.672	-154.9855
600.000000	65.705	-154.7803
608.000000	65.725	-154.5997
615.000000	65.740	-154.4435
622.000000	65.757	-154.2995
630.000000	65.774	-154.1443
640.000000	65.788	-153.9670
650.000000	65.795	-153.7704
660.000000	65.795	-153.5762
670.000000	65.796	-153.3861
680.000000	65.790	-153.1651
690.000000	65.773	-152.9554
700.000000	65.749	-152.7465
710.000000	65.722	-152.4905
720.000000	65.691	-152.2192
730.000000	65.652	-151.9473
740.000000	65.604	-151.6471
750.000000	65.550	-151.2910
762.000000	65.472	-150.8023
775.000000	65.376	-150.1865
788.000000	65.280	-149.4177
800.000000	65.186	-148.5633
812.000000	65.082	-147.5434
825.000000	64.971	-146.2338
838.000000	64.879	-144.7304
850.000000	64.810	-143.1503
862.000000	64.766	-141.3699
875.000000	64.753	-139.2926
885.000000	64.772	-137.6522
900.000000	64.855	-135.1491
912.000000	64.968	-133.1783
925.000000	65.134	-131.1717
938.000000	65.340	-129.3414
950.000000	65.554	-127.8284
962.000000	65.780	-126.5233
975.000000	66.039	-125.3179
988.000000	66.311	-124.3033
1000.000000	66.560	-123.5583
1015.000000	66.856	-122.8890
1030.000000	67.145	-122.3911
1044.000000	67.408	-122.0628
1060.000000	67.694	-121.8342
1075.000000	67.944	-121.7380
1090.000000	68.181	-121.7444
1106.000000	68.428	-121.8398
1120.000000	68.638	-121.9822
1138.000000	68.891	-122.2441
1150.000000	69.050	-122.4622
1172.000000	69.324	-122.8673
1180.000000	69.420	-123.0149
1206.000000	69.709	-123.5324
1220.000000	69.854	-123.8245
1241.000000	70.066	-124.2751
1250.000000	70.154	-124.4695
1265.000000	70.297	-124.8021
1280.000000	70.437	-125.1610
1315.000000	70.729	-126.0110
1320.000000	70.767	-126.1314
1340.000000	70.915	-126.6049
1360.000000	71.054	-127.0730
1380.000000	71.191	-127.5322
1400.000000	71.328	-127.9812
1430.000000	71.530	-128.6412
1450.000000	71.660	-129.0736
1475.000000	71.816	-129.6160
1500.000000	71.970	-130.1592
1525.000000	72.123	-130.7009
1550.000000	72.274	-131.2427
1575.000000	72.423	-131.7954
1600.000000	72.570	-132.3675
1625.000000	72.714	-132.9669
1650.000000	72.856	-133.5862
1675.000000	72.998	-134.2268
1700.000000	73.136	-134.8965
1725.000000	73.271	-135.5864
1750.000000	73.403	-136.2997
1775.000000	73.530	-137.0535
1800.000000	73.656	-137.8337
1825.000000	73.779	-138.6226
1850.000000	73.901	-139.4304
1875.000000	74.025	-140.2474
1900.000000	74.155	-141.0900
1925.000000	74.291	-142.0065
1950.000000	74.433	-143.0670
1975.000000	74.570	-144.3006
2000.000000	74.691	-145.6778
2030.000000	74.808	-147.4609
2060.000000	74.893	-149.3239
2090.000000	74.951	-151.2215
2120.000000	74.988	-153.1262
2140.000000	75.002	-154.4014
2180.000000	74.999	-156.9651
2200.000000	74.982	-158.2501
2240.000000	74.916	-160.8069
2270.000000	74.840	-162.6993
2300.000000	74.745	-164.5679
2330.000000	74.629	-166.4077
2360.000000	74.492	-168.2009
2400.000000	74.276	-170.4990
2430.000000	74.088	-172.1492
2470.000000	73.803	-174.2276
2500.000000	73.567	-175.6574
2540.000000	73.222	-177.3635
2580.000000	72.845	-178.8332
2620.000000	72.441	179.9840
2650.000000	72.123	179.3162
2690.000000	71.684	178.7221
2720.000000	71.347	178.5117
2760.000000	70.896	178.5889
2800.000000	70.456	179.0854
2850.000000	69.952	-179.7151
2900.000000	69.527	-178.0692
2950.000000	69.190	-176.2661
3000.000000	68.926	-174.5043
3040.000000	68.756	-173.1650
3070.000000	68.643	-172.1986
3110.000000	68.507	-170.9605
3150.000000	68.392	-169.7912
3200.000000	68.272	-168.4142
3250.000000	68.169	-167.1425
3300.000000	68.070	-166.0254
3350.000000	67.967	-165.0346
3400.000000	67.860	-164.0652
3450.000000	67.754	-163.0631
3500.000000	67.651	-161.9952
3550.000000	67.556	-160.8491
3600.000000	67.472	-159.6576
3650.000000	67.401	-158.4389
3700.000000	67.340	-157.2058
3750.000000	67.289	-155.9907
3820.000000	67.232	-154.2882
3870.000000	67.202	-153.0871
3950.000000	67.162	-151.2486
4000.000000	67.137	-150.1779
4060.000000	67.107	-148.9023
4120.000000	67.081	-147.6148
4180.000000	67.056	-146.3135
4250.000000	67.031	-144.7679
4310.000000	67.012	-143.4075
4370.000000	66.991	-142.0051
4440.000000	66.969	-140.3342
4500.000000	66.955	-138.8495
4550.000000	66.952	-137.5699
4620.000000	66.965	-135.7371
4680.000000	66.995	-134.1478
4750.000000	67.047	-132.2563
4820.000000	67.119	-130.3314
4870.000000	67.183	-128.9634
4940.000000	67.292	-127.0269
5000.000000	67.401	-125.3373
5080.000000	67.582	-123.0700
5150.000000	67.782	-121.0711
5220.000000	68.026	-119.1023
5300.000000	68.364	-116.9828
5380.000000	68.761	-115.1164
5450.000000	69.150	-113.7484
5520.000000	69.569	-112.6510
5600.000000	70.075	-111.8056
5700.000000	70.724	-111.4862
5800.000000	71.347	-111.9319
5900.000000	71.921	-112.7930
6000.000000	72.466	-113.7744
6080.000000	72.902	-114.5986
6150.000000	73.307	-115.3961
6220.000000	73.736	-116.3305
6300.000000	74.253	-117.6334
6400.000000	74.939	-119.8989
6500.000000	75.638	-123.1646
6600.000000	76.304	-127.2965
6700.000000	76.898	-132.3317
6800.000000	77.349	-138.1872
6900.000000	77.665	-144.6164
7000.000000	77.872	-151.5153
7100.000000	77.890	-158.2133
7200.000000	77.715	-163.7199
7300.000000	77.496	-168.2476
7400.000000	77.313	-172.7653
7500.000000	77.109	-177.2558
7620.000000	76.866	177.8834
7750.000000	76.643	173.2808
7880.000000	76.451	168.6671
8000.000000	76.235	164.0266
8120.000000	76.032	158.6010
8250.000000	75.791	151.6061
8380.000000	75.354	144.0914
8500.000000	74.753	137.3586
8620.000000	73.964	131.0671
8750.000000	72.973	125.0803
8850.000000	72.158	121.5321
9000.000000	70.829	117.5312
9120.000000	69.741	115.1959
9250.000000	68.555	113.6274
9380.000000	67.437	112.6691
9500.000000	66.501	112.1891
9620.000000	65.650	112.0525
9750.000000	64.792	111.9478
9880.000000	63.982	111.8469
10000.000000	63.266	112.1664
10150.000000	62.427	112.8876
10300.000000	61.712	113.3532
10440.000000	61.116	113.7348
10600.000000	60.450	113.5703
10750.000000	59.798	112.6634
10900.000000	59.115	111.4362
11060.000000	58.269	110.3340
11200.000000	57.434	109.5533
11380.000000	56.280	109.0646
11500.000000	55.463	109.3155
11720.000000	53.912	110.9941
11800.000000	53.336	111.9661
12060.000000	51.520	116.7226
12200.000000	50.642	120.3729
12410.000000	49.431	126.1475
12500.000000	48.968	128.9605
12650.000000	48.281	134.6606
12800.000000	47.679	140.9249
13150.000000	46.892	152.9186
13200.000000	46.851	154.5602
13400.000000	46.857	161.9031
13600.000000	46.996	168.8925
13800.000000	47.482	175.0142
14000.000000	48.440	178.6989
14300.000000	50.093	-179.9850
14500.000000	51.297	178.1664
14750.000000	52.562	170.2914
15000.000000	53.099	160.0753
15250.000000	52.878	150.5765
15500.000000	52.462	142.4065
15750.000000	52.154	135.2307
16000.000000	51.957	127.3084
16250.000000	51.838	118.6685
16500.000000	51.773	107.8099
16750.000000	51.220	95.1626
17000.000000	49.993	81.4431
17250.000000	48.327	68.4021
17500.000000	45.990	59.3602
17750.000000	42.813	59.3482
18000.000000	39.382	74.1419
18250.000000	38.009	97.4279
18500.000000	39.441	111.4512
18750.000000	40.800	111.8272
19000.000000	41.271	104.9627
19250.000000	41.329	95.5421
19500.000000	41.051	89.8495
19750.000000	40.484	88.7444
20000.000000	39.997	91.5092
