* Measurement data measured by REW V5.20.13
* Source: EXCL: Mic in at rear panel (Pink)(Realtek(R) Audio), MICROPHONE (마스), R, volume: 1.000
* Format: 256k Log Swept Sine, 1 sweep at -12.0 dBFS with no timing reference
* Dated: 2023. 2. 14 오후 9:36:11
* REW Settings:
*  C-weighting compensation: Off
*  Target level: 75.0 dB
* Note: 
* Measurement: L_00
* Smoothing: 1/24 octave
* Frequency Step: 1/48 octave
* Start Frequency: 20.300 Hz
*
* Freq(Hz)	SPL(dB)	Phase(degrees)
20.299999	97.411	179.4970
20.600000	97.405	179.3229
20.900000	97.392	179.0147
21.200001	97.376	178.7260
21.400000	97.364	178.5373
21.799999	97.335	178.1427
22.000000	97.318	177.9298
22.400000	97.282	177.4793
22.700001	97.254	177.1266
23.000000	97.225	176.7638
23.299999	97.198	176.3911
23.600000	97.172	176.0083
24.000000	97.143	175.4840
24.299999	97.123	175.0861
24.700001	97.098	174.5617
25.000000	97.082	174.1821
25.400000	97.062	173.7016
25.799999	97.046	173.2490
26.200001	97.033	172.8168
26.500000	97.023	172.5025
26.900000	97.007	172.0967
27.200001	96.991	171.8055
27.600000	96.967	171.4395
28.000000	96.940	171.0999
28.500000	96.904	170.7030
29.000000	96.866	170.3168
29.500000	96.825	169.9263
30.000000	96.781	169.5274
30.400000	96.744	169.2048
30.700001	96.715	168.9626
31.100000	96.676	168.6412
31.500000	96.637	168.3238
32.000000	96.590	167.9341
32.500000	96.547	167.5493
33.000000	96.509	167.1611
33.500000	96.477	166.7643
34.000000	96.446	166.3657
34.500000	96.413	165.9830
35.000000	96.380	165.6299
35.500000	96.346	165.3067
36.000000	96.315	165.0025
36.500000	96.282	164.7077
37.000000	96.248	164.4202
37.500000	96.211	164.1419
38.200001	96.154	163.7687
38.700001	96.110	163.5117
39.500000	96.039	163.1071
40.000000	95.996	162.8484
40.599998	95.944	162.5265
41.200001	95.892	162.2024
41.799999	95.841	161.8934
42.500000	95.785	161.5583
43.099998	95.743	161.2803
43.700001	95.704	161.0003
44.400002	95.656	160.6765
45.000000	95.612	160.4160
45.500000	95.574	160.2191
46.200001	95.521	159.9713
46.799999	95.475	159.7712
47.500000	95.424	159.5379
48.200001	95.373	159.3013
48.700001	95.339	159.1263
49.400002	95.291	158.8649
50.000000	95.248	158.6304
50.799999	95.189	158.3322
51.500000	95.138	158.1015
52.200001	95.090	157.8892
53.000000	95.038	157.6521
53.799999	94.984	157.4220
54.500000	94.934	157.2379
55.200001	94.884	157.0738
56.000000	94.827	156.8958
57.000000	94.756	156.6649
58.000000	94.682	156.4354
59.000000	94.604	156.2349
60.000000	94.531	156.0555
60.799999	94.477	155.8905
61.500000	94.429	155.7338
62.200001	94.380	155.5905
63.000000	94.324	155.4534
64.000000	94.259	155.3087
65.000000	94.198	155.1687
66.000000	94.136	155.0135
67.000000	94.069	154.8751
68.000000	94.001	154.7649
69.000000	93.934	154.6579
70.000000	93.867	154.5462
71.000000	93.799	154.4355
72.000000	93.729	154.3455
73.000000	93.662	154.2855
74.000000	93.597	154.2569
75.000000	93.537	154.2819
76.199997	93.480	154.3397
77.500000	93.426	154.3614
78.800003	93.376	154.3482
80.000000	93.330	154.2607
81.199997	93.278	154.1047
82.500000	93.211	153.9174
83.800003	93.139	153.7471
85.000000	93.072	153.6409
86.199997	93.011	153.5757
87.500000	92.949	153.5368
88.500000	92.903	153.5039
90.000000	92.829	153.4448
91.199997	92.769	153.4086
92.500000	92.701	153.3398
93.800003	92.628	153.2934
95.000000	92.564	153.3098
96.199997	92.508	153.3527
97.500000	92.453	153.3884
98.800003	92.397	153.4053
100.000000	92.343	153.4207
101.500000	92.279	153.4264
103.000000	92.216	153.4001
104.400002	92.158	153.4078
106.000000	92.096	153.4962
107.500000	92.040	153.5880
109.000000	91.977	153.6358
110.599998	91.905	153.6675
112.000000	91.851	153.6817
113.800003	91.794	153.7408
115.000000	91.759	153.8756
117.199997	91.680	154.4286
118.000000	91.649	154.7401
120.599998	91.607	155.2193
122.000000	91.542	154.8833
124.099998	91.421	154.5404
125.000000	91.385	154.4754
126.500000	91.344	154.4462
128.000000	91.307	154.5186
131.500000	91.197	154.8636
132.000000	91.179	154.9017
134.000000	91.113	155.0282
136.000000	91.060	155.1369
138.000000	91.010	155.2547
140.000000	90.953	155.3995
143.000000	90.866	155.6394
145.000000	90.812	155.8126
147.500000	90.749	156.0496
150.000000	90.684	156.2547
152.500000	90.621	156.4427
155.000000	90.565	156.6115
157.500000	90.508	156.7777
160.000000	90.447	156.9546
162.500000	90.386	157.1605
165.000000	90.334	157.3880
167.500000	90.284	157.5941
170.000000	90.232	157.7999
172.500000	90.180	158.0091
175.000000	90.129	158.2197
177.500000	90.078	158.4476
180.000000	90.029	158.6719
182.500000	89.979	158.8792
185.000000	89.931	159.0792
187.500000	89.887	159.2712
190.000000	89.844	159.4852
192.500000	89.800	159.7363
195.000000	89.757	159.9775
197.500000	89.716	160.1661
200.000000	89.678	160.3477
203.000000	89.634	160.5983
206.000000	89.590	160.8670
209.000000	89.550	161.1395
212.000000	89.515	161.3988
214.000000	89.489	161.5737
218.000000	89.437	161.9333
220.000000	89.412	162.1019
224.000000	89.364	162.4474
227.000000	89.332	162.7046
230.000000	89.294	162.9512
233.000000	89.254	163.2160
236.000000	89.217	163.4836
240.000000	89.171	163.8193
243.000000	89.136	164.0597
247.000000	89.086	164.3899
250.000000	89.051	164.6277
254.000000	89.010	164.9218
258.000000	88.972	165.2444
262.000000	88.933	165.5732
265.000000	88.904	165.8157
269.000000	88.869	166.1439
272.000000	88.844	166.3654
276.000000	88.811	166.6368
280.000000	88.777	166.9715
285.000000	88.737	167.4268
290.000000	88.703	167.8283
295.000000	88.667	168.1894
300.000000	88.632	168.5818
304.000000	88.606	168.9051
307.000000	88.590	169.1232
311.000000	88.570	169.3999
315.000000	88.552	169.6966
320.000000	88.531	170.0893
325.000000	88.503	170.4799
330.000000	88.473	170.8501
335.000000	88.448	171.2211
340.000000	88.425	171.5913
345.000000	88.399	171.9639
350.000000	88.371	172.3273
355.000000	88.344	172.6871
360.000000	88.321	173.0610
365.000000	88.299	173.4513
370.000000	88.275	173.8093
375.000000	88.250	174.1261
382.000000	88.221	174.5602
387.000000	88.201	174.9037
395.000000	88.159	175.4687
400.000000	88.132	175.8022
406.000000	88.100	176.2039
412.000000	88.075	176.6301
418.000000	88.052	177.0650
425.000000	88.027	177.5485
431.000000	88.009	177.9345
437.000000	87.995	178.3171
444.000000	87.978	178.7655
450.000000	87.963	179.1423
455.000000	87.950	179.4678
462.000000	87.935	179.9136
468.000000	87.922	-179.7219
475.000000	87.903	-179.2947
482.000000	87.883	-178.8591
487.000000	87.871	-178.5489
494.000000	87.858	-178.1167
500.000000	87.845	-177.7425
508.000000	87.825	-177.2362
515.000000	87.807	-176.7855
522.000000	87.792	-176.3411
530.000000	87.777	-175.8307
538.000000	87.762	-175.3116
545.000000	87.748	-174.8588
552.000000	87.734	-174.4102
560.000000	87.721	-173.8984
570.000000	87.704	-173.2615
580.000000	87.686	-172.6053
590.000000	87.667	-171.9251
600.000000	87.646	-171.2249
608.000000	87.633	-170.6807
615.000000	87.623	-170.2061
622.000000	87.613	-169.7130
630.000000	87.602	-169.1125
640.000000	87.593	-168.3309
650.000000	87.588	-167.5512
660.000000	87.591	-166.7458
670.000000	87.606	-165.9638
680.000000	87.625	-165.2397
690.000000	87.642	-164.5802
700.000000	87.652	-163.9348
710.000000	87.659	-163.2828
720.000000	87.669	-162.6215
730.000000	87.679	-161.9494
740.000000	87.689	-161.2462
750.000000	87.697	-160.5070
762.000000	87.710	-159.5967
775.000000	87.731	-158.6115
788.000000	87.758	-157.5976
800.000000	87.795	-156.6277
812.000000	87.841	-155.6401
825.000000	87.901	-154.5861
838.000000	87.971	-153.5780
850.000000	88.047	-152.6876
862.000000	88.133	-151.8387
875.000000	88.230	-150.9564
885.000000	88.307	-150.3169
900.000000	88.426	-149.4574
912.000000	88.523	-148.8388
925.000000	88.627	-148.1923
938.000000	88.732	-147.5933
950.000000	88.830	-147.0782
962.000000	88.928	-146.5860
975.000000	89.033	-146.0706
988.000000	89.136	-145.5882
1000.000000	89.234	-145.1763
1015.000000	89.361	-144.6857
1030.000000	89.488	-144.2586
1044.000000	89.606	-143.9045
1060.000000	89.740	-143.5309
1075.000000	89.862	-143.2259
1090.000000	89.981	-142.9728
1106.000000	90.115	-142.7407
1120.000000	90.234	-142.5782
1138.000000	90.382	-142.4031
1150.000000	90.478	-142.2957
1172.000000	90.651	-142.1392
1180.000000	90.712	-142.0879
1206.000000	90.908	-141.9492
1220.000000	91.010	-141.8918
1241.000000	91.158	-141.8287
1250.000000	91.221	-141.8146
1265.000000	91.327	-141.8081
1280.000000	91.429	-141.8072
1315.000000	91.661	-141.8305
1320.000000	91.692	-141.8401
1340.000000	91.816	-141.8913
1360.000000	91.931	-141.9482
1380.000000	92.045	-142.0059
1400.000000	92.160	-142.0573
1430.000000	92.330	-142.0848
1450.000000	92.448	-142.0639
1475.000000	92.605	-142.0248
1500.000000	92.773	-142.0162
1525.000000	92.951	-142.0714
1550.000000	93.138	-142.2004
1575.000000	93.331	-142.4273
1600.000000	93.527	-142.7809
1625.000000	93.723	-143.2762
1650.000000	93.917	-143.9034
1675.000000	94.106	-144.6689
1700.000000	94.283	-145.5854
1725.000000	94.443	-146.6470
1750.000000	94.583	-147.8269
1775.000000	94.697	-149.1021
1800.000000	94.782	-150.4463
1825.000000	94.840	-151.8279
1850.000000	94.868	-153.2079
1875.000000	94.869	-154.5536
1900.000000	94.842	-155.8253
1925.000000	94.793	-156.9953
1950.000000	94.724	-158.0465
1975.000000	94.639	-158.9575
2000.000000	94.546	-159.7263
2030.000000	94.427	-160.4628
2060.000000	94.305	-161.0087
2090.000000	94.186	-161.3842
2120.000000	94.075	-161.6137
2140.000000	94.007	-161.6980
2180.000000	93.885	-161.7230
2200.000000	93.832	-161.6826
2240.000000	93.741	-161.5363
2270.000000	93.687	-161.3859
2300.000000	93.644	-161.2101
2330.000000	93.612	-161.0184
2360.000000	93.590	-160.8260
2400.000000	93.575	-160.5894
2430.000000	93.572	-160.4294
2470.000000	93.578	-160.2510
2500.000000	93.589	-160.1458
2540.000000	93.608	-160.0519
2580.000000	93.634	-160.0024
2620.000000	93.664	-160.0071
2650.000000	93.688	-160.0442
2690.000000	93.721	-160.1341
2720.000000	93.746	-160.2329
2760.000000	93.779	-160.3989
2800.000000	93.812	-160.6009
2850.000000	93.851	-160.9117
2900.000000	93.888	-161.2946
2950.000000	93.923	-161.7545
3000.000000	93.953	-162.2837
3040.000000	93.974	-162.7644
3070.000000	93.987	-163.1538
3110.000000	93.999	-163.7138
3150.000000	94.004	-164.3211
3200.000000	94.001	-165.1373
3250.000000	93.985	-166.0136
3300.000000	93.956	-166.9566
3350.000000	93.910	-167.9541
3400.000000	93.847	-169.0046
3450.000000	93.768	-170.0986
3500.000000	93.671	-171.2163
3550.000000	93.549	-172.3404
3600.000000	93.398	-173.4580
3650.000000	93.216	-174.5492
3700.000000	93.000	-175.5781
3750.000000	92.748	-176.4993
3820.000000	92.337	-177.5344
3870.000000	91.998	-178.0305
3950.000000	91.384	-178.2485
4000.000000	90.963	-177.9467
4060.000000	90.432	-177.0354
4120.000000	89.890	-175.4161
4180.000000	89.362	-173.0291
4250.000000	88.804	-169.2244
4310.000000	88.415	-165.1329
4370.000000	88.145	-160.4296
4440.000000	88.032	-154.4918
4500.000000	88.132	-149.4020
4550.000000	88.352	-145.4375
4620.000000	88.832	-140.6904
4680.000000	89.354	-137.6032
4750.000000	90.018	-135.3054
4820.000000	90.670	-134.4134
4870.000000	91.089	-134.5430
4940.000000	91.567	-135.5544
5000.000000	91.857	-136.8969
5080.000000	92.065	-138.7979
5150.000000	92.114	-140.0764
5220.000000	92.097	-140.6924
5300.000000	92.095	-140.5703
5380.000000	92.196	-139.9985
5450.000000	92.382	-139.6837
5520.000000	92.617	-139.9564
5600.000000	92.863	-141.1557
5700.000000	93.019	-143.5982
5800.000000	92.959	-146.1959
5900.000000	92.724	-148.1581
6000.000000	92.398	-149.1405
6080.000000	92.119	-149.2288
6150.000000	91.887	-148.8625
6220.000000	91.679	-148.1395
6300.000000	91.477	-146.9588
6400.000000	91.290	-145.0712
6500.000000	91.182	-142.8395
6600.000000	91.159	-140.3669
6700.000000	91.224	-137.7521
6800.000000	91.388	-135.0792
6900.000000	91.673	-132.4349
7000.000000	92.084	-129.9160
7100.000000	92.615	-127.6561
7200.000000	93.261	-125.8151
7300.000000	94.018	-124.5209
7400.000000	94.899	-123.9076
7500.000000	95.920	-124.3104
7620.000000	97.294	-126.9193
7750.000000	98.761	-133.3976
7880.000000	99.821	-144.1160
8000.000000	100.188	-156.5402
8120.000000	99.914	-168.7880
8250.000000	99.082	-179.3584
8380.000000	98.023	173.4478
8500.000000	97.068	168.9836
8620.000000	96.214	165.5825
8750.000000	95.375	162.2595
8850.000000	94.744	159.6920
9000.000000	93.736	155.8678
9120.000000	92.830	153.1626
9250.000000	91.741	151.0359
9380.000000	90.575	150.1126
9500.000000	89.485	150.4576
9620.000000	88.436	151.8545
9750.000000	87.393	154.3238
9880.000000	86.466	157.5415
10000.000000	85.718	161.0220
10150.000000	84.929	165.9243
10300.000000	84.320	171.2899
10440.000000	83.923	176.5600
10600.000000	83.699	-177.2665
10750.000000	83.758	-171.6578
10900.000000	84.115	-166.9817
11060.000000	84.724	-164.3608
11200.000000	85.201	-164.7121
11380.000000	85.418	-167.1648
11500.000000	85.338	-168.4630
11720.000000	85.110	-168.8598
11800.000000	85.075	-168.6454
12060.000000	85.184	-168.3590
12200.000000	85.320	-168.9950
12410.000000	85.489	-171.2737
12500.000000	85.527	-172.6945
12650.000000	85.522	-175.5079
12800.000000	85.423	-178.6623
13150.000000	84.844	174.0411
13200.000000	84.733	173.1173
13400.000000	84.265	169.8573
13600.000000	83.820	167.1992
13800.000000	83.472	164.8827
14000.000000	83.266	162.4730
14300.000000	83.244	157.4241
14500.000000	83.341	151.9840
14750.000000	83.292	142.1792
15000.000000	82.723	131.1209
15250.000000	81.768	123.1316
15500.000000	81.435	118.2538
15750.000000	82.118	108.1270
16000.000000	82.207	88.1527
16250.000000	80.760	68.8829
16500.000000	78.525	58.3712
16750.000000	76.599	54.1198
17000.000000	75.445	52.1181
17250.000000	75.063	50.0525
17500.000000	75.335	46.3576
17750.000000	76.019	39.2295
18000.000000	76.667	26.8913
18250.000000	76.697	9.5059
18500.000000	75.641	-8.4430
18750.000000	73.373	-18.0314
19000.000000	70.696	-12.3470
19250.000000	69.965	-3.2762
19500.000000	70.207	-5.1388
19750.000000	69.756	-10.7082
20000.000000	69.195	-13.3517
