* Measurement data measured by REW V5.20.13
* Source: EXCL: Mic in at rear panel (Pink)(Realtek(R) Audio), MICROPHONE (마스), R, volume: 1.000
* Format: 256k Log Swept Sine, 1 sweep at -12.0 dBFS with no timing reference
* Dated: 2023. 2. 14 오후 9:35:23
* REW Settings:
*  C-weighting compensation: Off
*  Target level: 75.0 dB
* Note: 
* Measurement: R_00
* Smoothing: 1/24 octave
* Frequency Step: 1/48 octave
* Start Frequency: 20.300 Hz
*
* Freq(Hz)	SPL(dB)	Phase(degrees)
20.299999	98.053	179.2722
20.600000	98.045	179.0905
20.900000	98.026	178.7736
21.200001	98.003	178.4904
21.400000	97.986	178.3147
21.799999	97.949	177.9637
22.000000	97.931	177.7781
22.400000	97.893	177.3830
22.700001	97.865	177.0636
23.000000	97.838	176.7198
23.299999	97.813	176.3514
23.600000	97.789	175.9608
24.000000	97.758	175.4149
24.299999	97.736	174.9988
24.700001	97.708	174.4533
25.000000	97.688	174.0618
25.400000	97.664	173.5699
25.799999	97.645	173.1087
26.200001	97.630	172.6651
26.500000	97.620	172.3350
26.900000	97.603	171.8937
27.200001	97.587	171.5673
27.600000	97.557	171.1561
28.000000	97.522	170.7984
28.500000	97.478	170.4403
29.000000	97.444	170.1242
29.500000	97.419	169.7460
30.000000	97.387	169.2466
30.400000	97.344	168.8017
30.700001	97.300	168.4895
31.100000	97.231	168.1651
31.500000	97.159	167.9776
32.000000	97.083	167.9126
32.500000	97.037	167.9398
33.000000	97.022	167.9444
33.500000	97.032	167.8509
34.000000	97.056	167.6175
34.500000	97.077	167.2413
35.000000	97.085	166.7612
35.500000	97.076	166.2465
36.000000	97.052	165.7551
36.500000	97.018	165.3103
37.000000	96.978	164.9125
37.500000	96.933	164.5591
38.200001	96.866	164.1350
38.700001	96.820	163.8632
39.500000	96.753	163.4067
40.000000	96.711	163.0853
40.599998	96.655	162.6862
41.200001	96.594	162.3235
41.799999	96.535	162.0183
42.500000	96.477	161.6969
43.099998	96.433	161.4107
43.700001	96.390	161.1232
44.400002	96.338	160.8184
45.000000	96.296	160.5800
45.500000	96.262	160.3815
46.200001	96.212	160.1012
46.799999	96.168	159.8707
47.500000	96.118	159.6131
48.200001	96.070	159.3517
48.700001	96.036	159.1597
49.400002	95.989	158.8895
50.000000	95.947	158.6622
50.799999	95.891	158.3736
51.500000	95.843	158.1411
52.200001	95.796	157.9230
53.000000	95.745	157.6765
53.799999	95.691	157.4270
54.500000	95.641	157.2153
55.200001	95.588	157.0230
56.000000	95.530	156.8292
57.000000	95.461	156.5882
58.000000	95.391	156.3322
59.000000	95.317	156.1069
60.000000	95.246	155.9039
60.799999	95.191	155.7375
61.500000	95.145	155.5889
62.200001	95.098	155.4377
63.000000	95.042	155.2703
64.000000	94.971	155.0916
65.000000	94.904	154.9368
66.000000	94.839	154.7902
67.000000	94.776	154.6591
68.000000	94.716	154.5249
69.000000	94.654	154.3856
70.000000	94.590	154.2648
71.000000	94.528	154.1538
72.000000	94.467	154.0424
73.000000	94.406	153.9291
74.000000	94.345	153.8147
75.000000	94.284	153.7187
76.199997	94.213	153.6248
77.500000	94.140	153.5164
78.800003	94.063	153.4217
80.000000	93.994	153.3647
81.199997	93.927	153.3119
82.500000	93.856	153.2505
83.800003	93.785	153.1831
85.000000	93.720	153.1381
86.199997	93.657	153.1068
87.500000	93.593	153.0708
88.500000	93.545	153.0320
90.000000	93.471	152.9648
91.199997	93.410	152.9396
92.500000	93.348	152.9291
93.800003	93.288	152.9200
95.000000	93.233	152.8998
96.199997	93.175	152.8800
97.500000	93.111	152.8882
98.800003	93.049	152.9259
100.000000	92.996	152.9701
101.500000	92.932	152.9976
103.000000	92.866	152.9965
104.400002	92.802	152.9831
106.000000	92.730	152.9839
107.500000	92.670	153.0149
109.000000	92.614	153.0728
110.599998	92.557	153.1605
112.000000	92.506	153.2347
113.800003	92.436	153.2864
115.000000	92.388	153.2967
117.199997	92.317	153.3027
118.000000	92.297	153.2811
120.599998	92.208	153.2650
122.000000	92.154	153.4509
124.099998	92.083	153.7171
125.000000	92.051	153.7985
126.500000	91.995	153.9010
128.000000	91.941	153.9854
131.500000	91.835	154.1944
132.000000	91.820	154.2279
134.000000	91.763	154.3646
136.000000	91.704	154.5045
138.000000	91.645	154.6420
140.000000	91.586	154.7763
143.000000	91.500	154.9863
145.000000	91.444	155.1262
147.500000	91.376	155.3219
150.000000	91.306	155.5304
152.500000	91.237	155.7422
155.000000	91.177	155.9199
157.500000	91.120	156.0778
160.000000	91.060	156.2680
162.500000	91.000	156.4869
165.000000	90.944	156.7011
167.500000	90.890	156.9003
170.000000	90.833	157.1087
172.500000	90.778	157.3317
175.000000	90.726	157.5427
177.500000	90.673	157.7609
180.000000	90.620	157.9819
182.500000	90.568	158.2097
185.000000	90.518	158.4466
187.500000	90.468	158.6924
190.000000	90.420	158.9446
192.500000	90.374	159.2031
195.000000	90.332	159.4666
197.500000	90.289	159.7192
200.000000	90.248	159.9727
203.000000	90.206	160.2779
206.000000	90.170	160.5721
209.000000	90.138	160.8452
212.000000	90.106	161.1125
214.000000	90.085	161.2971
218.000000	90.044	161.6558
220.000000	90.024	161.8179
224.000000	89.987	162.1334
227.000000	89.963	162.3478
230.000000	89.935	162.5284
233.000000	89.901	162.7134
236.000000	89.866	162.9239
240.000000	89.824	163.2238
243.000000	89.790	163.4241
247.000000	89.738	163.6945
250.000000	89.702	163.9040
254.000000	89.654	164.1646
258.000000	89.606	164.4605
262.000000	89.560	164.7929
265.000000	89.527	165.0220
269.000000	89.487	165.3234
272.000000	89.458	165.5577
276.000000	89.421	165.8527
280.000000	89.386	166.1291
285.000000	89.343	166.4883
290.000000	89.302	166.8663
295.000000	89.265	167.2454
300.000000	89.228	167.6571
304.000000	89.198	167.9734
307.000000	89.179	168.1852
311.000000	89.155	168.4559
315.000000	89.133	168.7324
320.000000	89.104	169.1059
325.000000	89.072	169.4882
330.000000	89.040	169.8477
335.000000	89.006	170.1982
340.000000	88.974	170.5443
345.000000	88.943	170.8946
350.000000	88.912	171.2681
355.000000	88.881	171.6437
360.000000	88.848	172.0238
365.000000	88.818	172.4234
370.000000	88.788	172.8382
375.000000	88.755	173.2499
382.000000	88.716	173.8330
387.000000	88.694	174.2569
395.000000	88.664	174.9494
400.000000	88.648	175.3548
406.000000	88.626	175.7999
412.000000	88.608	176.2379
418.000000	88.595	176.6759
425.000000	88.584	177.1890
431.000000	88.578	177.5857
437.000000	88.574	177.9487
444.000000	88.565	178.3477
450.000000	88.555	178.6582
455.000000	88.547	178.9117
462.000000	88.534	179.2932
468.000000	88.522	179.6262
475.000000	88.506	-179.9899
482.000000	88.490	-179.6091
487.000000	88.477	-179.3290
494.000000	88.458	-178.9349
500.000000	88.441	-178.6004
508.000000	88.417	-178.1580
515.000000	88.400	-177.7525
522.000000	88.383	-177.3289
530.000000	88.363	-176.8480
538.000000	88.346	-176.3696
545.000000	88.330	-175.9532
552.000000	88.313	-175.5221
560.000000	88.293	-175.0273
570.000000	88.271	-174.4337
580.000000	88.250	-173.8192
590.000000	88.232	-173.1923
600.000000	88.211	-172.5306
608.000000	88.195	-171.9940
615.000000	88.181	-171.5403
622.000000	88.169	-171.0851
630.000000	88.156	-170.5397
640.000000	88.141	-169.8262
650.000000	88.127	-169.0817
660.000000	88.122	-168.3334
670.000000	88.126	-167.6260
680.000000	88.129	-166.9546
690.000000	88.127	-166.2902
700.000000	88.126	-165.6319
710.000000	88.126	-164.9799
720.000000	88.124	-164.3027
730.000000	88.124	-163.6076
740.000000	88.126	-162.9247
750.000000	88.130	-162.2321
762.000000	88.134	-161.3698
775.000000	88.142	-160.4214
788.000000	88.157	-159.4249
800.000000	88.172	-158.5095
812.000000	88.193	-157.5870
825.000000	88.225	-156.5475
838.000000	88.267	-155.4926
850.000000	88.314	-154.5269
862.000000	88.370	-153.5583
875.000000	88.442	-152.5165
885.000000	88.505	-151.7269
900.000000	88.612	-150.5828
912.000000	88.709	-149.7326
925.000000	88.822	-148.8909
938.000000	88.939	-148.1360
950.000000	89.049	-147.5047
962.000000	89.161	-146.9240
975.000000	89.283	-146.3608
988.000000	89.403	-145.8643
1000.000000	89.511	-145.4495
1015.000000	89.646	-144.9688
1030.000000	89.778	-144.5472
1044.000000	89.895	-144.2007
1060.000000	90.026	-143.8412
1075.000000	90.146	-143.5286
1090.000000	90.267	-143.2412
1106.000000	90.405	-142.9832
1120.000000	90.525	-142.8036
1138.000000	90.676	-142.6258
1150.000000	90.771	-142.5386
1172.000000	90.939	-142.4087
1180.000000	90.997	-142.3613
1206.000000	91.181	-142.2208
1220.000000	91.275	-142.1624
1241.000000	91.415	-142.0569
1250.000000	91.473	-142.0089
1265.000000	91.567	-141.9385
1280.000000	91.661	-141.8706
1315.000000	91.881	-141.7098
1320.000000	91.912	-141.6897
1340.000000	92.035	-141.6099
1360.000000	92.155	-141.5294
1380.000000	92.277	-141.4503
1400.000000	92.404	-141.3824
1430.000000	92.604	-141.3101
1450.000000	92.742	-141.2910
1475.000000	92.918	-141.3133
1500.000000	93.099	-141.3778
1525.000000	93.283	-141.4981
1550.000000	93.473	-141.7008
1575.000000	93.664	-141.9916
1600.000000	93.857	-142.3897
1625.000000	94.049	-142.8995
1650.000000	94.238	-143.5233
1675.000000	94.421	-144.2677
1700.000000	94.594	-145.1447
1725.000000	94.753	-146.1584
1750.000000	94.894	-147.2892
1775.000000	95.014	-148.5216
1800.000000	95.108	-149.8369
1825.000000	95.177	-151.2067
1850.000000	95.218	-152.6006
1875.000000	95.230	-153.9852
1900.000000	95.213	-155.3232
1925.000000	95.172	-156.5861
1950.000000	95.110	-157.7465
1975.000000	95.029	-158.7842
2000.000000	94.934	-159.6888
2030.000000	94.806	-160.5924
2060.000000	94.672	-161.3011
2090.000000	94.537	-161.8249
2120.000000	94.403	-162.1763
2140.000000	94.317	-162.3274
2180.000000	94.158	-162.4644
2200.000000	94.085	-162.4614
2240.000000	93.953	-162.3467
2270.000000	93.868	-162.1841
2300.000000	93.795	-161.9729
2330.000000	93.733	-161.7287
2360.000000	93.682	-161.4683
2400.000000	93.631	-161.1109
2430.000000	93.603	-160.8464
2470.000000	93.577	-160.5105
2500.000000	93.566	-160.2744
2540.000000	93.562	-159.9816
2580.000000	93.570	-159.7278
2620.000000	93.584	-159.5242
2650.000000	93.598	-159.3993
2690.000000	93.621	-159.2778
2720.000000	93.640	-159.2284
2760.000000	93.670	-159.2060
2800.000000	93.700	-159.2317
2850.000000	93.740	-159.3547
2900.000000	93.779	-159.5645
2950.000000	93.813	-159.8576
3000.000000	93.844	-160.2484
3040.000000	93.866	-160.6271
3070.000000	93.880	-160.9461
3110.000000	93.894	-161.4255
3150.000000	93.900	-161.9617
3200.000000	93.895	-162.6994
3250.000000	93.872	-163.5241
3300.000000	93.829	-164.4238
3350.000000	93.764	-165.3707
3400.000000	93.675	-166.3423
3450.000000	93.566	-167.3212
3500.000000	93.438	-168.2924
3550.000000	93.285	-169.2421
3600.000000	93.100	-170.1519
3650.000000	92.879	-170.9786
3700.000000	92.623	-171.6679
3750.000000	92.331	-172.1746
3820.000000	91.869	-172.4979
3870.000000	91.502	-172.3759
3950.000000	90.865	-171.4088
4000.000000	90.452	-170.2607
4060.000000	89.962	-168.2725
4120.000000	89.502	-165.5661
4180.000000	89.099	-162.1472
4250.000000	88.738	-157.3715
4310.000000	88.557	-152.7525
4370.000000	88.516	-147.8616
4440.000000	88.662	-142.1944
4500.000000	88.953	-137.6993
4550.000000	89.295	-134.3892
4620.000000	89.886	-130.6309
4680.000000	90.460	-128.3490
4750.000000	91.155	-126.8293
4820.000000	91.819	-126.4839
4870.000000	92.247	-126.8599
4940.000000	92.759	-128.0469
5000.000000	93.107	-129.4558
5080.000000	93.453	-131.5327
5150.000000	93.670	-133.3068
5220.000000	93.844	-134.9909
5300.000000	94.018	-136.9434
5380.000000	94.155	-139.1521
5450.000000	94.215	-141.3658
5520.000000	94.193	-143.7210
5600.000000	94.052	-146.3087
5700.000000	93.727	-148.9298
5800.000000	93.299	-150.5442
5900.000000	92.838	-151.1157
6000.000000	92.395	-150.7862
6080.000000	92.076	-149.9956
6150.000000	91.830	-148.9960
6220.000000	91.617	-147.7647
6300.000000	91.419	-146.1248
6400.000000	91.241	-143.8024
6500.000000	91.142	-141.2637
6600.000000	91.126	-138.5741
6700.000000	91.194	-135.8110
6800.000000	91.357	-133.0380
6900.000000	91.634	-130.3298
7000.000000	92.030	-127.7780
7100.000000	92.541	-125.4896
7200.000000	93.163	-123.6061
7300.000000	93.895	-122.3137
7400.000000	94.734	-121.8213
7500.000000	95.669	-122.3912
7620.000000	96.882	-124.9553
7750.000000	98.153	-130.7067
7880.000000	99.079	-139.7759
8000.000000	99.442	-150.1345
8120.000000	99.293	-160.4787
8250.000000	98.696	-169.7296
8380.000000	97.899	-176.3447
8500.000000	97.175	179.3086
8620.000000	96.530	175.7838
8750.000000	95.887	172.2338
8850.000000	95.400	169.5573
9000.000000	94.655	165.4798
9120.000000	94.000	162.1856
9250.000000	93.196	158.9034
9380.000000	92.295	156.3224
9500.000000	91.414	154.8020
9620.000000	90.533	154.1433
9750.000000	89.630	154.2794
9880.000000	88.819	155.0615
10000.000000	88.166	156.1358
10150.000000	87.484	157.6747
10300.000000	86.947	159.1386
10440.000000	86.565	160.1947
10600.000000	86.253	160.7184
10750.000000	86.058	160.2475
10900.000000	85.920	158.4578
11060.000000	85.762	154.5662
11200.000000	85.510	148.9701
11380.000000	84.775	138.2114
11500.000000	83.822	129.1660
11720.000000	80.499	116.3657
11800.000000	78.645	118.5388
12060.000000	72.877	172.1848
12200.000000	74.432	-160.7036
12410.000000	77.432	-153.4313
12500.000000	78.229	-155.8217
12650.000000	79.069	-161.1785
12800.000000	79.493	-166.5297
13150.000000	79.628	-176.9451
13200.000000	79.599	-178.1953
13400.000000	79.453	177.1904
13600.000000	79.332	172.8258
13800.000000	79.303	168.1093
14000.000000	79.383	162.3444
14300.000000	79.547	150.0641
14500.000000	79.439	138.8222
14750.000000	78.688	122.9177
15000.000000	77.123	109.4875
15250.000000	75.119	102.7645
15500.000000	73.621	103.1531
15750.000000	73.782	105.9221
16000.000000	75.308	102.1298
16250.000000	76.390	87.5771
16500.000000	76.151	70.6709
16750.000000	75.146	60.0624
17000.000000	74.297	55.4351
17250.000000	74.053	53.4069
17500.000000	74.432	51.3005
17750.000000	75.228	47.0313
18000.000000	76.027	38.6572
18250.000000	76.235	26.4804
18500.000000	75.511	16.3796
18750.000000	74.673	13.1208
19000.000000	74.594	8.6257
19250.000000	74.117	-0.0968
19500.000000	72.871	-6.3979
19750.000000	71.447	-8.7984
20000.000000	70.550	-9.2510
