* Measurement data measured by REW V5.20.13
* Source: EXCL: Mic in at rear panel (Pink)(Realtek(R) Audio), MICROPHONE (마스), R, volume: 1.000
* Format: 256k Log Swept Sine, 1 sweep at -12.0 dBFS with no timing reference
* Dated: 2023. 2. 14 오후 9:16:35
* REW Settings:
*  C-weighting compensation: Off
*  Target level: 75.0 dB
* Note: 
* Measurement: R_11
* Smoothing: 1/24 octave
* Frequency Step: 1/48 octave
* Start Frequency: 20.300 Hz
*
* Freq(Hz)	SPL(dB)	Phase(degrees)
20.299999	98.130	-176.6623
20.600000	98.129	-176.8184
20.900000	98.125	-177.0951
21.200001	98.116	-177.3553
21.400000	98.109	-177.5261
21.799999	98.089	-177.8846
22.000000	98.076	-178.0783
22.400000	98.048	-178.4880
22.700001	98.025	-178.8078
23.000000	98.002	-179.1350
23.299999	97.980	-179.4690
23.600000	97.961	-179.8119
24.000000	97.941	179.7122
24.299999	97.930	179.3393
24.700001	97.917	178.8255
25.000000	97.906	178.4384
25.400000	97.890	177.9401
25.799999	97.874	177.4832
26.200001	97.860	177.0748
26.500000	97.850	176.7930
26.900000	97.838	176.4341
27.200001	97.827	176.1698
27.600000	97.809	175.8240
28.000000	97.788	175.4983
28.500000	97.758	175.1309
29.000000	97.730	174.7799
29.500000	97.702	174.3947
30.000000	97.666	173.9653
30.400000	97.629	173.6269
30.700001	97.597	173.3992
31.100000	97.556	173.1395
31.500000	97.520	172.9111
32.000000	97.485	172.6171
32.500000	97.454	172.2812
33.000000	97.423	171.9263
33.500000	97.395	171.5898
34.000000	97.371	171.2747
34.500000	97.350	170.9596
35.000000	97.327	170.6412
35.500000	97.301	170.3400
36.000000	97.273	170.0685
36.500000	97.246	169.8160
37.000000	97.217	169.5681
37.500000	97.185	169.3261
38.200001	97.136	169.0089
38.700001	97.098	168.7899
39.500000	97.038	168.4301
40.000000	96.999	168.2055
40.599998	96.954	167.9404
41.200001	96.910	167.6728
41.799999	96.868	167.4075
42.500000	96.821	167.1234
43.099998	96.786	166.9019
43.700001	96.756	166.6867
44.400002	96.720	166.4438
45.000000	96.690	166.2502
45.500000	96.665	166.0948
46.200001	96.629	165.8762
46.799999	96.597	165.6908
47.500000	96.560	165.4791
48.200001	96.524	165.2541
48.700001	96.498	165.0790
49.400002	96.457	164.8297
50.000000	96.421	164.6311
50.799999	96.372	164.3961
51.500000	96.331	164.2146
52.200001	96.294	164.0526
53.000000	96.254	163.8749
53.799999	96.213	163.6949
54.500000	96.175	163.5528
55.200001	96.137	163.4350
56.000000	96.098	163.3067
57.000000	96.053	163.1094
58.000000	96.005	162.8763
59.000000	95.953	162.6532
60.000000	95.901	162.4437
60.799999	95.861	162.2657
61.500000	95.825	162.1098
62.200001	95.787	161.9712
63.000000	95.746	161.8343
64.000000	95.696	161.6639
65.000000	95.643	161.4942
66.000000	95.589	161.3477
67.000000	95.536	161.2130
68.000000	95.483	161.0892
69.000000	95.431	160.9704
70.000000	95.377	160.8518
71.000000	95.321	160.7628
72.000000	95.269	160.6934
73.000000	95.220	160.6097
74.000000	95.169	160.5258
75.000000	95.119	160.4529
76.199997	95.064	160.3618
77.500000	95.005	160.2513
78.800003	94.948	160.1547
80.000000	94.898	160.0825
81.199997	94.848	160.0033
82.500000	94.789	159.9483
83.800003	94.732	159.9363
85.000000	94.682	159.9186
86.199997	94.633	159.8893
87.500000	94.580	159.8501
88.500000	94.540	159.8168
90.000000	94.484	159.7963
91.199997	94.443	159.7826
92.500000	94.397	159.7706
93.800003	94.350	159.7845
95.000000	94.306	159.8086
96.199997	94.264	159.8229
97.500000	94.217	159.8201
98.800003	94.170	159.8133
100.000000	94.128	159.8163
101.500000	94.077	159.8422
103.000000	94.030	159.8685
104.400002	93.985	159.8835
106.000000	93.932	159.9118
107.500000	93.884	159.9446
109.000000	93.839	159.9904
110.599998	93.793	160.0486
112.000000	93.753	160.0980
113.800003	93.701	160.1577
115.000000	93.668	160.1803
117.199997	93.613	160.1730
118.000000	93.594	160.1529
120.599998	93.520	160.1801
122.000000	93.485	160.3064
124.099998	93.439	160.4828
125.000000	93.418	160.5438
126.500000	93.382	160.6262
128.000000	93.345	160.6977
131.500000	93.269	160.8627
132.000000	93.259	160.8876
134.000000	93.216	160.9952
136.000000	93.172	161.0999
138.000000	93.126	161.1974
140.000000	93.082	161.3005
143.000000	93.023	161.4847
145.000000	92.986	161.6025
147.500000	92.940	161.7521
150.000000	92.894	161.8913
152.500000	92.846	162.0330
155.000000	92.801	162.1856
157.500000	92.758	162.3317
160.000000	92.721	162.4633
162.500000	92.684	162.5934
165.000000	92.644	162.7531
167.500000	92.603	162.9174
170.000000	92.562	163.0547
172.500000	92.522	163.1947
175.000000	92.486	163.3413
177.500000	92.449	163.4917
180.000000	92.411	163.6423
182.500000	92.374	163.7962
185.000000	92.339	163.9551
187.500000	92.305	164.1120
190.000000	92.274	164.2606
192.500000	92.245	164.4000
195.000000	92.215	164.5463
197.500000	92.185	164.6984
200.000000	92.155	164.8452
203.000000	92.120	165.0215
206.000000	92.089	165.2075
209.000000	92.061	165.3837
212.000000	92.034	165.5554
214.000000	92.016	165.6764
218.000000	91.977	165.9177
220.000000	91.957	166.0331
224.000000	91.921	166.2508
227.000000	91.894	166.4226
230.000000	91.867	166.6217
233.000000	91.841	166.8129
236.000000	91.813	166.9916
240.000000	91.778	167.2357
243.000000	91.752	167.4117
247.000000	91.714	167.6400
250.000000	91.691	167.7987
254.000000	91.661	168.0011
258.000000	91.628	168.2315
262.000000	91.598	168.4695
265.000000	91.574	168.6439
269.000000	91.544	168.8677
272.000000	91.523	169.0236
276.000000	91.497	169.2365
280.000000	91.473	169.4716
285.000000	91.445	169.7793
290.000000	91.420	170.0663
295.000000	91.394	170.3309
300.000000	91.370	170.5746
304.000000	91.352	170.7685
307.000000	91.340	170.9139
311.000000	91.322	171.1109
315.000000	91.305	171.3203
320.000000	91.286	171.5897
325.000000	91.266	171.8452
330.000000	91.248	172.0775
335.000000	91.230	172.3078
340.000000	91.209	172.5566
345.000000	91.189	172.8163
350.000000	91.165	173.0655
355.000000	91.140	173.2993
360.000000	91.116	173.5260
365.000000	91.097	173.7583
370.000000	91.076	173.9914
375.000000	91.052	174.2144
382.000000	91.020	174.5114
387.000000	90.996	174.7314
395.000000	90.956	175.1016
400.000000	90.931	175.3253
406.000000	90.900	175.6004
412.000000	90.871	175.8825
418.000000	90.846	176.1454
425.000000	90.814	176.4579
431.000000	90.787	176.7482
437.000000	90.762	177.0440
444.000000	90.736	177.3785
450.000000	90.711	177.6534
455.000000	90.688	177.8865
462.000000	90.655	178.2229
468.000000	90.630	178.5091
475.000000	90.603	178.8431
482.000000	90.576	179.1997
487.000000	90.555	179.4729
494.000000	90.523	179.8747
500.000000	90.496	-179.7672
508.000000	90.462	-179.2579
515.000000	90.431	-178.7673
522.000000	90.406	-178.2275
530.000000	90.397	-177.5672
538.000000	90.413	-176.9194
545.000000	90.441	-176.4366
552.000000	90.471	-176.0935
560.000000	90.493	-175.8512
570.000000	90.497	-175.6126
580.000000	90.475	-175.3169
590.000000	90.447	-174.8878
600.000000	90.435	-174.3808
608.000000	90.433	-174.0333
615.000000	90.426	-173.7724
622.000000	90.414	-173.5067
630.000000	90.393	-173.1870
640.000000	90.365	-172.7621
650.000000	90.340	-172.2847
660.000000	90.318	-171.7751
670.000000	90.295	-171.2527
680.000000	90.272	-170.7127
690.000000	90.248	-170.1659
700.000000	90.227	-169.6210
710.000000	90.207	-169.0576
720.000000	90.189	-168.4766
730.000000	90.176	-167.8849
740.000000	90.164	-167.2847
750.000000	90.153	-166.6686
762.000000	90.141	-165.9076
775.000000	90.130	-165.0773
788.000000	90.126	-164.2144
800.000000	90.127	-163.3838
812.000000	90.131	-162.5450
825.000000	90.142	-161.6308
838.000000	90.164	-160.7086
850.000000	90.193	-159.8396
862.000000	90.226	-158.9611
875.000000	90.271	-158.0223
885.000000	90.314	-157.3093
900.000000	90.391	-156.2620
912.000000	90.465	-155.4653
925.000000	90.554	-154.6705
938.000000	90.648	-153.9498
950.000000	90.737	-153.3442
962.000000	90.830	-152.7962
975.000000	90.934	-152.2668
988.000000	91.037	-151.8059
1000.000000	91.129	-151.4252
1015.000000	91.238	-150.9799
1030.000000	91.347	-150.5975
1044.000000	91.446	-150.2988
1060.000000	91.555	-149.9928
1075.000000	91.651	-149.7314
1090.000000	91.745	-149.5119
1106.000000	91.849	-149.3149
1120.000000	91.941	-149.1604
1138.000000	92.055	-148.9840
1150.000000	92.129	-148.8754
1172.000000	92.256	-148.6839
1180.000000	92.300	-148.6152
1206.000000	92.440	-148.3916
1220.000000	92.515	-148.2714
1241.000000	92.625	-148.1107
1250.000000	92.673	-148.0481
1265.000000	92.751	-147.9414
1280.000000	92.827	-147.8283
1315.000000	92.999	-147.5545
1320.000000	93.024	-147.5152
1340.000000	93.123	-147.3581
1360.000000	93.218	-147.2005
1380.000000	93.316	-147.0461
1400.000000	93.420	-146.9119
1430.000000	93.583	-146.7256
1450.000000	93.696	-146.6086
1475.000000	93.840	-146.4801
1500.000000	93.991	-146.3819
1525.000000	94.150	-146.3293
1550.000000	94.314	-146.3340
1575.000000	94.484	-146.4198
1600.000000	94.659	-146.6051
1625.000000	94.835	-146.8963
1650.000000	95.011	-147.2949
1675.000000	95.185	-147.8237
1700.000000	95.352	-148.4817
1725.000000	95.509	-149.2649
1750.000000	95.650	-150.1746
1775.000000	95.772	-151.1950
1800.000000	95.873	-152.3057
1825.000000	95.950	-153.4855
1850.000000	96.002	-154.7038
1875.000000	96.028	-155.9242
1900.000000	96.029	-157.1156
1925.000000	96.004	-158.2475
1950.000000	95.957	-159.2921
1975.000000	95.893	-160.2356
2000.000000	95.816	-161.0642
2030.000000	95.710	-161.9000
2060.000000	95.596	-162.5624
2090.000000	95.478	-163.0553
2120.000000	95.362	-163.3896
2140.000000	95.288	-163.5350
2180.000000	95.150	-163.6738
2200.000000	95.086	-163.6787
2240.000000	94.970	-163.5837
2270.000000	94.894	-163.4460
2300.000000	94.830	-163.2586
2330.000000	94.775	-163.0367
2360.000000	94.731	-162.7910
2400.000000	94.686	-162.4540
2430.000000	94.663	-162.2084
2470.000000	94.645	-161.8853
2500.000000	94.639	-161.6533
2540.000000	94.642	-161.3704
2580.000000	94.653	-161.1283
2620.000000	94.672	-160.9324
2650.000000	94.691	-160.8130
2690.000000	94.721	-160.6922
2720.000000	94.747	-160.6373
2760.000000	94.782	-160.6187
2800.000000	94.820	-160.6533
2850.000000	94.870	-160.7574
2900.000000	94.923	-160.9440
2950.000000	94.977	-161.2248
3000.000000	95.031	-161.6115
3040.000000	95.072	-162.0005
3070.000000	95.101	-162.3401
3110.000000	95.136	-162.8594
3150.000000	95.167	-163.4537
3200.000000	95.195	-164.3005
3250.000000	95.207	-165.2642
3300.000000	95.201	-166.3392
3350.000000	95.173	-167.5135
3400.000000	95.122	-168.7703
3450.000000	95.047	-170.0896
3500.000000	94.947	-171.4482
3550.000000	94.817	-172.8419
3600.000000	94.650	-174.2549
3650.000000	94.441	-175.6447
3700.000000	94.185	-176.9514
3750.000000	93.884	-178.1235
3820.000000	93.383	-179.4155
3870.000000	92.970	-179.9996
3950.000000	92.222	179.8217
4000.000000	91.715	-179.7080
4060.000000	91.082	-178.4544
4120.000000	90.443	-176.3338
4180.000000	89.831	-173.2775
4250.000000	89.203	-168.5347
4310.000000	88.786	-163.5514
4370.000000	88.528	-157.9301
4440.000000	88.474	-151.0406
4500.000000	88.651	-145.3133
4550.000000	88.943	-140.9510
4620.000000	89.523	-135.8080
4680.000000	90.123	-132.4991
4750.000000	90.871	-130.0172
4820.000000	91.603	-128.9465
4870.000000	92.084	-128.9428
4940.000000	92.664	-129.7928
5000.000000	93.060	-131.0711
5080.000000	93.439	-133.1161
5150.000000	93.656	-134.8726
5220.000000	93.807	-136.4072
5300.000000	93.949	-137.9396
5380.000000	94.084	-139.5152
5450.000000	94.179	-141.1414
5520.000000	94.220	-143.0288
5600.000000	94.170	-145.3196
5700.000000	93.951	-147.9000
5800.000000	93.604	-149.7071
5900.000000	93.193	-150.5465
6000.000000	92.776	-150.4910
6080.000000	92.465	-149.9093
6150.000000	92.220	-149.0735
6220.000000	92.005	-147.9728
6300.000000	91.799	-146.4537
6400.000000	91.605	-144.2446
6500.000000	91.488	-141.7723
6600.000000	91.453	-139.1263
6700.000000	91.504	-136.3867
6800.000000	91.651	-133.6178
6900.000000	91.913	-130.9101
7000.000000	92.294	-128.3454
7100.000000	92.787	-126.0370
7200.000000	93.392	-124.1284
7300.000000	94.111	-122.7714
7400.000000	94.944	-122.1822
7500.000000	95.883	-122.6497
7620.000000	97.122	-125.1348
7750.000000	98.440	-130.9886
7880.000000	99.407	-140.5329
8000.000000	99.770	-151.6751
8120.000000	99.558	-162.8937
8250.000000	98.818	-172.7971
8380.000000	97.844	-179.5894
8500.000000	96.962	176.2557
8620.000000	96.189	173.0697
8750.000000	95.427	169.8459
8850.000000	94.843	167.4540
9000.000000	93.948	164.0106
9120.000000	93.185	161.3990
9250.000000	92.282	159.0104
9380.000000	91.312	157.4026
9500.000000	90.394	156.7771
9620.000000	89.497	156.9757
9750.000000	88.596	157.9423
9880.000000	87.798	159.4352
10000.000000	87.160	161.0785
10150.000000	86.493	163.2356
10300.000000	85.962	165.2581
10440.000000	85.575	166.8217
10600.000000	85.244	167.9779
10750.000000	85.023	168.1807
10900.000000	84.851	167.1794
11060.000000	84.655	164.2695
11200.000000	84.374	159.6259
11380.000000	83.605	150.2375
11500.000000	82.610	142.3951
11720.000000	79.087	135.4957
11800.000000	77.165	141.9636
12060.000000	73.757	-163.0155
12200.000000	75.904	-145.8081
12410.000000	78.351	-145.1642
12500.000000	78.943	-148.0379
12650.000000	79.523	-153.2790
12800.000000	79.763	-158.1575
13150.000000	79.612	-167.1956
13200.000000	79.551	-168.2399
13400.000000	79.285	-171.9611
13600.000000	79.047	-175.2190
13800.000000	78.904	-178.4796
14000.000000	78.891	177.7250
14300.000000	79.085	169.6616
14500.000000	79.229	161.6950
14750.000000	79.096	148.6517
15000.000000	78.303	134.7479
15250.000000	76.907	124.6217
15500.000000	75.593	120.8254
15750.000000	75.457	120.7835
16000.000000	76.699	116.7512
16250.000000	77.827	102.7834
16500.000000	77.708	84.7193
16750.000000	76.651	72.1873
17000.000000	75.599	66.2679
17250.000000	75.122	63.5306
17500.000000	75.296	61.0236
17750.000000	75.901	56.4746
18000.000000	76.514	48.0502
18250.000000	76.572	36.1610
18500.000000	75.702	26.5194
18750.000000	74.627	24.6535
19000.000000	74.510	22.6488
19250.000000	74.221	15.0788
19500.000000	73.121	8.7418
19750.000000	71.759	6.3274
20000.000000	70.888	5.9444
