* Measurement data measured by REW V5.20.13
* Source: EXCL: Mic in at rear panel (Pink)(Realtek(R) Audio), MICROPHONE (마스), R, volume: 1.000
* Format: 256k Log Swept Sine, 1 sweep at -12.0 dBFS with no timing reference
* Dated: 2023. 2. 14 오후 9:15:01
* REW Settings:
*  C-weighting compensation: Off
*  Target level: 75.0 dB
* Note: 
* Measurement: L_11
* Smoothing: 1/24 octave
* Frequency Step: 1/48 octave
* Start Frequency: 20.300 Hz
*
* Freq(Hz)	SPL(dB)	Phase(degrees)
20.299999	97.246	-176.2529
20.600000	97.250	-176.4320
20.900000	97.256	-176.7461
21.200001	97.255	-177.0295
21.400000	97.251	-177.2043
21.799999	97.238	-177.5490
22.000000	97.230	-177.7297
22.400000	97.210	-178.1133
22.700001	97.193	-178.4184
23.000000	97.173	-178.7343
23.299999	97.152	-179.0559
23.600000	97.131	-179.3816
24.000000	97.106	-179.8230
24.299999	97.089	179.8400
24.700001	97.070	179.3861
25.000000	97.056	179.0471
25.400000	97.039	178.6030
25.799999	97.024	178.1700
26.200001	97.011	177.7467
26.500000	97.001	177.4366
26.900000	96.984	177.0382
27.200001	96.970	176.7552
27.600000	96.949	176.4015
28.000000	96.928	176.0699
28.500000	96.903	175.6719
29.000000	96.876	175.2823
29.500000	96.846	174.9057
30.000000	96.815	174.5477
30.400000	96.790	174.2695
30.700001	96.772	174.0596
31.100000	96.748	173.7721
31.500000	96.722	173.4756
32.000000	96.686	173.1039
32.500000	96.648	172.7483
33.000000	96.613	172.4161
33.500000	96.583	172.0970
34.000000	96.557	171.7778
34.500000	96.531	171.4592
35.000000	96.504	171.1511
35.500000	96.478	170.8560
36.000000	96.453	170.5640
36.500000	96.427	170.2695
37.000000	96.398	169.9839
37.500000	96.365	169.7225
38.200001	96.316	169.3939
38.700001	96.282	169.1669
39.500000	96.224	168.8069
40.000000	96.188	168.5898
40.599998	96.146	168.3269
41.200001	96.105	168.0495
41.799999	96.064	167.7695
42.500000	96.018	167.4546
43.099998	95.984	167.1792
43.700001	95.948	166.8958
44.400002	95.904	166.5953
45.000000	95.868	166.3832
45.500000	95.841	166.2176
46.200001	95.806	165.9709
46.799999	95.771	165.7585
47.500000	95.729	165.5497
48.200001	95.690	165.3744
48.700001	95.664	165.2466
49.400002	95.628	165.0531
50.000000	95.595	164.8851
50.799999	95.550	164.6713
51.500000	95.510	164.4930
52.200001	95.471	164.3199
53.000000	95.428	164.1219
53.799999	95.384	163.9255
54.500000	95.343	163.7655
55.200001	95.304	163.6113
56.000000	95.260	163.4290
57.000000	95.201	163.2156
58.000000	95.141	163.0294
59.000000	95.081	162.8506
60.000000	95.019	162.6990
60.799999	94.974	162.5824
61.500000	94.938	162.4688
62.200001	94.902	162.3489
63.000000	94.860	162.2130
64.000000	94.807	162.0577
65.000000	94.755	161.9346
66.000000	94.706	161.8318
67.000000	94.656	161.7424
68.000000	94.608	161.6624
69.000000	94.560	161.5703
70.000000	94.510	161.4742
71.000000	94.459	161.3784
72.000000	94.409	161.2795
73.000000	94.359	161.1910
74.000000	94.310	161.1135
75.000000	94.264	161.0487
76.199997	94.210	160.9837
77.500000	94.152	160.9288
78.800003	94.095	160.8874
80.000000	94.043	160.8331
81.199997	93.989	160.7875
82.500000	93.934	160.7555
83.800003	93.882	160.7212
85.000000	93.836	160.6879
86.199997	93.789	160.6529
87.500000	93.734	160.6280
88.500000	93.692	160.6382
90.000000	93.637	160.6530
91.199997	93.596	160.6361
92.500000	93.550	160.6244
93.800003	93.507	160.6246
95.000000	93.466	160.6219
96.199997	93.423	160.6380
97.500000	93.378	160.6594
98.800003	93.333	160.6617
100.000000	93.289	160.6907
101.500000	93.239	160.7641
103.000000	93.193	160.8302
104.400002	93.148	160.8612
106.000000	93.092	160.8808
107.500000	93.043	160.9202
109.000000	93.005	160.9783
110.599998	92.970	161.0471
112.000000	92.933	161.1306
113.800003	92.877	161.2379
115.000000	92.838	161.2594
117.199997	92.777	161.0406
118.000000	92.754	160.8785
120.599998	92.651	160.7683
122.000000	92.634	161.0907
124.099998	92.626	161.4772
125.000000	92.613	161.6046
126.500000	92.580	161.7644
128.000000	92.541	161.8556
131.500000	92.459	162.0030
132.000000	92.449	162.0351
134.000000	92.411	162.1721
136.000000	92.366	162.2950
138.000000	92.319	162.4249
140.000000	92.280	162.5405
143.000000	92.226	162.7008
145.000000	92.192	162.8266
147.500000	92.151	162.9681
150.000000	92.109	163.1265
152.500000	92.067	163.2871
155.000000	92.023	163.4277
157.500000	91.984	163.5455
160.000000	91.944	163.6846
162.500000	91.906	163.8607
165.000000	91.866	164.0192
167.500000	91.826	164.1755
170.000000	91.789	164.3221
172.500000	91.752	164.4775
175.000000	91.717	164.6334
177.500000	91.683	164.7737
180.000000	91.649	164.9134
182.500000	91.611	165.0674
185.000000	91.573	165.2299
187.500000	91.539	165.3877
190.000000	91.510	165.5477
192.500000	91.479	165.7194
195.000000	91.448	165.9025
197.500000	91.419	166.0704
200.000000	91.392	166.2342
203.000000	91.360	166.4385
206.000000	91.327	166.6245
209.000000	91.297	166.8022
212.000000	91.269	166.9917
214.000000	91.250	167.1235
218.000000	91.211	167.3827
220.000000	91.191	167.5106
224.000000	91.150	167.7521
227.000000	91.120	167.9635
230.000000	91.095	168.2197
233.000000	91.075	168.4593
236.000000	91.053	168.6865
240.000000	91.025	169.0217
243.000000	91.004	169.2932
247.000000	90.979	169.6512
250.000000	90.969	169.9028
254.000000	90.969	170.2152
258.000000	90.971	170.5228
262.000000	90.956	170.7296
265.000000	90.939	170.8119
269.000000	90.924	170.9239
272.000000	90.913	171.0232
276.000000	90.896	171.1385
280.000000	90.876	171.2545
285.000000	90.849	171.4303
290.000000	90.822	171.6331
295.000000	90.794	171.8330
300.000000	90.766	172.0371
304.000000	90.746	172.2327
307.000000	90.732	172.3863
311.000000	90.715	172.5781
315.000000	90.698	172.7510
320.000000	90.677	172.9753
325.000000	90.658	173.2188
330.000000	90.637	173.4556
335.000000	90.615	173.6951
340.000000	90.593	173.9550
345.000000	90.570	174.2082
350.000000	90.545	174.4422
355.000000	90.518	174.6737
360.000000	90.490	174.9155
365.000000	90.465	175.1681
370.000000	90.441	175.4245
375.000000	90.417	175.6946
382.000000	90.385	176.0695
387.000000	90.361	176.3222
395.000000	90.320	176.7406
400.000000	90.295	177.0253
406.000000	90.265	177.3799
412.000000	90.240	177.7539
418.000000	90.216	178.1497
425.000000	90.195	178.6139
431.000000	90.184	179.0069
437.000000	90.181	179.3787
444.000000	90.186	179.7574
450.000000	90.192	-179.9770
455.000000	90.195	-179.7858
462.000000	90.193	-179.5450
468.000000	90.186	-179.3563
475.000000	90.175	-179.1324
482.000000	90.161	-178.8969
487.000000	90.148	-178.7207
494.000000	90.126	-178.4626
500.000000	90.109	-178.2335
508.000000	90.088	-177.9212
515.000000	90.071	-177.6188
522.000000	90.051	-177.3028
530.000000	90.029	-176.9445
538.000000	90.007	-176.5726
545.000000	89.988	-176.2339
552.000000	89.971	-175.8894
560.000000	89.952	-175.4989
570.000000	89.930	-175.0183
580.000000	89.908	-174.5317
590.000000	89.883	-174.0259
600.000000	89.859	-173.5088
608.000000	89.840	-173.0756
615.000000	89.824	-172.6956
622.000000	89.809	-172.3211
630.000000	89.793	-171.8872
640.000000	89.773	-171.3585
650.000000	89.755	-170.8259
660.000000	89.740	-170.2551
670.000000	89.727	-169.6719
680.000000	89.713	-169.0755
690.000000	89.698	-168.4744
700.000000	89.684	-167.8739
710.000000	89.671	-167.2538
720.000000	89.661	-166.6191
730.000000	89.655	-165.9739
740.000000	89.652	-165.3247
750.000000	89.649	-164.6726
762.000000	89.652	-163.8652
775.000000	89.660	-162.9593
788.000000	89.674	-162.0194
800.000000	89.695	-161.1446
812.000000	89.723	-160.2736
825.000000	89.760	-159.3309
838.000000	89.807	-158.4108
850.000000	89.859	-157.5922
862.000000	89.922	-156.8023
875.000000	89.994	-155.9889
885.000000	90.053	-155.3945
900.000000	90.150	-154.5690
912.000000	90.230	-153.9652
925.000000	90.314	-153.3616
938.000000	90.399	-152.7955
950.000000	90.479	-152.3019
962.000000	90.559	-151.8426
975.000000	90.646	-151.3652
988.000000	90.736	-150.8986
1000.000000	90.820	-150.4944
1015.000000	90.923	-150.0448
1030.000000	91.025	-149.6367
1044.000000	91.119	-149.2953
1060.000000	91.227	-148.9352
1075.000000	91.329	-148.6327
1090.000000	91.432	-148.3738
1106.000000	91.547	-148.1478
1120.000000	91.648	-147.9802
1138.000000	91.773	-147.7919
1150.000000	91.855	-147.6846
1172.000000	91.997	-147.5146
1180.000000	92.047	-147.4626
1206.000000	92.207	-147.3052
1220.000000	92.291	-147.2262
1241.000000	92.413	-147.1319
1250.000000	92.465	-147.0958
1265.000000	92.549	-147.0321
1280.000000	92.632	-146.9681
1315.000000	92.822	-146.8456
1320.000000	92.850	-146.8321
1340.000000	92.955	-146.7865
1360.000000	93.054	-146.7396
1380.000000	93.154	-146.6941
1400.000000	93.259	-146.6637
1430.000000	93.421	-146.6212
1450.000000	93.530	-146.5909
1475.000000	93.667	-146.5674
1500.000000	93.806	-146.5511
1525.000000	93.951	-146.5505
1550.000000	94.105	-146.5794
1575.000000	94.267	-146.6622
1600.000000	94.436	-146.8351
1625.000000	94.611	-147.1193
1650.000000	94.789	-147.5352
1675.000000	94.963	-148.0926
1700.000000	95.130	-148.7906
1725.000000	95.284	-149.6248
1750.000000	95.420	-150.5894
1775.000000	95.537	-151.6665
1800.000000	95.627	-152.8209
1825.000000	95.691	-154.0277
1850.000000	95.729	-155.2526
1875.000000	95.739	-156.4460
1900.000000	95.725	-157.5777
1925.000000	95.688	-158.6201
1950.000000	95.633	-159.5555
1975.000000	95.563	-160.3758
2000.000000	95.484	-161.0655
2030.000000	95.383	-161.7222
2060.000000	95.281	-162.2111
2090.000000	95.180	-162.5432
2120.000000	95.085	-162.7406
2140.000000	95.027	-162.8092
2180.000000	94.925	-162.8332
2200.000000	94.879	-162.8005
2240.000000	94.802	-162.6646
2270.000000	94.756	-162.5101
2300.000000	94.722	-162.3312
2330.000000	94.696	-162.1490
2360.000000	94.680	-161.9664
2400.000000	94.671	-161.7341
2430.000000	94.672	-161.5736
2470.000000	94.684	-161.3945
2500.000000	94.700	-161.2883
2540.000000	94.727	-161.1791
2580.000000	94.759	-161.1173
2620.000000	94.795	-161.1034
2650.000000	94.825	-161.1215
2690.000000	94.866	-161.1832
2720.000000	94.898	-161.2578
2760.000000	94.942	-161.3997
2800.000000	94.986	-161.5864
2850.000000	95.041	-161.8843
2900.000000	95.098	-162.2590
2950.000000	95.154	-162.7126
3000.000000	95.207	-163.2497
3040.000000	95.246	-163.7398
3070.000000	95.274	-164.1425
3110.000000	95.308	-164.7256
3150.000000	95.337	-165.3679
3200.000000	95.364	-166.2583
3250.000000	95.380	-167.2362
3300.000000	95.384	-168.2994
3350.000000	95.373	-169.4535
3400.000000	95.345	-170.6977
3450.000000	95.300	-172.0205
3500.000000	95.237	-173.4235
3550.000000	95.148	-174.8935
3600.000000	95.027	-176.4083
3650.000000	94.870	-177.9404
3700.000000	94.674	-179.4605
3750.000000	94.436	179.0684
3820.000000	94.025	177.1793
3870.000000	93.673	176.0256
3950.000000	93.007	174.7042
4000.000000	92.532	174.3164
4060.000000	91.914	174.4188
4120.000000	91.256	175.2661
4180.000000	90.579	176.9838
4250.000000	89.805	-179.7560
4310.000000	89.201	-175.8270
4370.000000	88.703	-170.9229
4440.000000	88.338	-164.2619
4500.000000	88.263	-158.1787
4550.000000	88.380	-153.2115
4620.000000	88.789	-146.9666
4680.000000	89.311	-142.6683
4750.000000	90.031	-139.1653
4820.000000	90.773	-137.3457
4870.000000	91.269	-136.9936
4940.000000	91.863	-137.5914
5000.000000	92.252	-138.8289
5080.000000	92.574	-140.9276
5150.000000	92.689	-142.6344
5220.000000	92.700	-143.7998
5300.000000	92.673	-144.2760
5380.000000	92.703	-144.1089
5450.000000	92.813	-143.9335
5520.000000	92.974	-144.1552
5600.000000	93.149	-145.1120
5700.000000	93.243	-147.0912
5800.000000	93.153	-149.1780
5900.000000	92.917	-150.6723
6000.000000	92.607	-151.3027
6080.000000	92.350	-151.1837
6150.000000	92.138	-150.6875
6220.000000	91.948	-149.8857
6300.000000	91.765	-148.6666
6400.000000	91.594	-146.7829
6500.000000	91.495	-144.5843
6600.000000	91.475	-142.1627
6700.000000	91.543	-139.6106
6800.000000	91.709	-137.0278
6900.000000	91.993	-134.5166
7000.000000	92.397	-132.1794
7100.000000	92.912	-130.1452
7200.000000	93.531	-128.5604
7300.000000	94.245	-127.5625
7400.000000	95.059	-127.2769
7500.000000	95.983	-127.9639
7620.000000	97.207	-130.7392
7750.000000	98.486	-137.0236
7880.000000	99.375	-146.9231
8000.000000	99.655	-158.0943
8120.000000	99.382	-169.0723
8250.000000	98.619	-178.7400
8380.000000	97.635	174.4336
8500.000000	96.719	170.0726
8620.000000	95.871	166.7525
8750.000000	95.015	163.5924
8850.000000	94.366	161.2018
9000.000000	93.327	157.6877
9120.000000	92.393	155.2991
9250.000000	91.274	153.5988
9380.000000	90.077	153.1912
9500.000000	88.966	154.0998
9620.000000	87.911	156.1080
9750.000000	86.877	159.2441
9880.000000	85.975	163.1052
10000.000000	85.262	167.1588
10150.000000	84.535	172.7459
10300.000000	84.004	178.7159
10440.000000	83.699	-175.5165
10600.000000	83.603	-168.9223
10750.000000	83.805	-163.1929
10900.000000	84.298	-158.8012
11060.000000	84.971	-156.9104
11200.000000	85.410	-157.8033
11380.000000	85.544	-160.1534
11500.000000	85.446	-161.0251
11720.000000	85.273	-160.7070
11800.000000	85.273	-160.3225
12060.000000	85.503	-159.7143
12200.000000	85.696	-160.2903
12410.000000	85.942	-162.5233
12500.000000	86.009	-163.9232
12650.000000	86.055	-166.7026
12800.000000	86.010	-169.8270
13150.000000	85.583	-177.0372
13200.000000	85.498	-177.9565
13400.000000	85.150	178.7229
13600.000000	84.850	175.8182
13800.000000	84.671	172.9005
14000.000000	84.643	169.3586
14300.000000	84.792	161.2229
14500.000000	84.809	152.8945
14750.000000	84.336	139.9550
15000.000000	83.104	128.4564
15250.000000	81.548	122.6867
15500.000000	80.833	120.8106
15750.000000	81.367	113.8934
16000.000000	81.523	96.7961
16250.000000	80.218	79.2221
16500.000000	78.103	69.8051
16750.000000	76.284	66.5005
17000.000000	75.248	65.2840
17250.000000	75.001	63.7037
17500.000000	75.420	59.9725
17750.000000	76.215	52.0777
18000.000000	76.863	38.2940
18250.000000	76.748	19.5902
18500.000000	75.485	1.3199
18750.000000	73.055	-8.3297
19000.000000	70.137	-2.7128
19250.000000	69.036	8.5628
19500.000000	69.339	9.2575
19750.000000	69.081	4.5873
20000.000000	68.624	2.2076
