* Measurement data measured by REW V5.20.7
* Source: Input device not selected, no input selected, L, volume: no control
* Format: 128k Log Swept Sine, 1 sweep at -12.0 dBFS with no timing reference
* Dated: 2022. 5. 1 ¿ÀÈÄ 9:37:14
* REW Settings:
*  C-weighting compensation: Off
*  Target level: 75.0 dB
* Note: 
* Measurement: R
* Smoothing: 1/24 octave
* Frequency Step: 1/48 octave
* Start Frequency: 20.300 Hz
*
* Freq(Hz)	SPL(dB)	Phase(degrees)
20.299999	88.935	-178.1179
20.600000	88.924	-178.3970
20.900000	88.903	-178.8978
21.200001	88.887	-179.3913
21.400000	88.878	-179.7410
21.799999	88.854	179.4694
22.000000	88.836	179.0309
22.400000	88.782	178.1298
22.700001	88.731	177.4902
23.000000	88.680	176.9091
23.299999	88.636	176.3700
23.600000	88.604	175.8364
24.000000	88.578	175.0697
24.299999	88.564	174.4246
24.700001	88.543	173.4855
25.000000	88.521	172.7622
25.400000	88.483	171.8313
25.799999	88.442	170.9771
26.200001	88.401	170.1990
26.500000	88.371	169.6548
26.900000	88.330	168.9774
27.200001	88.298	168.5118
27.600000	88.256	167.9572
28.000000	88.217	167.4692
28.500000	88.176	166.8936
29.000000	88.139	166.2827
29.500000	88.095	165.6317
30.000000	88.041	164.9943
30.400000	87.999	164.5018
30.700001	87.971	164.1188
31.100000	87.936	163.5460
31.500000	87.895	162.8900
32.000000	87.825	162.0273
32.500000	87.737	161.2678
33.000000	87.658	160.6744
33.500000	87.607	160.1342
34.000000	87.574	159.5033
34.500000	87.538	158.8003
35.000000	87.495	158.1547
35.500000	87.461	157.6028
36.000000	87.441	157.0258
36.500000	87.412	156.3591
37.000000	87.354	155.7581
37.500000	87.283	155.4237
38.200001	87.234	155.2461
38.700001	87.233	154.9373
39.500000	87.172	154.0871
40.000000	87.094	153.7740
40.599998	87.035	153.6638
41.200001	87.030	153.2740
41.799999	86.997	152.4012
42.500000	86.862	151.4431
43.099998	86.737	151.0987
43.700001	86.668	150.8549
44.400002	86.619	150.2644
45.000000	86.555	149.6080
45.500000	86.488	149.1066
46.200001	86.391	148.4899
46.799999	86.308	148.0144
47.500000	86.216	147.4444
48.200001	86.102	146.7388
48.700001	85.981	146.3092
49.400002	85.789	146.2685
50.000000	85.699	146.6535
50.799999	85.717	146.6408
51.500000	85.710	145.7666
52.200001	85.614	144.9209
53.000000	85.522	144.5355
53.799999	85.529	143.9856
54.500000	85.525	143.0447
55.200001	85.462	142.1700
56.000000	85.381	141.5960
57.000000	85.307	141.1134
58.000000	85.234	140.8759
59.000000	85.174	140.5325
60.000000	85.007	140.2892
60.799999	84.895	140.8362
61.500000	84.906	141.1231
62.200001	84.926	140.5959
63.000000	84.836	139.5278
64.000000	84.617	138.8160
65.000000	84.494	138.6595
66.000000	84.447	137.8484
67.000000	84.285	137.1297
68.000000	84.211	137.7090
69.000000	84.334	137.5493
70.000000	84.295	136.4633
71.000000	84.143	136.4860
72.000000	84.111	136.6010
73.000000	84.012	135.6361
74.000000	83.688	135.0817
75.000000	83.416	136.2449
76.199997	83.498	136.5928
77.500000	83.373	135.0145
78.800003	83.459	135.9498
80.000000	83.769	133.5111
81.199997	83.403	131.6115
82.500000	83.220	133.3765
83.800003	83.113	132.8897
85.000000	82.795	133.7571
86.199997	82.762	134.4691
87.500000	82.668	133.0609
88.500000	82.450	132.3221
90.000000	82.254	132.0771
91.199997	82.196	131.7714
92.500000	82.139	131.3824
93.800003	82.090	131.7380
95.000000	82.195	131.8998
96.199997	82.237	130.9493
97.500000	82.115	130.2478
98.800003	82.027	130.1685
100.000000	81.981	129.7577
101.500000	81.848	129.0357
103.000000	81.699	128.7256
104.400002	81.630	128.5024
106.000000	81.604	127.9126
107.500000	81.524	127.1623
109.000000	81.352	127.2871
110.599998	81.218	128.3366
112.000000	81.153	129.2186
113.800003	81.063	129.4755
115.000000	80.955	129.1909
117.199997	80.757	128.3764
118.000000	80.701	128.0508
120.599998	80.563	127.6170
122.000000	80.518	127.6316
124.099998	80.392	127.5232
125.000000	80.322	127.4908
126.500000	80.243	127.4122
128.000000	80.215	126.9733
131.500000	79.954	126.2145
132.000000	79.893	126.3008
134.000000	79.648	127.2388
136.000000	79.617	128.0615
138.000000	79.688	127.6112
140.000000	79.711	127.2625
143.000000	79.620	127.5406
145.000000	79.487	127.4792
147.500000	79.316	126.9167
150.000000	79.142	126.3294
152.500000	78.951	126.3105
155.000000	78.777	126.1436
157.500000	78.740	125.8876
160.000000	78.827	125.7545
162.500000	78.842	125.7861
165.000000	78.685	126.0244
167.500000	78.472	126.4167
170.000000	78.327	126.4424
172.500000	78.212	126.1485
175.000000	78.098	125.9726
177.500000	78.007	126.0500
180.000000	77.946	126.0756
182.500000	77.850	126.0031
185.000000	77.711	126.0779
187.500000	77.546	126.1645
190.000000	77.420	126.2413
192.500000	77.386	126.4509
195.000000	77.412	127.0340
197.500000	77.436	127.4943
200.000000	77.359	127.0519
203.000000	77.122	126.1946
206.000000	77.020	125.9330
209.000000	77.112	125.3789
212.000000	77.163	124.7202
214.000000	77.015	124.9660
218.000000	76.544	127.7922
220.000000	76.468	128.5487
224.000000	76.682	128.0292
227.000000	76.842	129.4291
230.000000	76.794	130.6104
233.000000	76.346	129.2819
236.000000	75.988	128.0048
240.000000	75.926	127.9504
243.000000	75.871	127.9502
247.000000	75.725	127.6635
250.000000	75.646	128.1245
254.000000	75.588	128.8023
258.000000	75.458	128.7185
262.000000	75.309	128.4402
265.000000	75.213	128.4265
269.000000	75.083	128.7682
272.000000	74.957	128.8699
276.000000	74.816	129.1316
280.000000	74.712	129.5253
285.000000	74.567	129.8503
290.000000	74.427	129.7756
295.000000	74.261	130.9194
300.000000	74.218	132.6558
304.000000	74.160	133.6977
307.000000	74.110	134.1125
311.000000	74.125	134.9755
315.000000	74.128	136.0901
320.000000	74.144	136.5603
325.000000	74.263	135.6701
330.000000	74.295	134.4410
335.000000	74.283	134.1262
340.000000	74.268	133.4155
345.000000	74.275	132.8490
350.000000	74.215	132.8083
355.000000	74.084	133.1496
360.000000	74.047	133.4525
365.000000	73.988	133.8495
370.000000	73.840	134.3636
375.000000	73.688	134.5820
382.000000	73.510	134.8792
387.000000	73.389	135.1999
395.000000	73.171	135.3198
400.000000	73.144	135.4777
406.000000	73.165	135.9316
412.000000	73.138	136.6050
418.000000	73.037	136.9442
425.000000	72.943	137.3126
431.000000	72.870	137.6393
437.000000	72.795	137.7279
444.000000	72.678	138.2847
450.000000	72.603	138.6649
455.000000	72.575	138.6945
462.000000	72.521	139.0910
468.000000	72.421	139.5714
475.000000	72.321	140.0134
482.000000	72.308	140.3893
487.000000	72.302	140.4336
494.000000	72.256	140.8307
500.000000	72.242	141.4249
508.000000	72.263	141.6382
515.000000	72.221	141.9094
522.000000	72.108	142.7378
530.000000	71.999	143.5837
538.000000	71.994	144.0045
545.000000	71.938	144.3719
552.000000	71.797	144.8935
560.000000	71.670	145.2491
570.000000	71.588	144.9295
580.000000	71.622	144.6120
590.000000	71.645	145.5879
600.000000	71.572	146.7039
608.000000	71.438	147.4384
615.000000	71.352	147.8241
622.000000	71.322	147.9924
630.000000	71.340	148.2468
640.000000	71.343	148.8672
650.000000	71.292	149.6364
660.000000	71.238	150.8971
670.000000	71.201	151.8801
680.000000	71.135	152.1606
690.000000	71.177	152.6691
700.000000	71.231	153.1383
710.000000	71.228	153.2373
720.000000	71.236	153.7128
730.000000	71.243	154.5833
740.000000	71.251	155.6110
750.000000	71.251	156.3080
762.000000	71.208	156.9154
775.000000	71.195	157.8161
788.000000	71.306	158.1019
800.000000	71.388	158.3963
812.000000	71.364	159.1174
825.000000	71.337	159.8967
838.000000	71.405	160.5716
850.000000	71.499	160.8540
862.000000	71.530	161.2762
875.000000	71.537	162.2600
885.000000	71.548	162.8541
900.000000	71.636	163.3879
912.000000	71.747	163.4345
925.000000	71.763	162.9459
938.000000	71.731	162.5690
950.000000	71.777	162.7823
962.000000	71.876	163.0242
975.000000	71.942	163.0159
988.000000	72.079	162.3127
1000.000000	72.187	161.8346
1015.000000	71.979	162.7151
1030.000000	71.821	163.9646
1044.000000	71.821	164.6372
1060.000000	71.848	165.1747
1075.000000	71.924	165.9080
1090.000000	72.008	166.6107
1106.000000	72.049	167.0121
1120.000000	72.041	167.4349
1138.000000	72.091	168.1957
1150.000000	72.168	168.6348
1172.000000	72.274	169.3581
1180.000000	72.289	169.6131
1206.000000	72.400	170.1798
1220.000000	72.504	170.4555
1241.000000	72.690	170.8383
1250.000000	72.747	170.9178
1265.000000	72.808	171.1058
1280.000000	72.848	171.3156
1315.000000	72.936	171.4518
1320.000000	72.957	171.4673
1340.000000	73.071	171.6431
1360.000000	73.216	172.1530
1380.000000	73.308	172.6150
1400.000000	73.320	172.8334
1430.000000	73.351	173.3584
1450.000000	73.393	173.5837
1475.000000	73.468	173.7797
1500.000000	73.594	173.7952
1525.000000	73.731	173.9949
1550.000000	73.874	174.3159
1575.000000	73.914	174.6229
1600.000000	73.927	174.8519
1625.000000	74.019	174.9802
1650.000000	74.113	175.5246
1675.000000	74.200	175.8157
1700.000000	74.326	176.0406
1725.000000	74.482	176.5371
1750.000000	74.594	177.0013
1775.000000	74.670	177.2603
1800.000000	74.740	177.4860
1825.000000	74.823	177.9442
1850.000000	74.955	178.4092
1875.000000	75.109	178.6913
1900.000000	75.230	178.9256
1925.000000	75.325	179.2004
1950.000000	75.431	179.4357
1975.000000	75.571	179.6697
2000.000000	75.701	179.9187
2030.000000	75.821	-179.7630
2060.000000	75.987	-179.6884
2090.000000	76.178	-179.5409
2120.000000	76.332	-179.1717
2140.000000	76.416	-179.0319
2180.000000	76.608	-178.8677
2200.000000	76.728	-178.7744
2240.000000	76.965	-178.4559
2270.000000	77.119	-178.4970
2300.000000	77.253	-178.6069
2330.000000	77.401	-178.6097
2360.000000	77.554	-178.6662
2400.000000	77.740	-178.7949
2430.000000	77.893	-178.7827
2470.000000	78.097	-178.6515
2500.000000	78.232	-178.5328
2540.000000	78.414	-178.5754
2580.000000	78.585	-178.8974
2620.000000	78.766	-179.1420
2650.000000	78.885	-179.3338
2690.000000	79.044	-179.5042
2720.000000	79.170	-179.6539
2760.000000	79.331	-179.7282
2800.000000	79.486	-179.8149
2850.000000	79.687	-179.9579
2900.000000	79.877	179.9770
2950.000000	80.067	179.8660
3000.000000	80.256	179.7833
3040.000000	80.398	179.7307
3070.000000	80.512	179.6956
3110.000000	80.671	179.7202
3150.000000	80.829	179.8124
3200.000000	81.004	179.9028
3250.000000	81.189	179.8814
3300.000000	81.407	179.9623
3350.000000	81.633	-179.9539
3400.000000	81.874	-179.8530
3450.000000	82.120	-179.8419
3500.000000	82.363	-179.9175
3550.000000	82.626	179.8879
3600.000000	82.911	179.6097
3650.000000	83.198	179.2599
3700.000000	83.488	178.8770
3750.000000	83.788	178.4120
3820.000000	84.201	177.4364
3870.000000	84.495	176.5842
3950.000000	84.981	174.8429
4000.000000	85.274	173.4892
4060.000000	85.604	171.6509
4120.000000	85.910	169.5672
4180.000000	86.181	167.2424
4250.000000	86.454	164.3533
4310.000000	86.665	161.6686
4370.000000	86.842	158.7520
4440.000000	86.969	155.0549
4500.000000	86.987	151.6957
4550.000000	86.938	148.9273
4620.000000	86.785	145.2486
4680.000000	86.578	142.3573
4750.000000	86.266	139.3710
4820.000000	85.889	136.9821
4870.000000	85.595	135.6615
4940.000000	85.170	134.2700
5000.000000	84.807	133.5521
5080.000000	84.328	133.1425
5150.000000	83.916	133.1988
5220.000000	83.543	133.5976
5300.000000	83.170	134.3962
5380.000000	82.833	135.5654
5450.000000	82.572	136.9191
5520.000000	82.357	138.4514
5600.000000	82.167	140.3163
5700.000000	81.986	142.8103
5800.000000	81.863	145.5352
5900.000000	81.816	148.3160
6000.000000	81.830	151.0765
6080.000000	81.879	153.2276
6150.000000	81.947	155.1748
6220.000000	82.040	157.2365
6300.000000	82.184	159.5175
6400.000000	82.404	162.2280
6500.000000	82.669	164.9200
6600.000000	82.987	167.5941
6700.000000	83.363	170.2329
6800.000000	83.781	172.8168
6900.000000	84.253	175.2210
7000.000000	84.790	177.4000
7100.000000	85.389	179.3558
7200.000000	86.066	-178.9860
7300.000000	86.836	-177.7648
7400.000000	87.692	-177.1480
7500.000000	88.641	-177.4185
7620.000000	89.896	-179.4896
7750.000000	91.282	175.0701
7880.000000	92.402	165.3661
8000.000000	92.869	153.0253
8120.000000	92.596	139.8708
8250.000000	91.540	128.1484
8380.000000	90.015	120.8298
8500.000000	88.488	117.6764
8620.000000	87.026	117.0698
8750.000000	85.603	118.3025
8850.000000	84.634	120.1673
9000.000000	83.362	123.9454
9120.000000	82.486	127.4470
9250.000000	81.648	131.5117
9380.000000	80.898	135.7213
9500.000000	80.274	139.8299
9620.000000	79.714	144.1663
9750.000000	79.175	149.0677
9880.000000	78.719	154.1523
10000.000000	78.374	158.8497
10150.000000	78.028	164.6535
10300.000000	77.787	170.1808
10440.000000	77.645	175.1631
10600.000000	77.571	-179.3799
10750.000000	77.565	-174.6765
10900.000000	77.591	-170.4207
11060.000000	77.676	-166.2864
11200.000000	77.752	-163.0112
11380.000000	77.838	-159.1320
11500.000000	77.908	-156.8691
11720.000000	78.006	-153.4995
11800.000000	78.020	-152.5114
12060.000000	77.968	-149.6071
12200.000000	77.831	-148.0858
12410.000000	77.506	-145.5428
12500.000000	77.327	-144.2100
12650.000000	76.981	-141.5971
12800.000000	76.597	-138.4317
13150.000000	75.725	-128.9232
13200.000000	75.611	-127.3010
13400.000000	75.247	-120.1901
13600.000000	74.962	-112.4027
13800.000000	74.800	-104.3842
14000.000000	74.858	-96.1239
14300.000000	75.384	-83.6692
14500.000000	76.145	-75.9627
14750.000000	77.670	-68.8741
15000.000000	79.652	-68.0406
15250.000000	81.283	-78.2861
15500.000000	81.323	-98.1703
15750.000000	79.352	-114.2518
16000.000000	76.204	-118.3938
16250.000000	73.059	-113.8924
16500.000000	70.449	-105.3420
16750.000000	68.391	-95.0022
17000.000000	66.766	-83.5895
17250.000000	65.480	-70.9134
17500.000000	64.513	-57.6203
17750.000000	63.816	-44.1641
18000.000000	63.353	-30.5719
18250.000000	63.095	-16.6817
18500.000000	63.056	-3.0753
18750.000000	63.255	9.6325
19000.000000	63.709	21.0318
19250.000000	64.381	31.0237
19500.000000	65.170	38.4648
19750.000000	65.988	42.9157
20000.000000	66.502	44.8075
