* Measurement data measured by REW V5.20.7
* Source: 마이크(Realtek High Definition Audi, MICROPHONE (마스), L, volume: 0.050
* Format: 128k Log Swept Sine, 1 sweep at -12.0 dBFS with no timing reference
* Dated: May 5, 2023 4:32:38 PM
* REW Settings:
*  C-weighting compensation: Off
*  Target level: 75.0 dB
* Note: ; 
* Measurement: Rhapsodio Supreme 3 L
* Smoothing: 1/48 octave
* Frequency Step: 1/96 octave
* Start Frequency: 20.145 Hz
*
* Freq(Hz)	SPL(dB)	Phase(degrees)
20.144928	75.420	-154.8268
20.290907	75.205	-155.5338
20.437943	74.988	-156.3473
20.586044	74.749	-156.4719
20.735220	74.470	-156.0159
20.885475	74.238	-155.1207
21.036821	74.078	-153.6460
21.189262	73.988	-151.9011
21.342808	74.007	-150.3275
21.497467	74.127	-148.8208
21.653246	74.287	-147.8354
21.810154	74.499	-147.4398
21.968201	74.706	-147.5359
22.127390	74.875	-148.1904
22.287735	75.006	-149.2641
22.449242	75.064	-150.5130
22.611917	75.057	-151.9714
22.775772	74.987	-153.2810
22.940815	74.848	-154.4739
23.107054	74.677	-155.3249
23.274498	74.468	-155.7563
23.443153	74.267	-155.8112
23.613033	74.095	-155.4041
23.784142	73.966	-154.7343
23.956491	73.916	-153.9680
24.130091	73.929	-153.1896
24.304947	73.996	-152.7325
24.481071	74.109	-152.5492
24.658470	74.221	-152.7750
24.837156	74.333	-153.3633
25.017136	74.407	-154.1661
25.198421	74.447	-155.1718
25.381020	74.447	-156.1202
25.564941	74.409	-157.0165
25.750195	74.356	-157.6700
25.936790	74.290	-158.0994
26.124741	74.247	-158.3048
26.314051	74.224	-158.3210
26.504732	74.241	-158.3252
26.696796	74.289	-158.3418
26.890253	74.354	-158.5495
27.085112	74.428	-158.9128
27.281382	74.485	-159.4656
27.479073	74.522	-160.0953
27.678198	74.522	-160.7256
27.878765	74.499	-161.2166
28.080786	74.452	-161.4867
28.284271	74.411	-161.4991
28.489231	74.382	-161.2386
28.695675	74.391	-160.8563
28.903616	74.437	-160.4043
29.113064	74.518	-160.0924
29.324028	74.614	-159.9383
29.536524	74.711	-160.0257
29.750557	74.787	-160.2393
29.966141	74.836	-160.5510
30.183289	74.859	-160.7726
30.402010	74.864	-160.8828
30.622314	74.870	-160.7925
30.844217	74.894	-160.6110
31.067726	74.944	-160.3764
31.292856	75.020	-160.3011
31.519617	75.105	-160.4240
31.748020	75.182	-160.8408
31.978081	75.223	-161.4440
32.209808	75.222	-162.1687
32.443211	75.168	-162.8082
32.678310	75.081	-163.2328
32.915108	74.973	-163.3556
33.153625	74.883	-163.1656
33.393871	74.827	-162.8044
33.635857	74.819	-162.3858
33.879597	74.849	-162.1580
34.125103	74.895	-162.1607
34.372387	74.938	-162.4419
34.621464	74.951	-162.8753
34.872345	74.937	-163.3342
35.125042	74.896	-163.7085
35.379574	74.853	-163.8992
35.635948	74.824	-163.9707
35.894180	74.822	-163.9906
36.154285	74.849	-164.1142
36.416275	74.886	-164.4431
36.680161	74.915	-164.9779
36.945961	74.919	-165.6832
37.213688	74.882	-166.3884
37.483353	74.813	-166.9454
37.754974	74.726	-167.2517
38.028561	74.644	-167.2356
38.304131	74.598	-166.9805
38.581699	74.600	-166.6488
38.861279	74.651	-166.4062
39.142883	74.737	-166.4297
39.426529	74.826	-166.8004
39.712231	74.890	-167.4515
40.000000	74.910	-168.2557
40.289856	74.880	-169.0374
40.581814	74.809	-169.5929
40.875885	74.727	-169.8118
41.172089	74.662	-169.7269
41.470440	74.636	-169.4645
41.770950	74.658	-169.2160
42.073643	74.712	-169.1755
42.378525	74.768	-169.4035
42.685616	74.801	-169.8081
42.994934	74.803	-170.2388
43.306492	74.783	-170.5556
43.620308	74.761	-170.6935
43.936401	74.760	-170.7103
44.254780	74.786	-170.7656
44.575470	74.825	-170.9889
44.898483	74.853	-171.3901
45.223835	74.853	-171.8670
45.551544	74.825	-172.2668
45.881630	74.785	-172.4750
46.214108	74.758	-172.4904
46.548996	74.760	-172.4365
46.886307	74.790	-172.4870
47.226067	74.825	-172.7435
47.568283	74.839	-173.1593
47.912983	74.820	-173.5733
48.260181	74.777	-173.8146
48.609894	74.737	-173.8106
48.962143	74.724	-173.6367
49.316940	74.750	-173.4727
49.674313	74.801	-173.4901
50.034271	74.850	-173.7452
50.396843	74.874	-174.1502
50.762039	74.864	-174.5352
51.129883	74.836	-174.7568
51.500389	74.812	-174.7884
51.873581	74.813	-174.7319
52.249481	74.836	-174.7393
52.628101	74.865	-174.8988
53.009464	74.879	-175.1729
53.393593	74.870	-175.4351
53.780506	74.850	-175.5757
54.170223	74.838	-175.5953
54.562763	74.845	-175.6066
54.958145	74.865	-175.7390
55.356396	74.875	-176.0253
55.757530	74.860	-176.3657
56.161572	74.821	-176.6034
56.568542	74.780	-176.6579
56.978462	74.761	-176.6036
57.391350	74.769	-176.6170
57.807232	74.783	-176.8235
58.226128	74.775	-177.1798
58.648056	74.734	-177.5004
59.073048	74.675	-177.5970
59.501114	74.633	-177.4300
59.932281	74.635	-177.1583
60.366577	74.681	-177.0209
60.804020	74.741	-177.1544
61.244629	74.784	-177.5161
61.688435	74.797	-177.9448
62.135452	74.786	-178.2837
62.585712	74.771	-178.4770
63.039234	74.767	-178.5746
63.496040	74.779	-178.6737
63.956161	74.800	-178.8667
64.419617	74.814	-179.1876
64.886421	74.804	-179.5813
65.356621	74.766	-179.9200
65.830215	74.712	179.9309
66.307251	74.670	179.9875
66.787743	74.661	-179.8920
67.271713	74.681	-179.9179
67.759193	74.699	179.8124
68.250206	74.688	179.4031
68.744774	74.644	179.0704
69.242928	74.591	178.9609
69.744690	74.560	179.0319
70.250084	74.563	179.1024
70.759148	74.585	179.0176
71.271896	74.600	178.7735
71.788361	74.596	178.4943
72.308571	74.579	178.3037
72.832550	74.567	178.2263
73.360321	74.570	178.1814
73.891922	74.586	178.0688
74.427376	74.599	177.8503
74.966705	74.595	177.5843
75.509949	74.577	177.3843
76.057121	74.561	177.3031
76.608261	74.563	177.2552
77.163399	74.579	177.0956
77.722557	74.583	176.7991
78.285767	74.561	176.5239
78.853058	74.534	176.4344
79.424461	74.532	176.4354
80.000000	74.554	176.3122
80.579712	74.565	175.9805
81.163628	74.538	175.6238
81.751770	74.489	175.4637
82.344177	74.449	175.5253
82.940880	74.438	175.6517
83.541901	74.450	175.6746
84.147285	74.467	175.5042
84.757050	74.464	175.1676
85.371231	74.428	174.8049
85.989868	74.364	174.6145
86.612984	74.307	174.7079
87.240616	74.297	174.9352
87.872803	74.337	174.9473
88.509560	74.370	174.5435
89.150940	74.341	174.0014
89.796967	74.264	173.7874
90.447670	74.211	174.0147
91.103088	74.227	174.2788
91.763260	74.274	174.1675
92.428215	74.281	173.7402
93.097992	74.231	173.4222
93.772614	74.177	173.4951
94.452133	74.181	173.6913
95.136566	74.219	173.5178
95.825966	74.209	173.0106
96.520363	74.132	172.7097
97.219788	74.057	172.9097
97.924286	74.049	173.3196
98.633881	74.099	173.4788
99.348625	74.148	173.2046
100.068542	74.143	172.6949
100.793686	74.080	172.3636
101.524078	74.016	172.4202
102.259766	74.002	172.6067
103.000778	74.024	172.5416
103.747162	74.030	172.1839
104.498962	73.996	171.7815
105.256203	73.939	171.5416
106.018929	73.881	171.5168
106.787186	73.845	171.6775
107.561012	73.848	171.8591
108.340446	73.874	171.7914
109.125526	73.866	171.4913
109.916290	73.812	171.3238
110.712791	73.762	171.4310
111.515060	73.741	171.5771
112.323143	73.735	171.6058
113.137085	73.728	171.5215
113.956924	73.707	171.3704
114.782700	73.667	171.3499
115.614464	73.648	171.5914
116.452255	73.686	171.8171
117.296112	73.741	171.6739
118.146095	73.739	171.3127
119.002228	73.678	171.3479
119.864563	73.669	172.0133
120.733154	73.794	172.5493
121.608040	73.950	172.1254
122.489258	73.991	171.1439
123.376869	73.933	170.6170
124.270905	73.905	170.7435
125.171425	73.966	170.9019
126.078468	74.054	170.6193
126.992081	74.097	170.0573
127.912323	74.094	169.5778
128.839233	74.075	169.2838
129.772842	74.068	169.1235
130.713242	74.086	168.8811
131.660431	74.094	168.3911
132.614502	74.063	167.9254
133.575485	74.028	167.7067
134.543427	74.015	167.6088
135.518387	74.019	167.5093
136.500412	74.027	167.3213
137.489548	74.013	167.0294
138.485855	73.967	166.7693
139.489380	73.907	166.6322
140.500168	73.855	166.5636
141.518295	73.821	166.4451
142.543793	73.797	166.1854
143.576721	73.768	165.8713
144.617142	73.740	165.6190
145.665100	73.715	165.4459
146.720642	73.698	165.3810
147.783844	73.695	165.3045
148.854752	73.683	165.1180
149.933411	73.648	164.9081
151.019897	73.600	164.7335
152.114243	73.554	164.6045
153.216522	73.525	164.4877
154.326797	73.514	164.2999
155.445114	73.502	164.0476
156.571533	73.482	163.8473
157.706116	73.459	163.7538
158.848923	73.434	163.7336
160.000000	73.408	163.7434
161.159424	73.382	163.7253
162.327255	73.355	163.6222
163.503540	73.321	163.4338
164.688354	73.278	163.2473
165.881760	73.241	163.1417
167.083801	73.220	163.0798
168.294571	73.210	162.9666
169.514099	73.190	162.7952
170.742462	73.152	162.6619
171.979736	73.111	162.6136
173.225967	73.079	162.5831
174.481232	73.056	162.4984
175.745605	73.037	162.3469
177.019119	73.015	162.1663
178.301880	72.987	162.0282
179.593933	72.957	161.9639
180.895340	72.931	161.9447
182.206177	72.909	161.8997
183.526520	72.887	161.7911
184.856430	72.859	161.6288
186.195984	72.826	161.4647
187.545227	72.793	161.3455
188.904266	72.764	161.2798
190.273132	72.743	161.2303
191.651932	72.724	161.1447
193.040726	72.698	161.0405
194.439575	72.670	160.9465
195.848572	72.642	160.8412
197.267761	72.611	160.7476
198.697250	72.583	160.6724
200.137085	72.556	160.5870
201.587372	72.527	160.4981
203.048157	72.499	160.4252
204.519531	72.472	160.3470
206.001556	72.446	160.2525
207.494324	72.416	160.1548
208.997925	72.384	160.0859
210.512405	72.355	160.0381
212.037857	72.328	159.9872
213.574371	72.299	159.9365
215.122025	72.268	159.8704
216.680893	72.234	159.7802
218.251053	72.196	159.6881
219.832581	72.159	159.6147
221.425583	72.124	159.5665
223.030121	72.090	159.5420
224.646286	72.056	159.5381
226.274170	72.022	159.5292
227.913849	71.988	159.4898
229.565399	71.953	159.4210
231.228928	71.916	159.3672
232.904510	71.882	159.3661
234.592224	71.853	159.3832
236.292191	71.823	159.3906
238.004456	71.793	159.3747
239.729126	71.762	159.3351
241.466309	71.730	159.2977
243.216080	71.700	159.2773
244.978516	71.671	159.2697
246.753738	71.642	159.2446
248.541809	71.611	159.2143
250.342850	71.581	159.1862
252.156937	71.552	159.1558
253.984161	71.524	159.1172
255.824646	71.495	159.0671
257.678467	71.470	159.0306
259.545685	71.450	158.9708
261.426483	71.425	158.8832
263.320862	71.392	158.8091
265.229004	71.355	158.7551
267.150970	71.320	158.7149
269.086853	71.287	158.6653
271.036774	71.254	158.6386
273.000824	71.223	158.6332
274.979095	71.193	158.6169
276.971710	71.161	158.5888
278.978760	71.127	158.5581
281.000336	71.092	158.5480
283.036591	71.058	158.5466
285.087585	71.025	158.5430
287.153442	70.993	158.5422
289.234283	70.959	158.5531
291.330200	70.923	158.5860
293.441284	70.885	158.6046
295.567688	70.846	158.5967
297.709503	70.808	158.5736
299.866821	70.769	158.5732
302.039795	70.731	158.6086
304.228485	70.696	158.6359
306.433044	70.661	158.6316
308.653595	70.629	158.6270
310.890228	70.601	158.6362
313.143066	70.572	158.6492
315.412231	70.540	158.6537
317.697845	70.505	158.6634
320.000000	70.470	158.6826
322.318848	70.432	158.7044
324.654510	70.392	158.7324
327.007080	70.351	158.7642
329.376709	70.315	158.7978
331.763519	70.283	158.8279
334.167603	70.251	158.8604
336.589142	70.215	158.9243
339.028198	70.178	159.0146
341.484924	70.141	159.0902
343.959473	70.106	159.1321
346.451935	70.072	159.1619
348.962463	70.036	159.2079
351.491211	69.997	159.2642
354.038239	69.955	159.3140
356.603760	69.914	159.3734
359.187866	69.880	159.4483
361.790680	69.847	159.5093
364.412354	69.810	159.5499
367.053040	69.773	159.6020
369.712860	69.738	159.6735
372.391968	69.698	159.7535
375.090454	69.656	159.8317
377.808533	69.618	159.8886
380.546265	69.580	159.9364
383.303864	69.539	160.0147
386.081451	69.500	160.1077
388.879150	69.465	160.1953
391.697144	69.429	160.2920
394.535522	69.388	160.4020
397.394501	69.346	160.5234
400.274170	69.305	160.6642
403.174744	69.267	160.8249
406.096313	69.229	160.9736
409.039062	69.192	161.0965
412.003113	69.156	161.1901
414.988647	69.122	161.2611
417.995850	69.087	161.3571
421.024811	69.052	161.5020
424.075714	69.014	161.6424
427.148743	68.972	161.7571
430.244049	68.931	161.8789
433.361786	68.897	162.0097
436.502106	68.868	162.1342
439.665161	68.838	162.2637
442.851166	68.800	162.3930
446.060242	68.758	162.5071
449.292572	68.721	162.6260
452.548340	68.689	162.7551
455.827698	68.656	162.8901
459.130798	68.620	163.0447
462.457855	68.580	163.2009
465.809021	68.540	163.3446
469.184448	68.507	163.5070
472.584381	68.475	163.6974
476.008911	68.437	163.8956
479.458252	68.396	164.0813
482.932617	68.354	164.2451
486.432159	68.316	164.4125
489.957031	68.283	164.6049
493.507477	68.253	164.8079
497.083618	68.220	164.9816
500.685699	68.182	165.1516
504.313873	68.144	165.3490
507.968323	68.108	165.5730
511.649292	68.073	165.7797
515.356934	68.038	165.9266
519.091370	68.003	166.0692
522.852966	67.967	166.2458
526.641724	67.929	166.4464
530.458008	67.891	166.6619
534.301941	67.854	166.8797
538.173706	67.815	167.0945
542.073547	67.774	167.3091
546.001648	67.734	167.5404
549.958191	67.694	167.7993
553.943420	67.653	168.0491
557.957520	67.610	168.2850
562.000671	67.567	168.5370
566.073181	67.527	168.8123
570.175171	67.486	169.0931
574.306885	67.447	169.3689
578.468567	67.403	169.6458
582.660400	67.352	169.8907
586.882568	67.303	170.1129
591.135376	67.265	170.3578
595.419006	67.231	170.6181
599.733643	67.193	170.8841
604.079590	67.150	171.1545
608.456970	67.114	171.4241
612.866089	67.081	171.7052
617.307190	67.046	172.0040
621.780457	67.007	172.3250
626.286133	66.968	172.6318
630.824463	66.924	172.9299
635.395691	66.878	173.2316
640.000000	66.835	173.5385
644.637695	66.793	173.8591
649.309021	66.751	174.1761
654.014160	66.707	174.5136
658.753418	66.661	174.9247
663.527039	66.615	175.3882
668.335205	66.564	175.8412
673.178284	66.513	176.2659
678.056396	66.466	176.6576
682.969849	66.421	177.0691
687.918945	66.372	177.5303
692.903870	66.322	178.0243
697.924927	66.277	178.5358
702.982422	66.230	179.0681
708.076477	66.182	179.6609
713.207520	66.137	-179.7281
718.375732	66.098	-179.1500
723.581360	66.061	-178.5831
728.824707	66.028	-177.9728
734.106079	66.002	-177.2841
739.425720	65.977	-176.5334
744.783936	65.953	-175.7804
750.180908	65.937	-175.0604
755.617065	65.928	-174.3525
761.092529	65.925	-173.6084
766.607727	65.925	-172.8288
772.162903	65.931	-172.0603
777.758301	65.946	-171.3351
783.394287	65.967	-170.6236
789.071045	65.996	-169.9377
794.789001	66.033	-169.2646
800.548340	66.073	-168.5999
806.349487	66.114	-168.0088
812.192627	66.151	-167.4483
818.078125	66.190	-166.9205
824.006226	66.229	-166.4662
829.977295	66.270	-166.0580
835.991699	66.316	-165.6485
842.049622	66.359	-165.2312
848.151428	66.393	-164.7986
854.297485	66.428	-164.3689
860.488098	66.457	-163.9587
866.723572	66.479	-163.5657
873.004211	66.508	-163.2057
879.330322	66.542	-162.8751
885.702332	66.573	-162.5124
892.120483	66.597	-162.1389
898.585144	66.621	-161.8051
905.096680	66.648	-161.5040
911.655396	66.673	-161.1913
918.261597	66.697	-160.8400
924.915710	66.720	-160.4415
931.618042	66.738	-160.0428
938.368896	66.760	-159.6685
945.168762	66.791	-159.3213
952.017822	66.822	-158.9911
958.916504	66.848	-158.6563
965.865234	66.869	-158.2844
972.864319	66.887	-157.9163
979.914062	66.906	-157.5379
987.014954	66.931	-157.1225
994.167236	66.960	-156.7017
1001.371399	66.984	-156.2963
1008.627747	67.007	-155.9107
1015.936646	67.032	-155.5385
1023.298584	67.061	-155.1799
1030.713867	67.092	-154.8408
1038.182739	67.122	-154.4682
1045.705933	67.148	-154.0745
1053.283447	67.174	-153.6985
1060.916016	67.202	-153.3365
1068.603882	67.232	-152.9705
1076.347412	67.259	-152.6082
1084.147095	67.279	-152.2426
1092.003296	67.297	-151.8937
1099.916382	67.316	-151.5413
1107.886841	67.345	-151.1591
1115.915039	67.380	-150.7749
1124.001343	67.409	-150.3822
1132.146362	67.431	-150.0121
1140.350342	67.453	-149.6573
1148.613770	67.476	-149.3136
1156.937134	67.505	-148.9832
1165.320801	67.536	-148.6500
1173.765137	67.564	-148.2932
1182.270752	67.591	-147.9289
1190.838013	67.620	-147.6095
1199.467285	67.652	-147.2847
1208.159180	67.685	-146.9282
1216.913940	67.720	-146.5775
1225.732178	67.757	-146.2545
1234.614380	67.800	-145.9157
1243.560913	67.845	-145.5531
1252.572266	67.887	-145.2263
1261.648926	67.926	-144.9154
1270.791382	67.969	-144.5750
1280.000000	68.014	-144.2200
1289.275391	68.059	-143.8721
1298.618042	68.104	-143.5186
1308.028320	68.149	-143.1621
1317.506836	68.190	-142.8015
1327.054077	68.234	-142.4350
1336.670410	68.279	-142.0773
1346.356567	68.322	-141.7084
1356.112793	68.368	-141.3090
1365.939697	68.422	-140.9140
1375.837891	68.479	-140.5211
1385.807739	68.536	-140.1369
1395.849854	68.593	-139.7713
1405.964844	68.647	-139.3962
1416.152954	68.700	-139.0083
1426.415039	68.757	-138.6364
1436.751465	68.818	-138.2703
1447.162720	68.882	-137.8680
1457.649414	68.945	-137.4517
1468.212158	69.005	-137.0436
1478.851440	69.067	-136.6373
1489.567871	69.133	-136.2238
1500.361816	69.197	-135.8157
1511.234131	69.262	-135.4231
1522.185059	69.329	-135.0316
1533.215454	69.398	-134.6096
1544.325806	69.466	-134.1913
1555.516602	69.534	-133.7915
1566.788574	69.607	-133.3889
1578.142090	69.678	-132.9933
1589.578003	69.749	-132.5967
1601.096680	69.823	-132.1857
1612.698975	69.897	-131.7581
1624.385254	69.976	-131.3378
1636.156250	70.058	-130.9362
1648.012451	70.140	-130.5392
1659.954590	70.224	-130.1397
1671.983398	70.311	-129.7463
1684.099243	70.399	-129.3569
1696.302856	70.488	-128.9520
1708.594971	70.581	-128.5549
1720.976196	70.674	-128.1689
1733.447144	70.771	-127.7900
1746.008423	70.873	-127.3930
1758.660645	70.979	-126.9985
1771.404663	71.087	-126.6243
1784.240967	71.198	-126.2675
1797.170288	71.312	-125.9099
1810.193359	71.429	-125.5598
1823.310791	71.546	-125.2507
1836.523193	71.666	-124.9427
1849.831421	71.790	-124.6160
1863.236084	71.918	-124.3018
1876.737793	72.050	-124.0048
1890.337524	72.183	-123.7294
1904.035645	72.318	-123.4593
1917.833008	72.456	-123.1847
1931.730469	72.595	-122.9325
1945.728638	72.739	-122.7233
1959.828125	72.890	-122.5478
1974.029907	73.043	-122.3769
1988.334473	73.198	-122.2111
2002.742798	73.359	-122.0655
2017.255493	73.521	-121.9475
2031.873291	73.685	-121.8671
2046.597168	73.854	-121.8150
2061.427734	74.026	-121.7911
2076.365479	74.199	-121.8019
2091.411865	74.374	-121.8562
2106.566895	74.553	-121.9443
2121.832031	74.737	-122.0611
2137.207764	74.924	-122.2191
2152.694824	75.114	-122.4156
2168.294189	75.305	-122.6623
2184.006592	75.497	-122.9608
2199.832764	75.691	-123.3095
2215.773682	75.885	-123.7093
2231.830078	76.079	-124.1781
2248.002686	76.276	-124.7203
2264.292725	76.473	-125.3215
2280.700684	76.669	-125.9813
2297.227539	76.862	-126.7095
2313.874268	77.055	-127.5130
2330.641602	77.243	-128.4027
2347.530273	77.429	-129.3726
2364.541504	77.610	-130.4101
2381.676025	77.784	-131.5164
2398.934570	77.948	-132.6908
2416.318359	78.102	-133.9248
2433.827881	78.245	-135.1956
2451.464355	78.374	-136.4846
2469.228760	78.491	-137.7604
2487.121826	78.602	-138.9632
2505.144531	78.727	-140.0648
2523.297852	78.888	-141.1651
2541.582764	79.090	-142.5005
2560.000000	79.302	-144.2984
2578.550781	79.484	-146.5759
2597.236084	79.614	-149.1951
2616.056641	79.684	-152.0629
2635.013672	79.679	-155.1663
2654.108154	79.565	-158.3477
2673.340820	79.325	-161.1585
2692.713135	79.009	-163.1274
2712.225586	78.708	-164.2520
2731.879395	78.475	-164.9378
2751.675781	78.302	-165.5422
2771.615479	78.163	-166.1984
2791.699707	78.035	-166.9138
2811.929688	77.907	-167.6692
2832.305908	77.773	-168.4287
2852.830078	77.634	-169.1536
2873.502930	77.490	-169.8230
2894.325439	77.341	-170.4381
2915.298828	77.187	-170.9936
2936.424316	77.031	-171.4802
2957.702881	76.874	-171.8957
2979.135742	76.716	-172.2397
3000.723633	76.559	-172.5178
3022.468262	76.402	-172.7280
3044.370117	76.245	-172.8651
3066.430908	76.090	-172.9376
3088.651611	75.940	-172.9445
3111.033203	75.794	-172.8840
3133.577148	75.653	-172.7690
3156.284180	75.518	-172.6010
3179.156006	75.387	-172.3667
3202.193359	75.261	-172.0725
3225.397949	75.144	-171.7282
3248.770508	75.038	-171.3456
3272.312500	74.941	-170.9465
3296.024902	74.854	-170.5385
3319.909180	74.777	-170.1394
3343.966797	74.708	-169.7758
3368.198486	74.640	-169.4350
