* Measurement data measured by REW V5.20.7
* Source: 마이크(Realtek High Definition Audi, MICROPHONE (마스), L, volume: 0.050
* Format: 128k Log Swept Sine, 1 sweep at -12.0 dBFS with no timing reference
* Dated: May 5, 2023 4:53:17 PM
* REW Settings:
*  C-weighting compensation: Off
*  Target level: 75.0 dB
* Note: ; 
* Measurement: Rhapsodio Supreme 2 R
* Smoothing: 1/24 octave
* Frequency Step: 1/48 octave
* Start Frequency: 20.300 Hz
*
* Freq(Hz)	SPL(dB)	Phase(degrees)
20.299999	77.662	-146.5546
20.600000	77.656	-146.6916
20.900000	77.643	-146.9484
21.200001	77.629	-147.2288
21.400000	77.620	-147.4358
21.799999	77.600	-147.9091
22.000000	77.589	-148.1752
22.400000	77.565	-148.7493
22.700001	77.548	-149.2052
23.000000	77.534	-149.6792
23.299999	77.526	-150.1737
23.600000	77.524	-150.6903
24.000000	77.529	-151.4079
24.299999	77.537	-151.9504
24.700001	77.551	-152.6424
25.000000	77.564	-153.1097
25.400000	77.588	-153.6423
25.799999	77.624	-154.0841
26.200001	77.674	-154.4822
26.500000	77.716	-154.7821
26.900000	77.767	-155.1991
27.200001	77.797	-155.5127
27.600000	77.823	-155.8956
28.000000	77.835	-156.1970
28.500000	77.843	-156.4503
29.000000	77.851	-156.6367
29.500000	77.857	-156.8401
30.000000	77.856	-157.0860
30.400000	77.849	-157.2969
30.700001	77.842	-157.4577
31.100000	77.832	-157.6845
31.500000	77.825	-157.9415
32.000000	77.815	-158.3146
32.500000	77.804	-158.7190
33.000000	77.796	-159.1174
33.500000	77.798	-159.5081
34.000000	77.812	-159.9130
34.500000	77.829	-160.3293
35.000000	77.846	-160.7205
35.500000	77.865	-161.0571
36.000000	77.887	-161.3525
36.500000	77.911	-161.6367
37.000000	77.929	-161.9116
37.500000	77.939	-162.1486
38.200001	77.946	-162.3925
38.700001	77.951	-162.5426
39.500000	77.958	-162.8401
40.000000	77.956	-163.0616
40.599998	77.950	-163.3367
41.200001	77.943	-163.6162
41.799999	77.939	-163.9089
42.500000	77.936	-164.2620
43.099998	77.936	-164.5573
43.700001	77.939	-164.8351
44.400002	77.948	-165.1427
45.000000	77.958	-165.4056
45.500000	77.965	-165.6243
46.200001	77.968	-165.9041
46.799999	77.969	-166.1002
47.500000	77.973	-166.3054
48.200001	77.978	-166.5340
48.700001	77.980	-166.7132
49.400002	77.978	-166.9600
50.000000	77.976	-167.1611
50.799999	77.977	-167.4328
51.500000	77.979	-167.6779
52.200001	77.982	-167.9171
53.000000	77.988	-168.1746
53.799999	77.995	-168.4159
54.500000	78.002	-168.6165
55.200001	78.007	-168.8117
56.000000	78.011	-169.0366
57.000000	78.011	-169.3234
58.000000	78.006	-169.5837
59.000000	78.003	-169.8238
60.000000	78.003	-170.0793
60.799999	78.004	-170.2789
61.500000	78.007	-170.4521
62.200001	78.010	-170.6362
63.000000	78.009	-170.8457
64.000000	78.007	-171.0665
65.000000	78.008	-171.2702
66.000000	78.009	-171.4973
67.000000	78.006	-171.7196
68.000000	78.006	-171.9331
69.000000	78.006	-172.1503
70.000000	78.007	-172.3600
71.000000	78.009	-172.5675
72.000000	78.012	-172.7716
73.000000	78.014	-172.9726
74.000000	78.015	-173.1770
75.000000	78.014	-173.3660
76.199997	78.013	-173.5747
77.500000	78.013	-173.8026
78.800003	78.011	-174.0407
80.000000	78.007	-174.2545
81.199997	78.003	-174.4466
82.500000	78.002	-174.6482
83.800003	78.002	-174.8649
85.000000	78.000	-175.0635
86.199997	77.997	-175.2419
87.500000	77.993	-175.4246
88.500000	77.989	-175.5556
90.000000	77.986	-175.7503
91.199997	77.984	-175.9272
92.500000	77.982	-176.1282
93.800003	77.980	-176.3244
95.000000	77.978	-176.4954
96.199997	77.977	-176.6577
97.500000	77.974	-176.8236
98.800003	77.971	-176.9841
100.000000	77.967	-177.1332
101.500000	77.961	-177.3144
103.000000	77.957	-177.5006
104.400002	77.955	-177.6805
106.000000	77.952	-177.8848
107.500000	77.948	-178.0710
109.000000	77.942	-178.2390
110.599998	77.937	-178.4033
112.000000	77.932	-178.5463
113.800003	77.926	-178.7298
115.000000	77.922	-178.8556
117.199997	77.917	-179.0983
118.000000	77.914	-179.1870
120.599998	77.905	-179.4594
122.000000	77.899	-179.6006
124.099998	77.890	-179.8007
125.000000	77.886	-179.8843
126.500000	77.881	179.9814
128.000000	77.876	179.8518
131.500000	77.860	179.5581
132.000000	77.857	179.5123
134.000000	77.847	179.3106
136.000000	77.838	179.0915
138.000000	77.833	178.8861
140.000000	77.830	178.7296
143.000000	77.817	178.5595
145.000000	77.805	178.4261
147.500000	77.789	178.1866
150.000000	77.779	177.9482
152.500000	77.773	177.7635
155.000000	77.761	177.6078
157.500000	77.744	177.4276
160.000000	77.728	177.2316
162.500000	77.715	177.0426
165.000000	77.702	176.8670
167.500000	77.687	176.7027
170.000000	77.672	176.5375
172.500000	77.659	176.3766
175.000000	77.650	176.2239
177.500000	77.641	176.0650
180.000000	77.627	175.9132
182.500000	77.611	175.7811
185.000000	77.595	175.6243
187.500000	77.579	175.4646
190.000000	77.570	175.3239
192.500000	77.568	175.1646
195.000000	77.559	175.0040
197.500000	77.540	174.9034
200.000000	77.522	174.8165
203.000000	77.499	174.6201
206.000000	77.473	174.3962
209.000000	77.455	174.2366
212.000000	77.442	174.1055
214.000000	77.429	174.0164
218.000000	77.395	173.8181
220.000000	77.379	173.7056
224.000000	77.345	173.5023
227.000000	77.318	173.3806
230.000000	77.291	173.2530
233.000000	77.266	173.1161
236.000000	77.244	172.9856
240.000000	77.212	172.8340
243.000000	77.186	172.7401
247.000000	77.151	172.6151
250.000000	77.124	172.4975
254.000000	77.090	172.3029
258.000000	77.058	172.0986
262.000000	77.033	171.9193
265.000000	77.016	171.7876
269.000000	76.991	171.6578
272.000000	76.969	171.5865
276.000000	76.937	171.4746
280.000000	76.905	171.3413
285.000000	76.866	171.1864
290.000000	76.827	171.0336
295.000000	76.784	170.8758
300.000000	76.741	170.7459
304.000000	76.708	170.6575
307.000000	76.683	170.5808
311.000000	76.650	170.4731
315.000000	76.615	170.3656
320.000000	76.569	170.2396
325.000000	76.524	170.1242
330.000000	76.480	170.0236
335.000000	76.435	169.9397
340.000000	76.389	169.8515
345.000000	76.341	169.7659
350.000000	76.288	169.6931
355.000000	76.237	169.6262
360.000000	76.185	169.5582
365.000000	76.129	169.4980
370.000000	76.073	169.4473
375.000000	76.021	169.4113
382.000000	75.948	169.3599
387.000000	75.894	169.3272
395.000000	75.802	169.3288
400.000000	75.743	169.3487
406.000000	75.676	169.3998
412.000000	75.607	169.4926
418.000000	75.539	169.5679
425.000000	75.472	169.6942
431.000000	75.421	169.8181
437.000000	75.372	169.9000
444.000000	75.308	169.9505
450.000000	75.251	169.9631
455.000000	75.197	169.9784
462.000000	75.111	170.0395
468.000000	75.034	170.1387
475.000000	74.945	170.2990
482.000000	74.857	170.4816
487.000000	74.794	170.6564
494.000000	74.704	170.9587
500.000000	74.629	171.2249
508.000000	74.536	171.6197
515.000000	74.460	172.0187
522.000000	74.386	172.4459
530.000000	74.306	172.9752
538.000000	74.229	173.5535
545.000000	74.161	174.0861
552.000000	74.097	174.6381
560.000000	74.035	175.2946
570.000000	73.971	176.1187
580.000000	73.916	176.9330
590.000000	73.875	177.7619
600.000000	73.843	178.5607
608.000000	73.825	179.1800
615.000000	73.813	179.7174
622.000000	73.802	-179.7551
630.000000	73.794	-179.1709
640.000000	73.786	-178.4840
650.000000	73.784	-177.8553
660.000000	73.785	-177.2589
670.000000	73.788	-176.6845
680.000000	73.791	-176.1391
690.000000	73.793	-175.6089
700.000000	73.796	-175.0966
710.000000	73.798	-174.5956
720.000000	73.800	-174.1095
730.000000	73.802	-173.6230
740.000000	73.807	-173.1335
750.000000	73.811	-172.6586
762.000000	73.807	-172.0986
775.000000	73.805	-171.4845
788.000000	73.809	-170.8792
800.000000	73.810	-170.3109
812.000000	73.811	-169.7231
825.000000	73.814	-169.0948
838.000000	73.822	-168.4693
850.000000	73.831	-167.8831
862.000000	73.843	-167.2835
875.000000	73.854	-166.6481
885.000000	73.863	-166.1579
900.000000	73.880	-165.4242
912.000000	73.897	-164.8598
925.000000	73.916	-164.2501
938.000000	73.940	-163.6501
950.000000	73.966	-163.1050
962.000000	73.994	-162.5625
975.000000	74.025	-161.9898
988.000000	74.056	-161.4384
1000.000000	74.088	-160.9401
1015.000000	74.131	-160.3389
1030.000000	74.173	-159.7488
1044.000000	74.217	-159.2246
1060.000000	74.266	-158.6555
1075.000000	74.304	-158.1441
1090.000000	74.338	-157.6527
1106.000000	74.377	-157.1429
1120.000000	74.414	-156.7173
1138.000000	74.461	-156.2083
1150.000000	74.492	-155.8795
1172.000000	74.549	-155.2907
1180.000000	74.571	-155.0816
1206.000000	74.644	-154.4256
1220.000000	74.687	-154.0787
1241.000000	74.759	-153.5571
1250.000000	74.792	-153.3370
1265.000000	74.848	-152.9761
1280.000000	74.903	-152.6175
1315.000000	75.031	-151.7665
1320.000000	75.049	-151.6440
1340.000000	75.120	-151.1527
1360.000000	75.195	-150.6576
1380.000000	75.279	-150.1516
1400.000000	75.367	-149.6400
1430.000000	75.504	-148.8839
1450.000000	75.598	-148.3819
1475.000000	75.717	-147.7362
1500.000000	75.840	-147.0722
1525.000000	75.962	-146.4029
1550.000000	76.083	-145.7531
1575.000000	76.207	-145.1162
1600.000000	76.336	-144.4897
1625.000000	76.469	-143.8740
1650.000000	76.608	-143.2690
1675.000000	76.753	-142.7013
1700.000000	76.907	-142.1541
1725.000000	77.069	-141.6256
1750.000000	77.241	-141.1275
1775.000000	77.421	-140.6638
1800.000000	77.606	-140.2380
1825.000000	77.799	-139.8558
1850.000000	77.998	-139.5189
1875.000000	78.204	-139.2376
1900.000000	78.417	-139.0214
1925.000000	78.637	-138.8763
1950.000000	78.863	-138.7973
1975.000000	79.092	-138.7871
2000.000000	79.327	-138.8622
2030.000000	79.615	-139.0790
2060.000000	79.908	-139.4408
2090.000000	80.205	-139.9524
2120.000000	80.502	-140.6319
2140.000000	80.698	-141.1812
2180.000000	81.085	-142.5255
2200.000000	81.273	-143.3250
2240.000000	81.634	-145.1867
2270.000000	81.885	-146.8108
2300.000000	82.115	-148.6201
2330.000000	82.319	-150.6019
2360.000000	82.493	-152.7398
2400.000000	82.673	-155.7760
2430.000000	82.765	-158.1418
2470.000000	82.832	-161.3561
2500.000000	82.838	-163.7748
2540.000000	82.786	-166.9478
2580.000000	82.668	-169.9802
2620.000000	82.488	-172.7685
2650.000000	82.319	-174.6486
2690.000000	82.063	-176.8478
2720.000000	81.854	-178.2685
2760.000000	81.562	-179.8677
2800.000000	81.262	178.8416
2850.000000	80.880	177.6132
2900.000000	80.500	176.7782
2950.000000	80.127	176.3146
3000.000000	79.768	176.1816
3040.000000	79.494	176.2849
3070.000000	79.298	176.4701
3110.000000	79.048	176.8410
3150.000000	78.814	177.3360
3200.000000	78.544	178.1076
3250.000000	78.300	179.0281
3300.000000	78.078	-179.9233
3350.000000	77.879	-178.7710
3400.000000	77.704	-177.5271
3450.000000	77.552	-176.2095
3500.000000	77.421	-174.8378
3550.000000	77.312	-173.4209
3600.000000	77.224	-171.9741
3650.000000	77.157	-170.5144
3700.000000	77.109	-169.0382
3750.000000	77.081	-167.5478
3820.000000	77.076	-165.4755
3870.000000	77.100	-164.0039
3950.000000	77.178	-161.6752
4000.000000	77.252	-160.2486
4060.000000	77.364	-158.5835
4120.000000	77.502	-156.9895
4180.000000	77.666	-155.4743
4250.000000	77.889	-153.8147
4310.000000	78.108	-152.5221
4370.000000	78.349	-151.3696
4440.000000	78.655	-150.2279
4500.000000	78.939	-149.4402
4550.000000	79.188	-148.9330
4620.000000	79.554	-148.4868
4680.000000	79.879	-148.3785
4750.000000	80.264	-148.5963
4820.000000	80.642	-149.2074
4870.000000	80.899	-149.8955
4940.000000	81.230	-151.2068
5000.000000	81.482	-152.6319
5080.000000	81.756	-154.9102
5150.000000	81.925	-157.1733
5220.000000	82.022	-159.5685
5300.000000	82.045	-162.3115
5380.000000	81.977	-164.9062
5450.000000	81.846	-166.9613
5520.000000	81.660	-168.7569
5600.000000	81.394	-170.4540
5700.000000	80.984	-171.9666
5800.000000	80.501	-172.4079
5900.000000	80.061	-171.5623
6000.000000	79.751	-170.0937
6080.000000	79.574	-168.7951
6150.000000	79.456	-167.5771
6220.000000	79.368	-166.2735
6300.000000	79.310	-164.6759
6400.000000	79.304	-162.5542
6500.000000	79.378	-160.3676
6600.000000	79.539	-158.1862
6700.000000	79.789	-156.0953
6800.000000	80.135	-154.2113
6900.000000	80.587	-152.6668
7000.000000	81.143	-151.6028
7100.000000	81.798	-151.1844
7200.000000	82.541	-151.6391
7300.000000	83.351	-153.2682
7400.000000	84.180	-156.3792
7500.000000	84.960	-161.2614
7620.000000	85.683	-169.7058
7750.000000	85.956	178.5591
7880.000000	85.535	166.4220
8000.000000	84.609	157.2868
8120.000000	83.383	151.2249
8250.000000	81.964	147.8825
8380.000000	80.620	147.0709
8500.000000	79.512	147.8940
8620.000000	78.549	149.7821
8750.000000	77.677	152.6978
8850.000000	77.131	155.3378
9000.000000	76.505	159.5870
9120.000000	76.155	163.0971
9250.000000	75.922	166.9558
9380.000000	75.842	170.7743
9500.000000	75.914	174.1510
9620.000000	76.138	177.2527
9750.000000	76.571	-179.9071
9880.000000	77.221	-177.9396
10000.000000	78.017	-177.3611
10150.000000	79.229	-179.3246
10300.000000	80.470	174.1328
10440.000000	81.267	162.8629
10600.000000	81.254	145.7728
10750.000000	80.186	130.8222
10900.000000	78.366	120.9497
11060.000000	76.108	116.3198
11200.000000	74.192	115.8053
11380.000000	72.017	118.0217
11500.000000	70.762	120.5952
11720.000000	68.811	126.6109
11800.000000	68.197	129.0693
12060.000000	66.496	137.6318
12200.000000	65.749	142.4932
12410.000000	64.844	149.9373
12500.000000	64.525	153.1531
12650.000000	64.068	158.5226
12800.000000	63.693	163.8886
13150.000000	63.107	176.3347
13200.000000	63.056	178.0958
13400.000000	62.940	-174.9258
13600.000000	62.983	-168.1063
13800.000000	63.212	-161.5372
14000.000000	63.600	-155.2972
14300.000000	64.422	-146.6738
14500.000000	65.137	-141.4339
14750.000000	66.263	-135.6252
15000.000000	67.699	-131.3459
15250.000000	69.413	-129.6985
15500.000000	71.265	-131.7894
15750.000000	73.054	-138.7122
16000.000000	74.439	-151.4571
16250.000000	74.976	-169.4082
16500.000000	74.363	171.4634
16750.000000	72.684	156.4721
17000.000000	70.348	148.0641
17250.000000	67.792	145.6128
17500.000000	65.270	147.5677
17750.000000	62.936	152.5818
18000.000000	60.913	159.7053
18250.000000	59.275	168.2314
18500.000000	58.065	177.2675
18750.000000	57.286	-174.1722
19000.000000	56.858	-167.0963
19250.000000	56.609	-162.2745
19500.000000	56.289	-159.4508
19750.000000	55.732	-157.6087
20000.000000	55.219	-156.4407
