* Measurement data measured by REW V5.20.7
* Source: 마이크(Realtek High Definition Audi, MICROPHONE (마스), L, volume: 0.050
* Format: 128k Log Swept Sine, 1 sweep at -12.0 dBFS with no timing reference
* Dated: May 5, 2023 4:32:38 PM
* REW Settings:
*  C-weighting compensation: Off
*  Target level: 75.0 dB
* Note: ; 
* Measurement: Rhapsodio Supreme 3 L
* Smoothing: 1/24 octave
* Frequency Step: 1/48 octave
* Start Frequency: 20.300 Hz
*
* Freq(Hz)	SPL(dB)	Phase(degrees)
20.299999	75.093	-155.5863
20.600000	74.840	-155.2812
20.900000	74.378	-154.1870
21.200001	74.147	-151.9053
21.400000	74.173	-150.3408
21.799999	74.497	-148.3999
22.000000	74.692	-148.4238
22.400000	74.942	-150.3150
22.700001	74.928	-152.4480
23.000000	74.743	-154.2295
23.299999	74.464	-155.0963
23.600000	74.199	-154.9949
24.000000	74.020	-153.9335
24.299999	74.053	-153.2676
24.700001	74.226	-153.3932
25.000000	74.344	-154.2993
25.400000	74.395	-156.0152
25.799999	74.340	-157.4289
26.200001	74.281	-158.1369
26.500000	74.286	-158.3932
26.900000	74.363	-158.8161
27.200001	74.434	-159.3824
27.600000	74.483	-160.3412
28.000000	74.463	-161.0359
28.500000	74.429	-161.0178
29.000000	74.507	-160.4501
29.500000	74.675	-160.2266
30.000000	74.808	-160.4982
30.400000	74.864	-160.6658
30.700001	74.902	-160.6323
31.100000	74.982	-160.5472
31.500000	75.085	-160.7432
32.000000	75.163	-161.5986
32.500000	75.110	-162.6089
33.000000	74.971	-162.9782
33.500000	74.876	-162.6844
34.000000	74.881	-162.4531
34.500000	74.913	-162.7700
35.000000	74.901	-163.3793
35.500000	74.862	-163.8377
36.000000	74.855	-164.1972
36.500000	74.879	-164.8249
37.000000	74.870	-165.7798
37.500000	74.792	-166.6340
38.200001	74.666	-166.9239
38.700001	74.670	-166.7340
39.500000	74.810	-167.2499
40.000000	74.851	-168.2017
40.599998	74.793	-169.2256
41.200001	74.705	-169.5169
41.799999	74.695	-169.4230
42.500000	74.757	-169.6875
43.099998	74.781	-170.2200
43.700001	74.780	-170.6249
44.400002	74.805	-171.0186
45.000000	74.827	-171.5586
45.500000	74.817	-172.0304
46.200001	74.787	-172.4182
46.799999	74.792	-172.6293
47.500000	74.808	-173.0928
48.200001	74.784	-173.5496
48.700001	74.763	-173.6506
49.400002	74.780	-173.6527
50.000000	74.824	-173.8710
50.799999	74.845	-174.4089
51.500000	74.832	-174.6995
52.200001	74.840	-174.8517
53.000000	74.859	-175.1600
53.799999	74.856	-175.4847
54.500000	74.853	-175.6876
55.200001	74.855	-175.9820
56.000000	74.828	-176.3878
57.000000	74.781	-176.6644
58.000000	74.758	-177.0234
59.000000	74.698	-177.3639
60.000000	74.678	-177.2698
60.799999	74.729	-177.3740
61.500000	74.769	-177.7611
62.200001	74.779	-178.1944
63.000000	74.780	-178.5556
64.000000	74.791	-178.9955
65.000000	74.774	-179.5740
66.000000	74.713	-179.9257
67.000000	74.682	179.9527
68.000000	74.671	179.5858
69.000000	74.623	179.1705
70.000000	74.583	179.0177
71.000000	74.585	178.8225
72.000000	74.585	178.4839
73.000000	74.578	178.2162
74.000000	74.584	177.9586
75.000000	74.584	177.6227
76.199997	74.572	177.2855
77.500000	74.569	176.8984
78.800003	74.551	176.5008
80.000000	74.545	176.1824
81.199997	74.519	175.7638
82.500000	74.467	175.5823
83.800003	74.452	175.4595
85.000000	74.427	175.0758
86.199997	74.362	174.8043
87.500000	74.330	174.7375
88.500000	74.328	174.4650
90.000000	74.271	174.0654
91.199997	74.249	174.0378
92.500000	74.244	173.7816
93.800003	74.209	173.5538
95.000000	74.191	173.3721
96.199997	74.152	173.0825
97.500000	74.097	173.0961
98.800003	74.103	173.1390
100.000000	74.104	172.8266
101.500000	74.048	172.5163
103.000000	74.016	172.3366
104.400002	73.980	171.9336
106.000000	73.902	171.6682
107.500000	73.862	171.6976
109.000000	73.841	171.5784
110.599998	73.784	171.4829
112.000000	73.743	171.5209
113.800003	73.705	171.4744
115.000000	73.685	171.5086
117.199997	73.707	171.5970
118.000000	73.715	171.5792
120.599998	73.803	171.9329
122.000000	73.906	171.5782
124.099998	73.953	170.8416
125.000000	73.981	170.6847
126.500000	74.046	170.2596
128.000000	74.077	169.6658
131.500000	74.073	168.4720
132.000000	74.068	168.2900
134.000000	74.034	167.7302
136.000000	74.015	167.3629
138.000000	73.973	166.9441
140.000000	73.889	166.6012
143.000000	73.786	166.0407
145.000000	73.736	165.6247
147.500000	73.693	165.2833
150.000000	73.636	164.9160
152.500000	73.556	164.5507
155.000000	73.505	164.1598
157.500000	73.461	163.8405
160.000000	73.407	163.7173
162.500000	73.345	163.5429
165.000000	73.275	163.2587
167.500000	73.219	163.0179
170.000000	73.168	162.7762
172.500000	73.104	162.5945
175.000000	73.050	162.4022
177.500000	73.002	162.1519
180.000000	72.951	161.9750
182.500000	72.903	161.8316
185.000000	72.853	161.6117
187.500000	72.798	161.3891
190.000000	72.750	161.2303
192.500000	72.706	161.0756
195.000000	72.658	160.9062
197.500000	72.608	160.7438
200.000000	72.558	160.5953
203.000000	72.501	160.4252
206.000000	72.444	160.2550
209.000000	72.386	160.1028
212.000000	72.328	159.9854
214.000000	72.289	159.9055
218.000000	72.202	159.7157
220.000000	72.157	159.6330
224.000000	72.070	159.5429
227.000000	72.007	159.4944
230.000000	71.944	159.4238
233.000000	71.883	159.3836
236.000000	71.828	159.3745
240.000000	71.757	159.3297
243.000000	71.705	159.2865
247.000000	71.638	159.2357
250.000000	71.588	159.1884
254.000000	71.525	159.1094
258.000000	71.468	159.0052
262.000000	71.411	158.8687
265.000000	71.360	158.7739
269.000000	71.290	158.6829
272.000000	71.240	158.6412
276.000000	71.176	158.6000
280.000000	71.110	158.5627
285.000000	71.027	158.5486
290.000000	70.944	158.5684
295.000000	70.857	158.5890
300.000000	70.768	158.5937
304.000000	70.702	158.6186
307.000000	70.656	158.6293
311.000000	70.599	158.6398
315.000000	70.544	158.6556
320.000000	70.468	158.6878
325.000000	70.387	158.7408
330.000000	70.309	158.8087
335.000000	70.237	158.9010
340.000000	70.164	159.0320
345.000000	70.092	159.1415
350.000000	70.019	159.2355
355.000000	69.942	159.3426
360.000000	69.870	159.4597
365.000000	69.802	159.5686
370.000000	69.732	159.6882
375.000000	69.659	159.8182
382.000000	69.559	159.9915
387.000000	69.490	160.1419
395.000000	69.381	160.4359
400.000000	69.311	160.6623
406.000000	69.232	160.9468
412.000000	69.158	161.1773
418.000000	69.086	161.3853
425.000000	69.001	161.6702
431.000000	68.927	161.9132
437.000000	68.862	162.1552
444.000000	68.784	162.4305
450.000000	68.716	162.6619
455.000000	68.663	162.8672
462.000000	68.586	163.1800
468.000000	68.520	163.4662
475.000000	68.446	163.8341
482.000000	68.368	164.1998
487.000000	68.314	164.4552
494.000000	68.247	164.8218
500.000000	68.188	165.1318
508.000000	68.109	165.5598
515.000000	68.041	165.9036
522.000000	67.974	166.2263
530.000000	67.896	166.6427
538.000000	67.816	167.0892
545.000000	67.745	167.4963
552.000000	67.673	167.9256
560.000000	67.589	168.4247
570.000000	67.488	169.0790
580.000000	67.383	169.7182
590.000000	67.280	170.3036
600.000000	67.189	170.9061
608.000000	67.120	171.4062
615.000000	67.063	171.8622
622.000000	67.004	172.3361
630.000000	66.931	172.8762
640.000000	66.836	173.5490
650.000000	66.744	174.2572
660.000000	66.648	175.0751
670.000000	66.548	175.9708
680.000000	66.449	176.8423
690.000000	66.352	177.7654
700.000000	66.258	178.7864
710.000000	66.169	179.8971
720.000000	66.090	-178.9597
730.000000	66.027	-177.7620
740.000000	65.978	-176.4433
750.000000	65.945	-175.0882
762.000000	65.930	-173.4648
775.000000	65.946	-171.7161
788.000000	65.998	-170.0879
800.000000	66.071	-168.7140
812.000000	66.151	-167.5143
825.000000	66.238	-166.4346
838.000000	66.327	-165.5062
850.000000	66.401	-164.6764
862.000000	66.461	-163.8849
875.000000	66.520	-163.1105
885.000000	66.566	-162.5513
900.000000	66.627	-161.7531
912.000000	66.673	-161.1431
925.000000	66.719	-160.4317
938.000000	66.764	-159.7104
950.000000	66.811	-159.0887
962.000000	66.854	-158.4769
975.000000	66.894	-157.7858
988.000000	66.937	-157.0604
1000.000000	66.979	-156.3886
1015.000000	67.031	-155.5995
1030.000000	67.089	-154.8595
1044.000000	67.142	-154.1662
1060.000000	67.199	-153.3828
1075.000000	67.250	-152.6730
1090.000000	67.293	-151.9808
1106.000000	67.342	-151.2408
1120.000000	67.392	-150.5825
1138.000000	67.448	-149.7714
1150.000000	67.484	-149.2656
1172.000000	67.558	-148.3651
1180.000000	67.585	-148.0396
1206.000000	67.679	-147.0148
1220.000000	67.736	-146.4691
1241.000000	67.832	-145.6658
1250.000000	67.874	-145.3290
1265.000000	67.944	-144.7782
1280.000000	68.015	-144.2183
1315.000000	68.180	-142.8932
1320.000000	68.203	-142.7030
1340.000000	68.296	-141.9383
1360.000000	68.394	-141.1520
1380.000000	68.504	-140.3687
1400.000000	68.615	-139.6139
1430.000000	68.782	-138.5014
1450.000000	68.900	-137.7464
1475.000000	69.047	-136.7834
1500.000000	69.197	-135.8372
1525.000000	69.349	-134.9139
1550.000000	69.503	-133.9940
1575.000000	69.660	-133.1016
1600.000000	69.819	-132.2156
1625.000000	69.985	-131.3281
1650.000000	70.158	-130.4749
1675.000000	70.337	-129.6488
1700.000000	70.521	-128.8371
1725.000000	70.712	-128.0469
1750.000000	70.913	-127.2749
1775.000000	71.124	-126.5362
1800.000000	71.343	-125.8486
1825.000000	71.568	-125.2166
1850.000000	71.800	-124.6212
1875.000000	72.040	-124.0597
1900.000000	72.286	-123.5464
1925.000000	72.536	-123.0815
1950.000000	72.795	-122.6941
1975.000000	73.063	-122.3792
2000.000000	73.338	-122.1202
2030.000000	73.675	-121.9106
2060.000000	74.020	-121.8311
2090.000000	74.370	-121.8901
2120.000000	74.727	-122.0888
2140.000000	74.970	-122.3000
2180.000000	75.459	-122.9388
2200.000000	75.703	-123.3768
2240.000000	76.190	-124.5186
2270.000000	76.550	-125.6178
2300.000000	76.902	-126.9248
2330.000000	77.241	-128.4557
2360.000000	77.563	-130.2054
2400.000000	77.953	-132.8250
2430.000000	78.207	-134.9364
2470.000000	78.500	-137.7574
2500.000000	78.722	-139.7776
2540.000000	79.088	-142.7881
2580.000000	79.446	-147.1479
2620.000000	79.598	-152.8481
2650.000000	79.492	-157.3598
2690.000000	79.062	-162.1303
2720.000000	78.676	-164.1902
2760.000000	78.278	-165.8218
2800.000000	77.988	-167.2420
2850.000000	77.653	-169.0056
2900.000000	77.301	-170.5241
2950.000000	76.936	-171.6740
3000.000000	76.571	-172.4314
3040.000000	76.284	-172.7666
3070.000000	76.076	-172.8687
3110.000000	75.812	-172.8215
3150.000000	75.565	-172.5853
3200.000000	75.286	-172.0470
3250.000000	75.046	-171.3038
3300.000000	74.852	-170.4839
3350.000000	74.694	-169.7097
3400.000000	74.550	-169.0021
3450.000000	74.408	-168.2762
3500.000000	74.268	-167.4531
3550.000000	74.134	-166.5001
3600.000000	74.018	-165.4215
3650.000000	73.920	-164.2472
3700.000000	73.843	-162.9995
3750.000000	73.786	-161.6946
3820.000000	73.737	-159.7752
3870.000000	73.731	-158.3419
3950.000000	73.778	-155.9950
4000.000000	73.846	-154.5362
4060.000000	73.964	-152.8593
4120.000000	74.112	-151.3160
4180.000000	74.282	-149.8865
4250.000000	74.501	-148.3487
4310.000000	74.707	-147.1418
4370.000000	74.933	-146.0268
4440.000000	75.221	-144.8509
4500.000000	75.492	-143.9832
4550.000000	75.736	-143.3773
4620.000000	76.098	-142.7101
4680.000000	76.428	-142.3156
4750.000000	76.834	-142.1091
4820.000000	77.256	-142.2314
4870.000000	77.559	-142.5442
4940.000000	77.980	-143.3318
5000.000000	78.332	-144.3583
5080.000000	78.778	-146.2539
5150.000000	79.129	-148.3940
5220.000000	79.430	-150.9389
5300.000000	79.690	-154.2664
5380.000000	79.841	-157.8911
5450.000000	79.873	-161.1410
5520.000000	79.810	-164.2928
5600.000000	79.637	-167.5843
5700.000000	79.305	-171.0201
5800.000000	78.892	-173.5644
5900.000000	78.447	-175.2101
6000.000000	78.009	-176.0373
6080.000000	77.679	-176.1741
6150.000000	77.415	-175.9690
6220.000000	77.181	-175.5033
6300.000000	76.954	-174.6920
6400.000000	76.738	-173.3331
6500.000000	76.605	-171.7077
6600.000000	76.564	-169.9209
6700.000000	76.620	-168.0550
6800.000000	76.783	-166.1976
6900.000000	77.067	-164.4653
7000.000000	77.481	-163.0017
7100.000000	78.032	-161.9877
7200.000000	78.733	-161.6713
7300.000000	79.599	-162.4625
7400.000000	80.606	-165.1032
7500.000000	81.612	-170.5989
7620.000000	82.477	178.6104
7750.000000	82.678	163.6091
7880.000000	81.979	148.3630
8000.000000	80.613	137.3956
8120.000000	78.877	130.8370
8250.000000	76.956	127.8492
8380.000000	75.195	127.6087
8500.000000	73.743	128.9552
8620.000000	72.455	131.3604
8750.000000	71.230	134.7766
8850.000000	70.396	137.8073
9000.000000	69.308	142.8099
9120.000000	68.561	147.0789
9250.000000	67.865	151.8674
9380.000000	67.275	156.7856
9500.000000	66.816	161.4185
9620.000000	66.437	166.0942
9750.000000	66.111	171.1698
9880.000000	65.868	176.2413
10000.000000	65.714	-179.0928
10150.000000	65.618	-173.3288
10300.000000	65.619	-167.7204
10440.000000	65.708	-162.6490
10600.000000	65.909	-157.0890
10750.000000	66.192	-152.1846
10900.000000	66.568	-147.6652
11060.000000	67.051	-143.3837
11200.000000	67.533	-140.1585
11380.000000	68.220	-136.7956
11500.000000	68.711	-135.0904
11720.000000	69.643	-133.0696
11800.000000	69.985	-132.6887
12060.000000	71.086	-132.7666
12200.000000	71.669	-133.6713
12410.000000	72.498	-136.2224
12500.000000	72.816	-137.7428
12650.000000	73.260	-140.7588
12800.000000	73.569	-144.1650
13150.000000	73.735	-151.4278
13200.000000	73.710	-152.1671
13400.000000	73.581	-154.0354
13600.000000	73.550	-154.2665
13800.000000	73.792	-153.4133
14000.000000	74.372	-152.2999
14300.000000	75.855	-152.1841
14500.000000	77.169	-154.7499
14750.000000	78.816	-163.2071
15000.000000	79.841	-177.8569
15250.000000	79.865	165.6569
15500.000000	79.181	152.4097
15750.000000	78.426	142.4210
16000.000000	77.893	131.9514
16250.000000	77.219	118.0080
16500.000000	75.783	102.3603
16750.000000	73.360	90.6539
17000.000000	70.286	86.1599
17250.000000	67.090	88.0147
17500.000000	64.093	94.1211
17750.000000	61.424	102.9883
18000.000000	59.159	113.6757
18250.000000	57.325	125.6420
18500.000000	55.925	138.5423
18750.000000	54.989	151.9363
19000.000000	54.571	165.1940
19250.000000	54.697	177.4114
19500.000000	55.214	-172.2367
19750.000000	55.782	-164.6665
20000.000000	56.067	-160.9819
