* Measurement data measured by REW V5.20.5
* Source: Microphone(Cirrus Logic CS4208 (AB 126)), MICROPHONE (마스), L, volume: 0.850
* Format: 128k Log Swept Sine, 1 sweep at -12.0 dBFS with no timing reference
* Dated: 2022. 4. 10 오후 7:16:50
* REW Settings:
*  C-weighting compensation: Off
*  Target level: 75.0 dB
* Note: 
* Measurement: r
* Smoothing: 1/24 octave
* Frequency Step: 1/48 octave
* Start Frequency: 20.000 Hz
*
* Freq(Hz)	SPL(dB)	Phase(degrees)
20.299999	95.654	160.0345
20.600000	95.616	159.4818
20.900000	95.573	158.9357
21.200001	95.525	158.4133
21.400000	95.493	158.0834
21.799999	95.427	157.4651
22.000000	95.396	157.1712
22.400000	95.339	156.5924
22.700001	95.306	156.1460
23.000000	95.279	155.6752
23.299999	95.253	155.1830
23.600000	95.221	154.6833
24.000000	95.172	154.0355
24.299999	95.133	153.5824
24.700001	95.084	153.0238
25.000000	95.049	152.6234
25.400000	95.005	152.0869
25.799999	94.963	151.5337
26.200001	94.920	150.9804
26.500000	94.884	150.5833
26.900000	94.834	150.0868
27.200001	94.796	149.7292
27.600000	94.745	149.2442
28.000000	94.692	148.7229
28.500000	94.611	148.0295
29.000000	94.514	147.3624
29.500000	94.414	146.7848
30.000000	94.320	146.2869
30.400000	94.251	145.9021
30.700001	94.205	145.6020
31.100000	94.151	145.1816
31.500000	94.098	144.7507
32.000000	94.031	144.2261
32.500000	93.968	143.7281
33.000000	93.910	143.2371
33.500000	93.851	142.7328
34.000000	93.785	142.2266
34.500000	93.713	141.7558
35.000000	93.641	141.3432
35.500000	93.575	140.9722
36.000000	93.514	140.6028
36.500000	93.454	140.2113
37.000000	93.388	139.8064
37.500000	93.315	139.4086
38.200001	93.215	138.8698
38.700001	93.150	138.4845
39.500000	93.035	137.8791
40.000000	92.954	137.5303
40.599998	92.855	137.1397
41.200001	92.753	136.7544
41.799999	92.650	136.3633
42.500000	92.537	135.9057
43.099998	92.452	135.5175
43.700001	92.376	135.1419
44.400002	92.297	134.7272
45.000000	92.232	134.3811
45.500000	92.175	134.0983
46.200001	92.091	133.7332
46.799999	92.019	133.4496
47.500000	91.932	133.1372
48.200001	91.843	132.9149
48.700001	91.785	132.8398
49.400002	91.724	132.6970
50.000000	91.673	132.3379
50.799999	91.552	131.6123
51.500000	91.395	131.1495
52.200001	91.251	130.9443
53.000000	91.133	130.7223
53.799999	91.033	130.3872
54.500000	90.946	130.0928
55.200001	90.865	129.8156
56.000000	90.777	129.4982
57.000000	90.665	129.1080
58.000000	90.538	128.7345
59.000000	90.396	128.4036
60.000000	90.253	128.1122
60.799999	90.142	127.9108
61.500000	90.049	127.7630
62.200001	89.962	127.6282
63.000000	89.867	127.4586
64.000000	89.748	127.2371
65.000000	89.640	127.0867
66.000000	89.552	126.9022
67.000000	89.455	126.5877
68.000000	89.330	126.3137
69.000000	89.193	126.1537
70.000000	89.059	126.0165
71.000000	88.936	125.8287
72.000000	88.815	125.5871
73.000000	88.693	125.3789
74.000000	88.581	125.2489
75.000000	88.487	125.1573
76.199997	88.383	125.0619
77.500000	88.266	124.9675
78.800003	88.132	124.8414
80.000000	87.983	124.7563
81.199997	87.826	124.7708
82.500000	87.677	124.7652
83.800003	87.548	124.6583
85.000000	87.439	124.5862
86.199997	87.333	124.5392
87.500000	87.211	124.5386
88.500000	87.116	124.5353
90.000000	86.954	124.4938
91.199997	86.812	124.4974
92.500000	86.666	124.5697
93.800003	86.544	124.6399
95.000000	86.448	124.6813
96.199997	86.359	124.7035
97.500000	86.251	124.7195
98.800003	86.127	124.8206
100.000000	86.009	124.9713
101.500000	85.865	125.1294
103.000000	85.727	125.2813
104.400002	85.613	125.4683
106.000000	85.500	125.6457
107.500000	85.385	125.7646
109.000000	85.252	125.8653
110.599998	85.102	126.1155
112.000000	84.994	126.4283
113.800003	84.873	126.8176
115.000000	84.782	127.1090
117.199997	84.542	127.7756
118.000000	84.434	128.1512
120.599998	84.242	129.3875
122.000000	84.213	129.1605
124.099998	84.109	128.8817
125.000000	84.073	129.0246
126.500000	84.019	129.4355
128.000000	83.940	129.9638
131.500000	83.698	131.1148
132.000000	83.671	131.1997
134.000000	83.583	131.4140
136.000000	83.517	131.8232
138.000000	83.450	132.5932
140.000000	83.348	133.4001
143.000000	83.148	134.1756
145.000000	83.054	134.5416
147.500000	83.015	135.0734
150.000000	82.926	135.5186
152.500000	82.785	136.2278
155.000000	82.736	136.7902
157.500000	82.718	137.2234
160.000000	82.597	137.6751
162.500000	82.387	138.4445
165.000000	82.282	139.4384
167.500000	82.296	140.2285
170.000000	82.331	140.6072
172.500000	82.291	140.9936
175.000000	82.248	142.6205
177.500000	82.288	144.6532
180.000000	82.282	145.5234
182.500000	82.237	145.1303
185.000000	82.255	144.5283
187.500000	82.423	144.7338
190.000000	82.631	146.1718
192.500000	82.708	149.1239
195.000000	82.778	152.5741
197.500000	82.956	152.8450
200.000000	82.983	149.0114
203.000000	82.852	144.5229
206.000000	82.704	143.1506
209.000000	82.676	144.0618
212.000000	82.744	145.3952
214.000000	82.781	145.5422
218.000000	82.630	144.0585
220.000000	82.497	143.7304
224.000000	82.283	143.3315
227.000000	82.218	141.3445
230.000000	82.137	140.0757
233.000000	82.097	141.7735
236.000000	82.121	143.5130
240.000000	82.055	143.7536
243.000000	81.988	143.9392
247.000000	82.021	144.7617
250.000000	82.074	144.8223
254.000000	82.017	144.0104
258.000000	81.862	143.7504
262.000000	81.720	144.5954
265.000000	81.615	144.7151
269.000000	81.462	144.3024
272.000000	81.408	144.2855
276.000000	81.372	144.7299
280.000000	81.335	145.2230
285.000000	81.424	145.7104
290.000000	81.438	145.9074
295.000000	81.324	146.0128
300.000000	81.233	146.2609
304.000000	81.165	146.3724
307.000000	81.118	146.4730
311.000000	81.059	146.7294
315.000000	81.009	147.0146
320.000000	80.936	147.2072
325.000000	80.861	147.3455
330.000000	80.795	147.4892
335.000000	80.741	147.6663
340.000000	80.688	147.9026
345.000000	80.636	148.2397
350.000000	80.583	148.5445
355.000000	80.528	148.7895
360.000000	80.464	149.0653
365.000000	80.404	149.3593
370.000000	80.352	149.6059
375.000000	80.300	149.8279
382.000000	80.232	150.1821
387.000000	80.187	150.4674
395.000000	80.120	150.9252
400.000000	80.079	151.2049
406.000000	80.032	151.5045
412.000000	79.974	151.8130
418.000000	79.911	152.1110
425.000000	79.859	152.4339
431.000000	79.817	152.7372
437.000000	79.769	153.0799
444.000000	79.711	153.5115
450.000000	79.664	153.8519
455.000000	79.631	154.1164
462.000000	79.586	154.4927
468.000000	79.543	154.8268
475.000000	79.499	155.1938
482.000000	79.461	155.5529
487.000000	79.432	155.8232
494.000000	79.391	156.1944
500.000000	79.356	156.5057
508.000000	79.314	156.9415
515.000000	79.276	157.3429
522.000000	79.237	157.7237
530.000000	79.202	158.1744
538.000000	79.174	158.6269
545.000000	79.141	158.9959
552.000000	79.101	159.3591
560.000000	79.058	159.7950
570.000000	79.021	160.3508
580.000000	78.986	160.9085
590.000000	78.946	161.4507
600.000000	78.901	162.0001
608.000000	78.871	162.4439
615.000000	78.853	162.8379
622.000000	78.838	163.2242
630.000000	78.819	163.6670
640.000000	78.794	164.2442
650.000000	78.771	164.8095
660.000000	78.750	165.3657
670.000000	78.732	165.9299
680.000000	78.718	166.5032
690.000000	78.701	167.0794
700.000000	78.684	167.6402
710.000000	78.675	168.2102
720.000000	78.669	168.7871
730.000000	78.668	169.3608
740.000000	78.671	169.9144
750.000000	78.673	170.4785
762.000000	78.680	171.1799
775.000000	78.693	171.9242
788.000000	78.712	172.6485
800.000000	78.734	173.3051
812.000000	78.754	173.9597
825.000000	78.776	174.6472
838.000000	78.802	175.3484
850.000000	78.828	176.0394
862.000000	78.862	176.7552
875.000000	78.920	177.5233
885.000000	78.979	178.0688
900.000000	79.077	178.7471
912.000000	79.155	179.1740
925.000000	79.237	179.5445
938.000000	79.318	179.8338
950.000000	79.389	-179.9708
962.000000	79.450	-179.8332
975.000000	79.503	-179.7271
988.000000	79.538	-179.6051
1000.000000	79.561	-179.4361
1015.000000	79.589	-179.1423
1030.000000	79.623	-178.7740
1044.000000	79.656	-178.3803
1060.000000	79.700	-177.9067
1075.000000	79.750	-177.4673
1090.000000	79.813	-177.0573
1106.000000	79.893	-176.6625
1120.000000	79.968	-176.3500
1138.000000	80.065	-176.0017
1150.000000	80.127	-175.8053
1172.000000	80.236	-175.4939
1180.000000	80.272	-175.3983
1206.000000	80.376	-175.1519
1220.000000	80.421	-175.0428
1241.000000	80.476	-174.8966
1250.000000	80.501	-174.8424
1265.000000	80.556	-174.7598
1280.000000	80.638	-174.6806
1315.000000	80.911	-174.5237
1320.000000	80.952	-174.5015
1340.000000	81.110	-174.4163
1360.000000	81.248	-174.3266
1380.000000	81.355	-174.2261
1400.000000	81.436	-174.1199
1430.000000	81.537	-173.9656
1450.000000	81.602	-173.8554
1475.000000	81.689	-173.6962
1500.000000	81.783	-173.5401
1525.000000	81.874	-173.3883
1550.000000	81.966	-173.2175
1575.000000	82.064	-173.0464
1600.000000	82.167	-172.8750
1625.000000	82.272	-172.6992
1650.000000	82.379	-172.5211
1675.000000	82.487	-172.3475
1700.000000	82.601	-172.1776
1725.000000	82.723	-172.0108
1750.000000	82.846	-171.8529
1775.000000	82.968	-171.7065
1800.000000	83.093	-171.5734
1825.000000	83.223	-171.4590
1850.000000	83.359	-171.3597
1875.000000	83.497	-171.2731
1900.000000	83.637	-171.2068
1925.000000	83.780	-171.1636
1950.000000	83.926	-171.1408
1975.000000	84.075	-171.1454
2000.000000	84.227	-171.1809
2030.000000	84.414	-171.2578
2060.000000	84.603	-171.3778
2090.000000	84.794	-171.5454
2120.000000	84.988	-171.7580
2140.000000	85.119	-171.9287
2180.000000	85.385	-172.3470
2200.000000	85.520	-172.6012
2240.000000	85.792	-173.1985
2270.000000	85.997	-173.7260
2300.000000	86.203	-174.3266
2330.000000	86.410	-175.0067
2360.000000	86.619	-175.7716
2400.000000	86.898	-176.9319
2430.000000	87.106	-177.9160
2470.000000	87.378	-179.3952
2500.000000	87.576	179.3648
2540.000000	87.827	177.5352
2580.000000	88.055	175.5012
2620.000000	88.255	173.2634
2650.000000	88.386	171.4532
2690.000000	88.532	168.8846
2720.000000	88.613	166.8604
2760.000000	88.677	164.0724
2800.000000	88.688	161.2366
2850.000000	88.625	157.7290
2900.000000	88.481	154.3958
2950.000000	88.266	151.3676
3000.000000	87.999	148.7273
3040.000000	87.759	146.9116
3070.000000	87.569	145.7238
3110.000000	87.310	144.3611
3150.000000	87.050	143.2270
3200.000000	86.731	142.0823
3250.000000	86.423	141.1800
3300.000000	86.124	140.4789
3350.000000	85.836	139.9466
3400.000000	85.560	139.5620
3450.000000	85.295	139.3041
3500.000000	85.038	139.1528
3550.000000	84.789	139.0939
3600.000000	84.545	139.1233
3650.000000	84.303	139.2414
3700.000000	84.064	139.4615
3750.000000	83.832	139.7722
3820.000000	83.518	140.2921
3870.000000	83.302	140.7272
3950.000000	82.978	141.5391
4000.000000	82.788	142.1111
4060.000000	82.567	142.8604
4120.000000	82.343	143.6812
4180.000000	82.114	144.5719
4250.000000	81.840	145.6824
4310.000000	81.608	146.6870
4370.000000	81.388	147.7396
4440.000000	81.160	149.0223
4500.000000	80.989	150.1598
4550.000000	80.860	151.1385
4620.000000	80.693	152.5390
4680.000000	80.560	153.7615
4750.000000	80.409	155.2171
4820.000000	80.258	156.6817
4870.000000	80.150	157.7411
4940.000000	79.995	159.2623
5000.000000	79.860	160.6156
5080.000000	79.681	162.5189
5150.000000	79.536	164.2931
5220.000000	79.408	166.1429
5300.000000	79.276	168.2888
5380.000000	79.158	170.4337
5450.000000	79.068	172.3010
5520.000000	78.988	174.1473
5600.000000	78.905	176.2474
5700.000000	78.805	178.8762
5800.000000	78.713	-178.5100
5900.000000	78.641	-175.9097
6000.000000	78.592	-173.3043
6080.000000	78.574	-171.2128
6150.000000	78.574	-169.3693
6220.000000	78.583	-167.5011
6300.000000	78.600	-165.3221
6400.000000	78.634	-162.5251
6500.000000	78.695	-159.6529
6600.000000	78.791	-156.7074
6700.000000	78.929	-153.6919
6800.000000	79.124	-150.6056
6900.000000	79.390	-147.4834
7000.000000	79.736	-144.3949
7100.000000	80.175	-141.4305
7200.000000	80.730	-138.7318
7300.000000	81.416	-136.5032
7400.000000	82.229	-135.0120
7500.000000	83.129	-134.5921
7620.000000	84.232	-135.9840
7750.000000	85.279	-140.1698
7880.000000	85.958	-146.7966
8000.000000	86.154	-153.9671
8120.000000	85.977	-160.8092
8250.000000	85.507	-166.8635
8380.000000	84.908	-171.2211
8500.000000	84.356	-173.9015
8620.000000	83.855	-175.6193
8750.000000	83.381	-176.7516
8850.000000	83.085	-177.3127
9000.000000	82.776	-177.8750
9120.000000	82.611	-178.2080
9250.000000	82.509	-178.6152
9380.000000	82.484	-179.2405
9500.000000	82.514	179.8875
9620.000000	82.587	178.6595
9750.000000	82.708	176.7928
9880.000000	82.846	174.2243
10000.000000	82.961	171.1473
10150.000000	83.053	166.2921
10300.000000	83.035	160.3932
10440.000000	82.859	154.1835
10600.000000	82.394	146.7860
10750.000000	81.692	140.2801
10900.000000	80.787	134.7324
11060.000000	79.672	130.1561
11200.000000	78.626	127.3561
11380.000000	77.233	125.3130
11500.000000	76.296	124.8250
11720.000000	74.622	125.5195
11800.000000	74.036	126.2373
12060.000000	72.229	129.9788
12200.000000	71.333	132.7485
12410.000000	70.115	137.6189
12500.000000	69.638	139.9092
12650.000000	68.894	143.9574
12800.000000	68.215	148.2719
13150.000000	66.875	159.1473
13200.000000	66.698	160.7727
13400.000000	65.999	167.4156
13600.000000	65.326	174.3188
13800.000000	64.707	-178.6205
14000.000000	64.178	-171.4819
14300.000000	63.612	-160.4206
14500.000000	63.373	-152.8359
14750.000000	63.204	-143.2585
15000.000000	63.150	-133.6863
15250.000000	63.218	-124.2639
15500.000000	63.414	-115.1396
15750.000000	63.841	-106.5952
16000.000000	64.647	-99.0277
16250.000000	65.869	-93.0150
16500.000000	67.500	-89.6282
16750.000000	69.404	-91.2497
17000.000000	71.043	-101.0714
17250.000000	71.625	-119.0869
17500.000000	70.640	-138.1039
17750.000000	68.306	-149.2439
18000.000000	65.464	-151.6796
18250.000000	62.814	-148.8808
18500.000000	60.593	-143.3457
18750.000000	58.724	-136.5307
19000.000000	57.116	-129.0869
19250.000000	55.696	-121.4595
19500.000000	54.358	-113.8545
19750.000000	52.988	-106.2371
20000.000000	51.951	-100.8241
