* Measurement data measured by REW V5.20.13
* Source: Input device not selected, no input selected, L, volume: no control
* Format: 256k Log Swept Sine, 1 sweep at -12.0 dBFS with no timing reference
* Dated: 2022. 10. 1 ¿ÀÈÄ 7:31:22
* REW Settings:
*  C-weighting compensation: Off
*  Target level: 75.0 dB
* Note: 
* Measurement: L
* Smoothing: 1/24 octave
* Frequency Step: 1/48 octave
* Start Frequency: 20.300 Hz
*
* Freq(Hz)	SPL(dB)	Phase(degrees)
20.299999	78.236	-133.7635
20.600000	78.283	-134.1549
20.900000	78.371	-134.8785
21.200001	78.435	-135.6255
21.400000	78.464	-136.1171
21.799999	78.495	-137.0597
22.000000	78.503	-137.4923
22.400000	78.513	-138.2386
22.700001	78.526	-138.7024
23.000000	78.552	-139.1271
23.299999	78.592	-139.5709
23.600000	78.643	-140.0801
24.000000	78.714	-140.8989
24.299999	78.759	-141.5967
24.700001	78.798	-142.5472
25.000000	78.813	-143.1922
25.400000	78.826	-143.8879
25.799999	78.852	-144.4122
26.200001	78.901	-144.8826
26.500000	78.948	-145.2820
26.900000	79.010	-145.9220
27.200001	79.045	-146.4540
27.600000	79.069	-147.1383
28.000000	79.078	-147.6850
28.500000	79.096	-148.1485
29.000000	79.147	-148.5561
29.500000	79.219	-149.1409
30.000000	79.280	-149.9615
30.400000	79.303	-150.6886
30.700001	79.306	-151.2063
31.100000	79.300	-151.7994
31.500000	79.295	-152.2708
32.000000	79.305	-152.7477
32.500000	79.337	-153.2127
33.000000	79.383	-153.7609
33.500000	79.426	-154.4057
34.000000	79.456	-155.0853
34.500000	79.470	-155.7122
35.000000	79.475	-156.2334
35.500000	79.479	-156.6385
36.000000	79.490	-156.9432
36.500000	79.514	-157.1866
37.000000	79.557	-157.4588
37.500000	79.610	-157.8697
38.200001	79.661	-158.7295
38.700001	79.661	-159.3917
39.500000	79.631	-160.1439
40.000000	79.630	-160.4738
40.599998	79.653	-160.9658
41.200001	79.670	-161.6516
41.799999	79.660	-162.3760
42.500000	79.627	-163.0390
43.099998	79.605	-163.4221
43.700001	79.604	-163.7260
44.400002	79.626	-164.1179
45.000000	79.650	-164.5441
45.500000	79.665	-164.9295
46.200001	79.680	-165.4456
46.799999	79.696	-165.8873
47.500000	79.710	-166.4708
48.200001	79.706	-167.0425
48.700001	79.698	-167.3636
49.400002	79.702	-167.7226
50.000000	79.722	-168.0817
50.799999	79.742	-168.7274
51.500000	79.735	-169.3210
52.200001	79.713	-169.7931
53.000000	79.695	-170.1928
53.799999	79.692	-170.5976
54.500000	79.687	-171.0063
55.200001	79.673	-171.4025
56.000000	79.656	-171.7944
57.000000	79.646	-172.2738
58.000000	79.636	-172.7854
59.000000	79.628	-173.3125
60.000000	79.613	-173.8692
60.799999	79.592	-174.2691
61.500000	79.576	-174.5475
62.200001	79.570	-174.8013
63.000000	79.573	-175.1440
64.000000	79.572	-175.6558
65.000000	79.563	-176.1520
66.000000	79.555	-176.6210
67.000000	79.548	-177.0902
68.000000	79.540	-177.5625
69.000000	79.527	-178.0358
70.000000	79.507	-178.5052
71.000000	79.478	-178.9439
72.000000	79.448	-179.2996
73.000000	79.431	-179.6243
74.000000	79.421	179.9729
75.000000	79.400	179.5458
76.199997	79.372	179.1303
77.500000	79.351	178.7710
78.800003	79.341	178.4377
80.000000	79.331	178.0760
81.199997	79.311	177.7068
82.500000	79.279	177.3210
83.800003	79.245	176.9355
85.000000	79.209	176.5491
86.199997	79.174	176.1948
87.500000	79.146	175.7914
88.500000	79.125	175.4689
90.000000	79.100	175.0416
91.199997	79.084	174.6685
92.500000	79.047	174.2827
93.800003	79.002	174.0422
95.000000	78.971	173.8317
96.199997	78.938	173.5252
97.500000	78.900	173.1903
98.800003	78.878	172.8058
100.000000	78.861	172.3557
101.500000	78.826	171.8444
103.000000	78.791	171.5050
104.400002	78.760	171.2739
106.000000	78.725	171.0295
107.500000	78.687	170.7234
109.000000	78.642	170.3513
110.599998	78.594	169.9310
112.000000	78.553	169.5839
113.800003	78.496	169.1819
115.000000	78.449	168.9829
117.199997	78.360	168.6516
118.000000	78.321	168.5152
120.599998	78.225	168.2762
122.000000	78.208	167.9789
124.099998	78.156	167.4570
125.000000	78.127	167.2990
126.500000	78.079	167.0766
128.000000	78.026	166.8447
131.500000	77.883	166.2568
132.000000	77.861	166.1726
134.000000	77.763	165.9106
136.000000	77.665	165.8076
138.000000	77.578	165.7411
140.000000	77.487	165.6738
143.000000	77.342	165.8329
145.000000	77.249	166.1293
147.500000	77.140	166.5892
150.000000	77.051	167.0673
152.500000	76.995	167.6317
155.000000	76.979	168.3187
157.500000	76.989	169.0558
160.000000	77.034	169.6649
162.500000	77.111	169.9969
165.000000	77.215	169.9770
167.500000	77.314	169.6180
170.000000	77.386	169.0610
172.500000	77.415	168.4765
175.000000	77.421	167.9606
177.500000	77.415	167.4099
180.000000	77.389	166.8876
182.500000	77.350	166.4539
185.000000	77.295	166.0149
187.500000	77.230	165.6267
190.000000	77.183	165.3094
192.500000	77.148	164.9862
195.000000	77.099	164.6648
197.500000	77.038	164.3947
200.000000	76.982	164.1846
203.000000	76.919	164.0015
206.000000	76.849	163.8650
209.000000	76.778	163.7051
212.000000	76.715	163.5261
214.000000	76.673	163.4102
218.000000	76.580	163.2065
220.000000	76.533	163.1394
224.000000	76.445	163.0759
227.000000	76.381	162.9926
230.000000	76.319	162.8687
233.000000	76.261	162.7581
236.000000	76.204	162.6813
240.000000	76.127	162.6075
243.000000	76.070	162.5745
247.000000	75.990	162.5945
250.000000	75.926	162.6134
254.000000	75.855	162.5474
258.000000	75.792	162.4828
262.000000	75.719	162.5388
265.000000	75.662	162.5860
269.000000	75.586	162.5925
272.000000	75.529	162.6230
276.000000	75.460	162.7000
280.000000	75.392	162.7890
285.000000	75.311	162.8782
290.000000	75.231	162.9475
295.000000	75.153	163.0834
300.000000	75.076	163.1936
304.000000	75.009	163.2554
307.000000	74.958	163.3507
311.000000	74.896	163.5165
315.000000	74.832	163.6556
320.000000	74.752	163.8038
325.000000	74.688	163.9527
330.000000	74.618	164.1707
335.000000	74.543	164.4061
340.000000	74.471	164.5943
345.000000	74.397	164.8411
350.000000	74.329	165.0935
355.000000	74.269	165.2918
360.000000	74.212	165.5173
365.000000	74.155	165.7828
370.000000	74.096	166.0485
375.000000	74.034	166.3413
382.000000	73.951	166.7208
387.000000	73.900	166.9745
395.000000	73.816	167.3465
400.000000	73.760	167.6010
406.000000	73.704	167.9232
412.000000	73.653	168.2336
418.000000	73.593	168.5402
425.000000	73.521	168.9401
431.000000	73.462	169.3025
437.000000	73.406	169.6000
444.000000	73.349	169.9061
450.000000	73.299	170.2370
455.000000	73.256	170.5573
462.000000	73.194	170.9996
468.000000	73.140	171.3232
475.000000	73.083	171.6597
482.000000	73.029	172.0777
487.000000	72.986	172.4265
494.000000	72.933	172.9170
500.000000	72.896	173.3058
508.000000	72.843	173.8019
515.000000	72.795	174.1845
522.000000	72.744	174.5712
530.000000	72.680	175.0626
538.000000	72.624	175.6442
545.000000	72.577	176.1726
552.000000	72.539	176.6862
560.000000	72.503	177.2720
570.000000	72.463	177.9034
580.000000	72.427	178.5392
590.000000	72.384	179.1134
600.000000	72.335	179.6676
608.000000	72.292	-179.9006
615.000000	72.251	-179.5478
622.000000	72.200	-179.1264
630.000000	72.130	-178.4715
640.000000	72.059	-177.5346
650.000000	72.012	-176.5869
660.000000	71.974	-175.6457
670.000000	71.939	-174.7744
680.000000	71.915	-173.9124
690.000000	71.894	-173.0723
700.000000	71.879	-172.2723
710.000000	71.870	-171.5227
720.000000	71.864	-170.7472
730.000000	71.860	-169.9147
740.000000	71.853	-169.1277
750.000000	71.843	-168.3721
762.000000	71.842	-167.4150
775.000000	71.852	-166.3509
788.000000	71.864	-165.2471
800.000000	71.877	-164.2574
812.000000	71.898	-163.3202
825.000000	71.928	-162.2842
838.000000	71.968	-161.2681
850.000000	72.011	-160.3151
862.000000	72.050	-159.3323
875.000000	72.096	-158.3010
885.000000	72.136	-157.5255
900.000000	72.206	-156.3455
912.000000	72.265	-155.4280
925.000000	72.338	-154.4605
938.000000	72.423	-153.5054
950.000000	72.504	-152.6624
962.000000	72.579	-151.8457
975.000000	72.670	-150.9393
988.000000	72.788	-149.9535
1000.000000	72.898	-149.0849
1015.000000	73.011	-148.3104
1030.000000	73.130	-147.5532
1044.000000	73.255	-146.8444
1060.000000	73.405	-146.0162
1075.000000	73.548	-145.2658
1090.000000	73.693	-144.5918
1106.000000	73.859	-143.9431
1120.000000	74.009	-143.4205
1138.000000	74.203	-142.8614
1150.000000	74.333	-142.5179
1172.000000	74.577	-141.9054
1180.000000	74.665	-141.7248
1206.000000	74.955	-141.3298
1220.000000	75.110	-141.2031
1241.000000	75.338	-141.1263
1250.000000	75.434	-141.1356
1265.000000	75.591	-141.1855
1280.000000	75.744	-141.2878
1315.000000	76.070	-141.7589
1320.000000	76.112	-141.8490
1340.000000	76.272	-142.2590
1360.000000	76.421	-142.7473
1380.000000	76.559	-143.2532
1400.000000	76.684	-143.7751
1430.000000	76.848	-144.5392
1450.000000	76.935	-145.0155
1475.000000	77.029	-145.6032
1500.000000	77.114	-146.1581
1525.000000	77.194	-146.6618
1550.000000	77.265	-147.1097
1575.000000	77.326	-147.5399
1600.000000	77.380	-147.9193
1625.000000	77.434	-148.2593
1650.000000	77.485	-148.5693
1675.000000	77.534	-148.8712
1700.000000	77.581	-149.1515
1725.000000	77.625	-149.3751
1750.000000	77.669	-149.5862
1775.000000	77.714	-149.8069
1800.000000	77.761	-150.0238
1825.000000	77.806	-150.2302
1850.000000	77.851	-150.4285
1875.000000	77.897	-150.6229
1900.000000	77.940	-150.8077
1925.000000	77.980	-150.9926
1950.000000	78.020	-151.1786
1975.000000	78.060	-151.3642
2000.000000	78.099	-151.5559
2030.000000	78.145	-151.7892
2060.000000	78.192	-152.0191
2090.000000	78.239	-152.2507
2120.000000	78.285	-152.4753
2140.000000	78.315	-152.6273
2180.000000	78.373	-152.9477
2200.000000	78.403	-153.1015
2240.000000	78.458	-153.4230
2270.000000	78.495	-153.6791
2300.000000	78.532	-153.9374
2330.000000	78.570	-154.1922
2360.000000	78.608	-154.4357
2400.000000	78.651	-154.7627
2430.000000	78.681	-155.0214
2470.000000	78.721	-155.3840
2500.000000	78.749	-155.6530
2540.000000	78.782	-156.0078
2580.000000	78.814	-156.3523
2620.000000	78.840	-156.7036
2650.000000	78.859	-156.9634
2690.000000	78.883	-157.3106
2720.000000	78.900	-157.5782
2760.000000	78.920	-157.9225
2800.000000	78.939	-158.2539
2850.000000	78.960	-158.6809
2900.000000	78.976	-159.0880
2950.000000	78.992	-159.5028
3000.000000	79.007	-159.9172
3040.000000	79.012	-160.2316
3070.000000	79.015	-160.4658
3110.000000	79.018	-160.7790
3150.000000	79.020	-161.0892
3200.000000	79.020	-161.4718
3250.000000	79.018	-161.8448
3300.000000	79.014	-162.2184
3350.000000	79.008	-162.5975
3400.000000	79.000	-162.9586
3450.000000	78.989	-163.3049
3500.000000	78.975	-163.6321
3550.000000	78.962	-163.9561
3600.000000	78.947	-164.2839
3650.000000	78.927	-164.6145
3700.000000	78.905	-164.9436
3750.000000	78.881	-165.2569
3820.000000	78.846	-165.6734
3870.000000	78.818	-165.9609
3950.000000	78.769	-166.3930
4000.000000	78.736	-166.6498
4060.000000	78.695	-166.9434
4120.000000	78.651	-167.2242
4180.000000	78.605	-167.4828
4250.000000	78.550	-167.7458
4310.000000	78.502	-167.9777
4370.000000	78.450	-168.2016
4440.000000	78.386	-168.4036
4500.000000	78.330	-168.5495
4550.000000	78.282	-168.6617
4620.000000	78.216	-168.7707
4680.000000	78.160	-168.8335
4750.000000	78.093	-168.8908
4820.000000	78.024	-168.9161
4870.000000	77.976	-168.9160
4940.000000	77.907	-168.8697
5000.000000	77.850	-168.7918
5080.000000	77.775	-168.6377
5150.000000	77.713	-168.4567
5220.000000	77.653	-168.2480
5300.000000	77.589	-167.9470
5380.000000	77.540	-167.5432
5450.000000	77.512	-167.1761
5520.000000	77.491	-166.8419
5600.000000	77.468	-166.4627
5700.000000	77.447	-165.9415
5800.000000	77.437	-165.3867
5900.000000	77.447	-164.8278
6000.000000	77.475	-164.2442
6080.000000	77.510	-163.7676
6150.000000	77.553	-163.3617
6220.000000	77.605	-162.9734
6300.000000	77.677	-162.5561
6400.000000	77.786	-162.0781
6500.000000	77.921	-161.6579
6600.000000	78.080	-161.3213
6700.000000	78.267	-161.1015
6800.000000	78.479	-161.0182
6900.000000	78.719	-161.1060
7000.000000	78.983	-161.3900
7100.000000	79.277	-161.9074
7200.000000	79.602	-162.6956
7300.000000	79.962	-163.8178
7400.000000	80.356	-165.3890
7500.000000	80.782	-167.5320
7620.000000	81.323	-171.0926
7750.000000	81.897	-176.5805
7880.000000	82.339	175.7993
8000.000000	82.484	166.9448
8120.000000	82.251	157.1325
8250.000000	81.521	146.9602
8380.000000	80.380	138.7239
8500.000000	79.108	133.4180
8620.000000	77.761	130.2245
8750.000000	76.327	128.7041
8850.000000	75.282	128.5632
9000.000000	73.832	129.5792
9120.000000	72.780	131.1847
9250.000000	71.742	133.4960
9380.000000	70.801	136.2451
9500.000000	70.012	139.0603
9620.000000	69.290	142.0743
9750.000000	68.574	145.5239
9880.000000	67.920	149.1379
10000.000000	67.368	152.6059
10150.000000	66.747	157.0725
10300.000000	66.189	161.6908
10440.000000	65.718	166.1070
10600.000000	65.232	171.3474
10750.000000	64.828	176.4783
10900.000000	64.477	-178.1654
11060.000000	64.160	-172.0684
11200.000000	63.941	-166.1794
11380.000000	63.820	-157.7280
11500.000000	63.905	-151.6004
11720.000000	64.601	-140.2255
11800.000000	65.041	-136.5722
12060.000000	66.820	-128.9813
12200.000000	67.730	-127.7590
12410.000000	68.807	-128.1342
12500.000000	69.177	-128.5954
12650.000000	69.723	-129.3573
12800.000000	70.233	-130.0378
13150.000000	71.459	-132.0915
13200.000000	71.641	-132.5427
13400.000000	72.369	-134.9973
13600.000000	73.047	-138.6350
13800.000000	73.608	-143.3645
14000.000000	73.995	-148.7736
14300.000000	74.234	-156.7949
14500.000000	74.282	-161.2975
14750.000000	74.431	-165.9655
15000.000000	74.895	-170.4765
15250.000000	75.855	-177.0771
15500.000000	77.124	169.9980
15750.000000	77.777	146.8111
16000.000000	76.746	118.5838
16250.000000	73.930	97.8828
16500.000000	70.205	88.4014
16750.000000	66.525	86.1799
17000.000000	63.301	87.5988
17250.000000	60.529	90.8206
17500.000000	58.112	95.2122
17750.000000	55.969	100.2357
18000.000000	54.019	105.6035
18250.000000	52.214	111.3142
18500.000000	50.516	117.1125
18750.000000	48.894	122.9157
19000.000000	47.288	129.0497
19250.000000	45.628	135.6847
19500.000000	43.898	143.7605
19750.000000	42.132	154.5097
20000.000000	40.796	163.8703
