* Measurement data measured by REW V5.20.13
* Source: EXCL: Mic in at rear panel (Pink)(Realtek(R) Audio), MICROPHONE (마스), L, volume: 1.000
* Format: 256k Log Swept Sine, 1 sweep at -12.0 dBFS with no timing reference
* Dated: 2023. 1. 7 오전 11:37:23
* REW Settings:
*  C-weighting compensation: Off
*  Target level: 75.0 dB
* Note: 
* Measurement: L_Brown Damper
* Smoothing: 1/24 octave
* Frequency Step: 1/48 octave
* Start Frequency: 20.300 Hz
*
* Freq(Hz)	SPL(dB)	Phase(degrees)
20.299999	96.637	-20.9729
20.600000	96.642	-21.1789
20.900000	96.649	-21.5506
21.200001	96.650	-21.9155
21.400000	96.647	-22.1575
21.799999	96.634	-22.6556
22.000000	96.625	-22.9149
22.400000	96.603	-23.4456
22.700001	96.585	-23.8537
23.000000	96.569	-24.2761
23.299999	96.553	-24.7157
23.600000	96.539	-25.1716
24.000000	96.524	-25.7990
24.299999	96.515	-26.2763
24.700001	96.504	-26.9114
25.000000	96.495	-27.3800
25.400000	96.484	-27.9873
25.799999	96.473	-28.5686
26.200001	96.465	-29.1228
26.500000	96.460	-29.5230
26.900000	96.452	-30.0412
27.200001	96.444	-30.4230
27.600000	96.431	-30.9276
28.000000	96.413	-31.4255
28.500000	96.385	-32.0280
29.000000	96.352	-32.6041
29.500000	96.317	-33.1705
30.000000	96.284	-33.7562
30.400000	96.257	-34.2503
30.700001	96.236	-34.6341
31.100000	96.206	-35.1540
31.500000	96.174	-35.6716
32.000000	96.136	-36.3046
32.500000	96.102	-36.9280
33.000000	96.072	-37.5575
33.500000	96.048	-38.1932
34.000000	96.027	-38.8170
34.500000	96.009	-39.4226
35.000000	95.990	-40.0219
35.500000	95.970	-40.6195
36.000000	95.947	-41.1999
36.500000	95.921	-41.7476
37.000000	95.895	-42.2660
37.500000	95.869	-42.7756
38.200001	95.828	-43.5096
38.700001	95.791	-44.0482
39.500000	95.724	-44.8917
40.000000	95.683	-45.4029
40.599998	95.637	-46.0178
41.200001	95.594	-46.6446
41.799999	95.556	-47.2906
42.500000	95.518	-48.0976
43.099998	95.480	-48.8089
43.700001	95.437	-49.4301
44.400002	95.408	-50.0437
45.000000	95.405	-50.6915
45.500000	95.388	-51.3857
46.200001	95.310	-52.2419
46.799999	95.240	-52.5194
47.500000	95.251	-52.6993
48.200001	95.311	-53.5603
48.700001	95.298	-54.5346
49.400002	95.175	-55.5797
50.000000	95.066	-55.8265
50.799999	95.032	-55.9467
51.500000	95.046	-56.5396
52.200001	95.016	-57.3961
53.000000	94.938	-58.2090
53.799999	94.865	-58.8151
54.500000	94.815	-59.3235
55.200001	94.773	-59.8712
56.000000	94.724	-60.5261
57.000000	94.666	-61.3545
58.000000	94.609	-62.2244
59.000000	94.549	-63.0798
60.000000	94.485	-63.9212
60.799999	94.429	-64.5375
61.500000	94.390	-65.0072
62.200001	94.366	-65.5183
63.000000	94.334	-66.2470
64.000000	94.258	-67.1468
65.000000	94.182	-67.8182
66.000000	94.136	-68.5288
67.000000	94.083	-69.3554
68.000000	94.019	-70.0932
69.000000	93.967	-70.7968
70.000000	93.911	-71.5384
71.000000	93.848	-72.2048
72.000000	93.795	-72.8051
73.000000	93.752	-73.4686
74.000000	93.701	-74.1959
75.000000	93.642	-74.9103
76.199997	93.571	-75.7288
77.500000	93.501	-76.5965
78.800003	93.437	-77.4676
80.000000	93.381	-78.2546
81.199997	93.324	-79.0362
82.500000	93.260	-79.8816
83.800003	93.187	-80.6899
85.000000	93.119	-81.3394
86.199997	93.061	-81.9501
87.500000	93.010	-82.6273
88.500000	92.976	-83.1871
90.000000	92.924	-84.1590
91.199997	92.862	-84.9872
92.500000	92.779	-85.7410
93.800003	92.714	-86.3511
95.000000	92.673	-86.9669
96.199997	92.633	-87.6645
97.500000	92.585	-88.4308
98.800003	92.534	-89.1705
100.000000	92.482	-89.8164
101.500000	92.411	-90.5463
103.000000	92.345	-91.2516
104.400002	92.292	-91.9666
106.000000	92.232	-92.8348
107.500000	92.176	-93.6101
109.000000	92.122	-94.3279
110.599998	92.059	-95.0407
112.000000	92.001	-95.6760
113.800003	91.933	-96.5601
115.000000	91.902	-97.1598
117.199997	91.897	-98.1865
118.000000	91.910	-98.5598
120.599998	91.871	-100.0372
122.000000	91.765	-100.5117
124.099998	91.626	-101.0312
125.000000	91.579	-101.3404
126.500000	91.514	-101.9711
128.000000	91.465	-102.6481
131.500000	91.381	-104.0960
132.000000	91.367	-104.2972
134.000000	91.299	-105.0794
136.000000	91.233	-105.8216
138.000000	91.178	-106.5737
140.000000	91.125	-107.3094
143.000000	91.041	-108.3966
145.000000	90.981	-109.1202
147.500000	90.910	-109.9862
150.000000	90.848	-110.8379
152.500000	90.783	-111.6775
155.000000	90.720	-112.4591
157.500000	90.660	-113.2189
160.000000	90.597	-113.9795
162.500000	90.535	-114.7383
165.000000	90.477	-115.4569
167.500000	90.426	-116.1360
170.000000	90.376	-116.8006
172.500000	90.323	-117.4245
175.000000	90.271	-117.9903
177.500000	90.226	-118.5108
180.000000	90.190	-119.0272
182.500000	90.163	-119.5742
185.000000	90.145	-120.1488
187.500000	90.131	-120.7532
190.000000	90.116	-121.3816
192.500000	90.099	-122.0285
195.000000	90.084	-122.7187
197.500000	90.067	-123.4676
200.000000	90.045	-124.2135
203.000000	90.015	-125.0721
206.000000	89.979	-125.8853
209.000000	89.939	-126.6735
212.000000	89.898	-127.4671
214.000000	89.869	-127.9902
218.000000	89.812	-128.9921
220.000000	89.783	-129.4753
224.000000	89.727	-130.3995
227.000000	89.689	-131.0719
230.000000	89.649	-131.7275
233.000000	89.608	-132.3576
236.000000	89.568	-132.9728
240.000000	89.513	-133.7606
243.000000	89.472	-134.3212
247.000000	89.420	-135.0486
250.000000	89.383	-135.6014
254.000000	89.335	-136.3179
258.000000	89.288	-136.9907
262.000000	89.243	-137.6503
265.000000	89.212	-138.1522
269.000000	89.168	-138.8193
272.000000	89.136	-139.3023
276.000000	89.097	-139.9090
280.000000	89.061	-140.4981
285.000000	89.017	-141.2321
290.000000	88.978	-141.9357
295.000000	88.941	-142.6286
300.000000	88.900	-143.2988
304.000000	88.866	-143.8426
307.000000	88.843	-144.2433
311.000000	88.815	-144.7582
315.000000	88.788	-145.2530
320.000000	88.754	-145.8541
325.000000	88.717	-146.4311
330.000000	88.679	-146.9764
335.000000	88.645	-147.5217
340.000000	88.609	-148.0651
345.000000	88.569	-148.6167
350.000000	88.528	-149.1586
355.000000	88.486	-149.6619
360.000000	88.444	-150.1192
365.000000	88.407	-150.5685
370.000000	88.370	-151.0075
375.000000	88.330	-151.4140
382.000000	88.272	-151.9453
387.000000	88.232	-152.3005
395.000000	88.171	-152.8258
400.000000	88.138	-153.1105
406.000000	88.104	-153.4285
412.000000	88.080	-153.7801
418.000000	88.065	-154.1568
425.000000	88.050	-154.6510
431.000000	88.030	-155.1110
437.000000	88.006	-155.5683
444.000000	87.971	-156.0945
450.000000	87.939	-156.5194
455.000000	87.913	-156.8554
462.000000	87.871	-157.2971
468.000000	87.837	-157.6368
475.000000	87.800	-158.0159
482.000000	87.761	-158.3854
487.000000	87.732	-158.6431
494.000000	87.692	-158.9841
500.000000	87.659	-159.2550
508.000000	87.618	-159.5705
515.000000	87.582	-159.8226
522.000000	87.549	-160.0823
530.000000	87.513	-160.3634
538.000000	87.478	-160.6155
545.000000	87.444	-160.8224
552.000000	87.407	-161.0204
560.000000	87.368	-161.2339
570.000000	87.329	-161.4688
580.000000	87.289	-161.6861
590.000000	87.245	-161.8819
600.000000	87.207	-162.0588
608.000000	87.177	-162.1833
615.000000	87.151	-162.2814
622.000000	87.125	-162.3614
630.000000	87.098	-162.4290
640.000000	87.064	-162.5090
650.000000	87.030	-162.5859
660.000000	86.998	-162.6691
670.000000	86.969	-162.7229
680.000000	86.941	-162.7385
690.000000	86.915	-162.7491
700.000000	86.888	-162.7510
710.000000	86.864	-162.7267
720.000000	86.844	-162.7122
730.000000	86.828	-162.7042
740.000000	86.813	-162.6735
750.000000	86.800	-162.6297
762.000000	86.788	-162.5764
775.000000	86.773	-162.5376
788.000000	86.759	-162.5006
800.000000	86.749	-162.4611
812.000000	86.742	-162.4383
825.000000	86.733	-162.4188
838.000000	86.721	-162.3864
850.000000	86.712	-162.3386
862.000000	86.703	-162.2663
875.000000	86.695	-162.1736
885.000000	86.689	-162.0830
900.000000	86.685	-161.9403
912.000000	86.685	-161.8131
925.000000	86.685	-161.6477
938.000000	86.691	-161.4756
950.000000	86.703	-161.3110
962.000000	86.720	-161.1487
975.000000	86.745	-160.9916
988.000000	86.782	-160.8663
1000.000000	86.817	-160.7543
1015.000000	86.849	-160.6483
1030.000000	86.888	-160.5836
1044.000000	86.930	-160.5480
1060.000000	86.981	-160.5363
1075.000000	87.023	-160.5518
1090.000000	87.066	-160.5968
1106.000000	87.123	-160.6727
1120.000000	87.175	-160.7758
1138.000000	87.237	-160.9622
1150.000000	87.277	-161.0958
1172.000000	87.343	-161.3770
1180.000000	87.365	-161.4806
1206.000000	87.430	-161.8263
1220.000000	87.462	-162.0231
1241.000000	87.509	-162.3045
1250.000000	87.526	-162.4247
1265.000000	87.551	-162.6218
1280.000000	87.577	-162.8120
1315.000000	87.627	-163.2250
1320.000000	87.632	-163.2832
1340.000000	87.653	-163.5057
1360.000000	87.669	-163.6875
1380.000000	87.681	-163.8476
1400.000000	87.697	-164.0067
1430.000000	87.726	-164.1878
1450.000000	87.743	-164.2738
1475.000000	87.762	-164.3957
1500.000000	87.782	-164.4987
1525.000000	87.803	-164.5623
1550.000000	87.826	-164.5980
1575.000000	87.850	-164.6114
1600.000000	87.874	-164.6152
1625.000000	87.900	-164.5988
1650.000000	87.929	-164.5535
1675.000000	87.959	-164.5068
1700.000000	87.990	-164.4563
1725.000000	88.022	-164.3866
1750.000000	88.054	-164.3063
1775.000000	88.087	-164.2241
1800.000000	88.123	-164.1313
1825.000000	88.159	-164.0298
1850.000000	88.196	-163.9369
1875.000000	88.238	-163.8460
1900.000000	88.282	-163.7444
1925.000000	88.328	-163.6397
1950.000000	88.374	-163.5352
1975.000000	88.419	-163.4354
2000.000000	88.468	-163.3307
2030.000000	88.528	-163.1897
2060.000000	88.591	-163.0544
2090.000000	88.658	-162.9212
2120.000000	88.723	-162.7790
2140.000000	88.768	-162.6793
2180.000000	88.865	-162.4897
2200.000000	88.913	-162.4000
2240.000000	89.012	-162.2167
2270.000000	89.089	-162.0914
2300.000000	89.169	-161.9623
2330.000000	89.251	-161.8239
2360.000000	89.334	-161.6883
2400.000000	89.452	-161.5102
2430.000000	89.545	-161.3810
2470.000000	89.676	-161.2114
2500.000000	89.778	-161.0875
2540.000000	89.919	-160.9468
2580.000000	90.067	-160.8210
2620.000000	90.220	-160.7039
2650.000000	90.340	-160.6252
2690.000000	90.508	-160.5423
2720.000000	90.639	-160.5020
2760.000000	90.820	-160.4644
2800.000000	91.009	-160.4612
2850.000000	91.256	-160.5099
2900.000000	91.518	-160.6325
2950.000000	91.797	-160.8459
3000.000000	92.096	-161.1503
3040.000000	92.352	-161.4869
3070.000000	92.554	-161.8238
3110.000000	92.836	-162.4048
3150.000000	93.128	-163.1524
3200.000000	93.501	-164.3721
3250.000000	93.870	-165.9498
3300.000000	94.229	-167.8811
3350.000000	94.567	-170.1620
3400.000000	94.874	-172.7887
3450.000000	95.144	-175.7440
3500.000000	95.365	-178.9900
3550.000000	95.524	177.5410
3600.000000	95.610	173.9323
3650.000000	95.619	170.3004
3700.000000	95.552	166.7654
3750.000000	95.414	163.4192
3820.000000	95.120	159.2088
3870.000000	94.853	156.6191
3950.000000	94.362	153.2513
4000.000000	94.034	151.6318
4060.000000	93.639	150.1491
4120.000000	93.253	149.0930
4180.000000	92.887	148.4037
4250.000000	92.495	147.9948
4310.000000	92.188	147.9106
4370.000000	91.908	148.0102
4440.000000	91.619	148.2708
4500.000000	91.405	148.5551
4550.000000	91.252	148.7996
4620.000000	91.075	149.0944
4680.000000	90.954	149.2508
4750.000000	90.837	149.2563
4820.000000	90.738	148.9986
4870.000000	90.667	148.6261
4940.000000	90.554	147.8184
5000.000000	90.430	146.8664
5080.000000	90.197	145.3231
5150.000000	89.910	143.8612
5220.000000	89.536	142.5114
5300.000000	89.006	141.4036
5380.000000	88.395	141.0206
5450.000000	87.829	141.3718
5520.000000	87.265	142.3508
5600.000000	86.654	144.1523
5700.000000	85.970	147.1944
5800.000000	85.385	150.8680
5900.000000	84.908	154.9696
6000.000000	84.538	159.2938
6080.000000	84.313	162.7977
6150.000000	84.164	165.8425
6220.000000	84.046	168.8201
6300.000000	83.929	172.1458
6400.000000	83.785	176.3458
6500.000000	83.651	-179.0988
6600.000000	83.574	-173.9080
6700.000000	83.620	-168.1013
6800.000000	83.847	-161.9789
6900.000000	84.287	-155.9149
7000.000000	84.932	-150.2695
7100.000000	85.750	-145.3099
7200.000000	86.718	-141.2566
7300.000000	87.803	-138.3796
7400.000000	88.962	-136.8668
7500.000000	90.146	-136.9798
7620.000000	91.502	-139.3707
7750.000000	92.761	-144.5004
7880.000000	93.607	-151.8569
8000.000000	93.934	-159.6407
8120.000000	93.837	-166.8600
8250.000000	93.394	-172.5870
8380.000000	92.833	-175.7679
8500.000000	92.380	-176.9814
8620.000000	92.058	-177.3015
8750.000000	91.856	-177.3895
8850.000000	91.782	-177.6303
9000.000000	91.740	-178.6422
9120.000000	91.699	179.8845
9250.000000	91.586	177.7534
9380.000000	91.361	175.3902
9500.000000	91.045	173.3501
9620.000000	90.643	171.7326
9750.000000	90.147	170.6481
9880.000000	89.632	170.3071
10000.000000	89.177	170.5952
10150.000000	88.671	171.5919
10300.000000	88.263	173.0397
10440.000000	87.987	174.5196
10600.000000	87.797	176.0193
10750.000000	87.721	176.8669
10900.000000	87.694	176.8453
11060.000000	87.637	175.6963
11200.000000	87.488	173.8473
11380.000000	87.079	170.8633
11500.000000	86.649	168.9678
11720.000000	85.576	166.8480
11800.000000	85.121	166.7182
12060.000000	83.586	168.9612
12200.000000	82.818	171.6660
12410.000000	81.838	176.9121
12500.000000	81.489	179.4058
12650.000000	81.003	-176.2547
12800.000000	80.654	-171.7756
13150.000000	80.440	-161.7650
13200.000000	80.483	-160.5340
13400.000000	80.834	-156.6754
13600.000000	81.399	-155.4847
13800.000000	81.948	-158.2129
14000.000000	82.096	-164.9881
14300.000000	80.903	-177.0353
14500.000000	79.202	179.2244
14750.000000	76.648	-177.7722
15000.000000	74.326	-167.5249
15250.000000	72.874	-152.6861
15500.000000	72.801	-137.5299
15750.000000	73.644	-127.1886
16000.000000	74.403	-122.2932
16250.000000	74.766	-118.7874
16500.000000	75.110	-113.6185
16750.000000	75.909	-107.6809
17000.000000	77.218	-103.8030
17250.000000	78.789	-103.8384
17500.000000	80.309	-109.0475
17750.000000	81.281	-119.6825
18000.000000	81.357	-132.4016
18250.000000	80.693	-142.3970
18500.000000	79.827	-148.3904
18750.000000	79.200	-152.8208
19000.000000	78.779	-158.7229
19250.000000	78.174	-167.1203
19500.000000	77.038	-176.2992
19750.000000	75.386	176.5660
20000.000000	73.874	173.0022
