* Measurement data measured by REW V5.20.13
* Source: EXCL: Mic in at rear panel (Pink)(Realtek(R) Audio), MICROPHONE (마스), L, volume: 1.000
* Format: 256k Log Swept Sine, 1 sweep at -12.0 dBFS with no timing reference
* Dated: 2022. 12. 30 오후 4:24:22
* REW Settings:
*  C-weighting compensation: Off
*  Target level: 75.0 dB
* Note: 
* Measurement: L_50ohm
* Smoothing: 1/24 octave
* Frequency Step: 1/48 octave
* Start Frequency: 20.300 Hz
*
* Freq(Hz)	SPL(dB)	Phase(degrees)
20.299999	91.727	-21.1455
20.600000	91.728	-21.4024
20.900000	91.728	-21.8769
21.200001	91.724	-22.3658
21.400000	91.718	-22.6903
21.799999	91.703	-23.3328
22.000000	91.695	-23.6484
22.400000	91.680	-24.2643
22.700001	91.671	-24.7256
23.000000	91.663	-25.1969
23.299999	91.653	-25.6706
23.600000	91.643	-26.1328
24.000000	91.629	-26.7108
24.299999	91.621	-27.1109
24.700001	91.612	-27.6112
25.000000	91.606	-27.9731
25.400000	91.596	-28.4465
25.799999	91.585	-28.9101
26.200001	91.571	-29.3671
26.500000	91.560	-29.7124
26.900000	91.541	-30.1840
27.200001	91.521	-30.5464
27.600000	91.488	-31.0310
28.000000	91.451	-31.5000
28.500000	91.404	-32.0595
29.000000	91.365	-32.6387
29.500000	91.331	-33.3057
30.000000	91.293	-34.0687
30.400000	91.253	-34.6940
30.700001	91.218	-35.1341
31.100000	91.170	-35.6499
31.500000	91.129	-36.0881
32.000000	91.094	-36.5858
32.500000	91.075	-37.1110
33.000000	91.057	-37.6906
33.500000	91.033	-38.2729
34.000000	91.006	-38.7967
34.500000	90.980	-39.2655
35.000000	90.957	-39.7272
35.500000	90.931	-40.2112
36.000000	90.901	-40.7093
36.500000	90.868	-41.2146
37.000000	90.832	-41.7340
37.500000	90.789	-42.2646
38.200001	90.720	-42.9817
38.700001	90.671	-43.4611
39.500000	90.605	-44.2441
40.000000	90.566	-44.7781
40.599998	90.516	-45.4338
41.200001	90.462	-46.0476
41.799999	90.412	-46.6118
42.500000	90.361	-47.2524
43.099998	90.322	-47.8027
43.700001	90.282	-48.3427
44.400002	90.235	-48.9728
45.000000	90.193	-49.5315
45.500000	90.155	-49.9968
46.200001	90.099	-50.6105
46.799999	90.057	-51.1079
47.500000	90.016	-51.7231
48.200001	89.975	-52.3984
48.700001	89.942	-52.8793
49.400002	89.892	-53.4941
50.000000	89.851	-53.9686
50.799999	89.803	-54.5686
51.500000	89.762	-55.0713
52.200001	89.725	-55.5506
53.000000	89.686	-56.1102
53.799999	89.645	-56.7414
54.500000	89.597	-57.3396
55.200001	89.539	-57.9151
56.000000	89.472	-58.5231
57.000000	89.393	-59.2943
58.000000	89.314	-60.0322
59.000000	89.258	-60.7452
60.000000	89.209	-61.5758
60.799999	89.163	-62.2488
61.500000	89.123	-62.8296
62.200001	89.075	-63.3960
63.000000	89.012	-63.9452
64.000000	88.937	-64.5149
65.000000	88.857	-65.0273
66.000000	88.785	-65.3614
67.000000	88.752	-65.7460
68.000000	88.718	-66.3939
69.000000	88.658	-67.1471
70.000000	88.582	-67.8680
71.000000	88.504	-68.5550
72.000000	88.426	-69.2383
73.000000	88.344	-69.8673
74.000000	88.269	-70.3811
75.000000	88.216	-70.8646
76.199997	88.164	-71.5220
77.500000	88.110	-72.2596
78.800003	88.047	-73.0331
80.000000	87.983	-73.6483
81.199997	87.921	-74.3259
82.500000	87.834	-75.0748
83.800003	87.750	-75.7770
85.000000	87.679	-76.4460
86.199997	87.615	-77.1164
87.500000	87.556	-77.7839
88.500000	87.521	-78.2510
90.000000	87.479	-78.9576
91.199997	87.432	-79.5800
92.500000	87.344	-80.1702
93.800003	87.248	-80.5683
95.000000	87.174	-81.0154
96.199997	87.100	-81.5633
97.500000	87.046	-82.2553
98.800003	86.998	-83.1356
100.000000	86.946	-83.7906
101.500000	86.903	-84.3348
103.000000	86.863	-84.8081
104.400002	86.810	-85.2576
106.000000	86.736	-85.9194
107.500000	86.654	-86.6780
109.000000	86.578	-87.2831
110.599998	86.521	-87.7615
112.000000	86.455	-88.1180
113.800003	86.335	-88.6284
115.000000	86.258	-89.2513
117.199997	86.203	-91.5331
118.000000	86.198	-92.8105
120.599998	85.951	-95.2532
122.000000	85.935	-94.2839
124.099998	86.054	-93.3079
125.000000	86.057	-93.2132
126.500000	86.001	-93.3226
128.000000	85.921	-93.7182
131.500000	85.816	-95.0807
132.000000	85.809	-95.2381
134.000000	85.782	-95.7782
136.000000	85.731	-96.4468
138.000000	85.654	-97.1925
140.000000	85.597	-97.8679
143.000000	85.529	-98.7402
145.000000	85.474	-99.2686
147.500000	85.398	-100.0602
150.000000	85.327	-100.8096
152.500000	85.269	-101.4704
155.000000	85.205	-102.0887
157.500000	85.136	-102.7447
160.000000	85.063	-103.4205
162.500000	85.005	-104.0798
165.000000	84.960	-104.7374
167.500000	84.912	-105.3411
170.000000	84.858	-105.8902
172.500000	84.799	-106.3946
175.000000	84.747	-106.9512
177.500000	84.691	-107.5851
180.000000	84.642	-108.1766
182.500000	84.606	-108.7180
185.000000	84.568	-109.1970
187.500000	84.524	-109.6483
190.000000	84.479	-110.1725
192.500000	84.436	-110.7561
195.000000	84.395	-111.2738
197.500000	84.355	-111.7274
200.000000	84.311	-112.1891
203.000000	84.262	-112.7840
206.000000	84.218	-113.3386
209.000000	84.176	-113.8200
212.000000	84.137	-114.3247
214.000000	84.113	-114.6672
218.000000	84.067	-115.3010
220.000000	84.040	-115.6144
224.000000	83.982	-116.2483
227.000000	83.942	-116.6764
230.000000	83.904	-117.0606
233.000000	83.871	-117.4543
236.000000	83.843	-117.8579
240.000000	83.805	-118.3771
243.000000	83.782	-118.7521
247.000000	83.753	-119.2309
250.000000	83.714	-119.5147
254.000000	83.662	-119.8922
258.000000	83.633	-120.3337
262.000000	83.613	-120.7744
265.000000	83.596	-121.1327
269.000000	83.569	-121.6171
272.000000	83.550	-121.9512
276.000000	83.527	-122.3720
280.000000	83.511	-122.7950
285.000000	83.496	-123.3351
290.000000	83.475	-123.8383
295.000000	83.457	-124.3243
300.000000	83.434	-124.8405
304.000000	83.413	-125.2565
307.000000	83.401	-125.5302
311.000000	83.392	-125.8519
315.000000	83.381	-126.1655
320.000000	83.357	-126.5538
325.000000	83.331	-126.9094
330.000000	83.309	-127.2530
335.000000	83.289	-127.6073
340.000000	83.272	-127.9622
345.000000	83.258	-128.2900
350.000000	83.240	-128.6059
355.000000	83.227	-128.9388
360.000000	83.213	-129.2646
365.000000	83.187	-129.5748
370.000000	83.160	-129.8665
375.000000	83.137	-130.1575
382.000000	83.112	-130.5168
387.000000	83.097	-130.7261
395.000000	83.065	-131.0924
400.000000	83.046	-131.2992
406.000000	83.025	-131.5379
412.000000	83.010	-131.7791
418.000000	82.996	-131.9677
425.000000	82.971	-132.1564
431.000000	82.948	-132.3566
437.000000	82.938	-132.5209
444.000000	82.933	-132.6582
450.000000	82.927	-132.7687
455.000000	82.921	-132.8673
462.000000	82.909	-133.0151
468.000000	82.899	-133.1171
475.000000	82.894	-133.2205
482.000000	82.887	-133.2976
487.000000	82.882	-133.3550
494.000000	82.874	-133.4342
500.000000	82.864	-133.4868
508.000000	82.856	-133.5478
515.000000	82.854	-133.6137
522.000000	82.849	-133.6647
530.000000	82.844	-133.6969
538.000000	82.841	-133.7146
545.000000	82.841	-133.6930
552.000000	82.841	-133.6418
560.000000	82.841	-133.6134
570.000000	82.843	-133.5846
580.000000	82.845	-133.4820
590.000000	82.850	-133.3806
600.000000	82.854	-133.3127
608.000000	82.864	-133.2252
615.000000	82.873	-133.1213
622.000000	82.881	-133.0195
630.000000	82.890	-132.8852
640.000000	82.901	-132.6704
650.000000	82.914	-132.4590
660.000000	82.927	-132.2128
670.000000	82.938	-131.9875
680.000000	82.950	-131.7728
690.000000	82.970	-131.5576
700.000000	82.994	-131.3396
710.000000	83.019	-131.0874
720.000000	83.047	-130.7924
730.000000	83.073	-130.5163
740.000000	83.101	-130.2708
750.000000	83.131	-130.0147
762.000000	83.171	-129.6840
775.000000	83.214	-129.3672
788.000000	83.254	-129.0421
800.000000	83.294	-128.7169
812.000000	83.336	-128.3977
825.000000	83.386	-128.0517
838.000000	83.439	-127.7037
850.000000	83.484	-127.3823
862.000000	83.529	-127.0623
875.000000	83.582	-126.6688
885.000000	83.623	-126.3438
900.000000	83.686	-125.8676
912.000000	83.744	-125.4643
925.000000	83.811	-124.9933
938.000000	83.882	-124.5116
950.000000	83.952	-124.0674
962.000000	84.025	-123.6352
975.000000	84.115	-123.1912
988.000000	84.217	-122.7614
1000.000000	84.312	-122.3765
1015.000000	84.415	-121.9603
1030.000000	84.523	-121.5995
1044.000000	84.636	-121.2998
1060.000000	84.765	-120.9721
1075.000000	84.887	-120.6729
1090.000000	85.016	-120.4271
1106.000000	85.161	-120.2210
1120.000000	85.286	-120.0762
1138.000000	85.445	-119.9242
1150.000000	85.550	-119.8526
1172.000000	85.737	-119.7605
1180.000000	85.806	-119.7225
1206.000000	86.021	-119.5923
1220.000000	86.134	-119.5453
1241.000000	86.301	-119.4911
1250.000000	86.371	-119.4822
1265.000000	86.485	-119.4715
1280.000000	86.596	-119.4484
1315.000000	86.858	-119.3353
1320.000000	86.895	-119.3156
1340.000000	87.039	-119.2525
1360.000000	87.178	-119.2005
1380.000000	87.319	-119.1428
1400.000000	87.468	-119.0642
1430.000000	87.691	-118.9626
1450.000000	87.840	-118.8869
1475.000000	88.028	-118.7709
1500.000000	88.221	-118.6605
1525.000000	88.416	-118.5618
1550.000000	88.614	-118.4640
1575.000000	88.817	-118.3858
1600.000000	89.025	-118.3157
1625.000000	89.238	-118.2670
1650.000000	89.456	-118.2469
1675.000000	89.677	-118.2653
1700.000000	89.900	-118.3287
1725.000000	90.129	-118.4278
1750.000000	90.360	-118.5712
1775.000000	90.593	-118.7614
1800.000000	90.831	-119.0119
1825.000000	91.072	-119.3273
1850.000000	91.312	-119.6990
1875.000000	91.551	-120.1359
1900.000000	91.792	-120.6377
1925.000000	92.034	-121.2135
1950.000000	92.272	-121.8706
1975.000000	92.505	-122.6080
2000.000000	92.733	-123.4157
2030.000000	93.002	-124.4704
2060.000000	93.260	-125.6241
2090.000000	93.507	-126.8729
2120.000000	93.738	-128.2174
2140.000000	93.883	-129.1572
2180.000000	94.152	-131.1142
2200.000000	94.273	-132.1284
2240.000000	94.489	-134.1997
2270.000000	94.628	-135.7682
2300.000000	94.748	-137.3354
2330.000000	94.850	-138.8853
2360.000000	94.935	-140.4041
2400.000000	95.022	-142.3625
2430.000000	95.073	-143.7734
2470.000000	95.123	-145.5518
2500.000000	95.150	-146.8044
2540.000000	95.172	-148.3793
2580.000000	95.181	-149.8455
2620.000000	95.180	-151.1997
2650.000000	95.174	-152.1446
2690.000000	95.154	-153.3174
2720.000000	95.131	-154.1240
2760.000000	95.090	-155.0789
2800.000000	95.032	-155.8612
2850.000000	94.943	-156.5043
2900.000000	94.852	-156.6302
2950.000000	94.796	-156.1596
3000.000000	94.826	-155.1795
3040.000000	94.935	-154.2064
3070.000000	95.071	-153.4763
3110.000000	95.324	-152.6424
3150.000000	95.645	-152.1030
3200.000000	96.114	-151.9812
3250.000000	96.626	-152.5370
3300.000000	97.153	-153.7916
3350.000000	97.674	-155.7456
3400.000000	98.170	-158.3943
3450.000000	98.620	-161.7232
3500.000000	98.997	-165.6750
3550.000000	99.273	-170.1341
3600.000000	99.426	-174.9095
3650.000000	99.447	-179.7629
3700.000000	99.341	175.5474
3750.000000	99.122	171.2310
3820.000000	98.672	166.0858
3870.000000	98.281	163.1295
3950.000000	97.602	159.6239
4000.000000	97.176	158.1241
4060.000000	96.685	156.9226
4120.000000	96.232	156.2613
4180.000000	95.825	156.0237
4250.000000	95.414	156.1565
4310.000000	95.116	156.5268
4370.000000	94.864	157.0400
4440.000000	94.633	157.7100
4500.000000	94.488	158.2539
4550.000000	94.403	158.6296
4620.000000	94.335	158.9543
4680.000000	94.314	158.9685
4750.000000	94.320	158.5849
4820.000000	94.334	157.6824
4870.000000	94.331	156.6893
4940.000000	94.282	154.8033
5000.000000	94.173	152.7757
5080.000000	93.893	149.7197
5150.000000	93.497	147.0722
5220.000000	92.963	144.8394
5300.000000	92.215	143.2031
5380.000000	91.386	142.7764
5450.000000	90.647	143.4012
5520.000000	89.934	144.8354
5600.000000	89.178	147.2665
5700.000000	88.344	151.2224
5800.000000	87.649	155.9789
5900.000000	87.105	161.2777
6000.000000	86.712	166.8443
6080.000000	86.502	171.3059
6150.000000	86.384	175.0911
6220.000000	86.309	178.7197
6300.000000	86.250	-177.3015
6400.000000	86.184	-172.3942
6500.000000	86.126	-167.1613
6600.000000	86.129	-161.3080
6700.000000	86.266	-154.9069
6800.000000	86.597	-148.2479
6900.000000	87.153	-141.7175
7000.000000	87.918	-135.7070
7100.000000	88.854	-130.4862
7200.000000	89.924	-126.2358
7300.000000	91.103	-123.1066
7400.000000	92.374	-121.2465
7500.000000	93.689	-121.0411
7620.000000	95.221	-123.2143
7750.000000	96.668	-128.4689
7880.000000	97.655	-136.3236
8000.000000	98.056	-144.6000
8120.000000	98.002	-152.0259
8250.000000	97.620	-157.6280
8380.000000	97.168	-160.5458
8500.000000	96.853	-161.5997
8620.000000	96.692	-161.9354
8750.000000	96.670	-162.2524
8850.000000	96.727	-162.8165
9000.000000	96.856	-164.5213
9120.000000	96.922	-166.6494
9250.000000	96.888	-169.4862
9380.000000	96.709	-172.4441
9500.000000	96.414	-174.8514
9620.000000	96.027	-176.6355
9750.000000	95.553	-177.6956
9880.000000	95.080	-177.8481
10000.000000	94.683	-177.2918
10150.000000	94.279	-175.8863
10300.000000	94.010	-173.9839
10440.000000	93.903	-172.0661
10600.000000	93.964	-170.1689
10750.000000	94.175	-169.1785
10900.000000	94.476	-169.4109
11060.000000	94.795	-171.3576
11200.000000	94.969	-174.5333
11380.000000	94.901	179.9706
11500.000000	94.622	176.1326
11720.000000	93.662	170.6945
11800.000000	93.212	169.5880
12060.000000	91.665	169.6022
12200.000000	90.922	171.4291
12410.000000	90.033	175.3342
12500.000000	89.737	177.2326
12650.000000	89.369	-179.4461
12800.000000	89.174	-176.1382
13150.000000	89.449	-170.6828
13200.000000	89.562	-170.4462
13400.000000	90.091	-171.8093
13600.000000	90.455	-177.6945
13800.000000	90.218	172.7280
14000.000000	89.120	163.2565
14300.000000	86.178	157.4766
14500.000000	83.918	160.4138
14750.000000	81.346	170.0079
15000.000000	79.416	-175.6361
15250.000000	78.526	-158.2294
15500.000000	79.098	-141.6635
15750.000000	80.541	-131.3703
16000.000000	81.684	-128.0737
16250.000000	82.205	-126.0446
16500.000000	82.751	-120.9607
16750.000000	84.032	-114.9137
17000.000000	85.885	-112.5907
17250.000000	87.770	-115.9904
17500.000000	89.331	-125.0553
17750.000000	90.154	-138.7497
18000.000000	90.040	-152.7743
18250.000000	89.344	-162.9107
18500.000000	88.673	-169.6666
18750.000000	88.293	-176.4097
19000.000000	87.959	174.2806
19250.000000	87.221	162.4538
19500.000000	85.768	151.0635
19750.000000	83.715	143.4933
20000.000000	81.882	140.4148
