* Measurement data measured by REW V5.20.7
* Source: 마이크(Realtek High Definition Audi, MICROPHONE (마스), L, volume: 0.050
* Format: 128k Log Swept Sine, 1 sweep at -12.0 dBFS with no timing reference
* Dated: May 5, 2023 3:59:53 PM
* REW Settings:
*  C-weighting compensation: Off
*  Target level: 75.0 dB
* Note: ; 
* Measurement: Nostalgia Audio Tesseract L
* Smoothing: 1/48 octave
* Frequency Step: 1/96 octave
* Start Frequency: 20.145 Hz
*
* Freq(Hz)	SPL(dB)	Phase(degrees)
20.144928	89.549	50.6845
20.290907	89.581	50.4508
20.437943	89.614	50.1115
20.586044	89.645	49.7370
20.735220	89.670	49.3095
20.885475	89.687	48.8608
21.036821	89.693	48.3919
21.189262	89.692	47.9210
21.342808	89.682	47.4858
21.497467	89.666	47.0777
21.653246	89.647	46.7305
21.810154	89.624	46.4513
21.968201	89.604	46.2278
22.127390	89.591	46.0694
22.287735	89.586	45.9531
22.449242	89.595	45.8385
22.611917	89.616	45.7301
22.775772	89.648	45.5608
22.940815	89.692	45.3337
23.107054	89.739	45.0216
23.274498	89.789	44.6080
23.443153	89.835	44.1185
23.613033	89.871	43.5486
23.784142	89.899	42.9345
23.956491	89.914	42.3132
24.130091	89.918	41.6980
24.304947	89.912	41.1478
24.481071	89.897	40.6576
24.658470	89.883	40.2624
24.837156	89.868	39.9538
25.017136	89.863	39.7145
25.198421	89.866	39.5405
25.381020	89.882	39.3761
25.564941	89.910	39.2218
25.750195	89.945	39.0277
25.936790	89.988	38.7970
26.124741	90.031	38.5185
26.314051	90.074	38.1981
26.504732	90.112	37.8588
26.696796	90.145	37.5054
26.890253	90.173	37.1664
27.085112	90.198	36.8391
27.281382	90.222	36.5332
27.479073	90.247	36.2358
27.678198	90.274	35.9391
27.878765	90.300	35.6303
28.080786	90.326	35.3003
28.284271	90.348	34.9560
28.489231	90.365	34.5981
28.695675	90.374	34.2565
28.903616	90.378	33.9374
29.113064	90.379	33.6692
29.324028	90.379	33.4452
29.536524	90.383	33.2715
29.750557	90.394	33.1118
29.966141	90.413	32.9559
30.183289	90.437	32.7572
30.402010	90.465	32.5127
30.622314	90.491	32.2043
30.844217	90.510	31.8606
31.067726	90.519	31.4915
31.292856	90.520	31.1484
31.519617	90.515	30.8436
31.748020	90.507	30.6033
31.978081	90.505	30.4093
32.209808	90.510	30.2485
32.443211	90.525	30.0745
32.678310	90.546	29.8559
32.915108	90.571	29.5718
33.153625	90.593	29.2163
33.393871	90.607	28.8163
33.635857	90.612	28.3932
33.879597	90.608	27.9995
34.125103	90.598	27.6517
34.372387	90.585	27.3675
34.621464	90.577	27.1360
34.872345	90.573	26.9340
35.125042	90.577	26.7409
35.379574	90.585	26.5284
35.635948	90.595	26.2954
35.894180	90.605	26.0434
36.154285	90.613	25.7859
36.416275	90.620	25.5352
36.680161	90.627	25.2931
36.945961	90.636	25.0581
37.213688	90.647	24.8174
37.483353	90.659	24.5648
37.754974	90.670	24.2999
38.028561	90.679	24.0284
38.304131	90.684	23.7669
38.581699	90.687	23.5243
38.861279	90.692	23.3025
39.142883	90.699	23.0954
39.426529	90.711	22.8821
39.712231	90.725	22.6458
40.000000	90.739	22.3786
40.289856	90.750	22.0812
40.581814	90.755	21.7696
40.875885	90.753	21.4689
41.172089	90.747	21.1974
41.470440	90.738	20.9647
41.770950	90.731	20.7698
42.073643	90.728	20.5990
42.378525	90.729	20.4304
42.685616	90.734	20.2470
42.994934	90.741	20.0403
43.306492	90.746	19.8106
43.620308	90.750	19.5658
43.936401	90.751	19.3177
44.254780	90.750	19.0753
44.575470	90.749	18.8397
44.898483	90.749	18.6062
45.223835	90.749	18.3687
45.551544	90.750	18.1251
45.881630	90.749	17.8789
46.214108	90.748	17.6379
46.548996	90.747	17.4091
46.886307	90.747	17.1918
47.226067	90.751	16.9768
47.568283	90.757	16.7505
47.912983	90.764	16.5061
48.260181	90.768	16.2485
48.609894	90.770	15.9933
48.962143	90.768	15.7573
49.316940	90.766	15.5485
49.674313	90.766	15.3610
50.034271	90.769	15.1787
50.396843	90.774	14.9854
50.762039	90.780	14.7739
51.129883	90.783	14.5477
51.500389	90.784	14.3161
51.873581	90.783	14.0860
52.249481	90.781	13.8580
52.628101	90.779	13.6291
53.009464	90.777	13.3973
53.393593	90.774	13.1647
53.780506	90.770	12.9351
54.170223	90.767	12.7101
54.562763	90.764	12.4866
54.958145	90.763	12.2600
55.356396	90.762	12.0286
55.757530	90.761	11.7968
56.161572	90.760	11.5719
56.568542	90.759	11.3590
56.978462	90.759	11.1558
57.391350	90.761	10.9543
57.807232	90.764	10.7475
58.226128	90.765	10.5357
58.648056	90.764	10.3266
59.073048	90.760	10.1295
59.501114	90.755	9.9474
59.932281	90.752	9.7732
60.366577	90.749	9.5950
60.804020	90.745	9.4053
61.244629	90.739	9.2053
61.688435	90.731	9.0031
62.135452	90.722	8.8054
62.585712	90.714	8.6115
63.039234	90.708	8.4141
63.496040	90.702	8.2067
63.956161	90.698	7.9880
64.419617	90.693	7.7633
64.886421	90.688	7.5395
65.356621	90.683	7.3219
65.830215	90.679	7.1128
66.307251	90.675	6.9131
66.787743	90.671	6.7231
67.271713	90.667	6.5422
67.759193	90.664	6.3685
68.250206	90.660	6.1984
68.744774	90.657	6.0277
69.242928	90.652	5.8530
69.744690	90.645	5.6739
70.250084	90.637	5.4932
70.759148	90.628	5.3137
71.271896	90.619	5.1345
71.788361	90.611	4.9508
72.308571	90.604	4.7583
72.832550	90.596	4.5574
73.360321	90.590	4.3524
73.891922	90.583	4.1485
74.427376	90.576	3.9492
74.966705	90.571	3.7562
75.509949	90.565	3.5690
76.057121	90.560	3.3863
76.608261	90.554	3.2069
77.163399	90.547	3.0310
77.722557	90.539	2.8598
78.285767	90.530	2.6927
78.853058	90.520	2.5263
79.424461	90.510	2.3571
80.000000	90.499	2.1832
80.579712	90.488	2.0049
81.163628	90.478	1.8220
81.751770	90.468	1.6346
82.344177	90.459	1.4445
82.940880	90.449	1.2561
83.541901	90.441	1.0737
84.147285	90.432	0.8987
84.757050	90.424	0.7298
85.371231	90.416	0.5666
85.989868	90.407	0.4106
86.612984	90.398	0.2617
87.240616	90.388	0.1150
87.872803	90.378	-0.0355
88.509560	90.366	-0.1917
89.150940	90.354	-0.3511
89.796967	90.341	-0.5129
90.447670	90.329	-0.6795
91.103088	90.317	-0.8502
91.763260	90.305	-1.0199
92.428215	90.294	-1.1851
93.097992	90.284	-1.3464
93.772614	90.275	-1.5048
94.452133	90.265	-1.6597
95.136566	90.255	-1.8116
95.825966	90.243	-1.9605
96.520363	90.231	-2.1035
97.219788	90.217	-2.2401
97.924286	90.205	-2.3768
98.633881	90.192	-2.5224
99.348625	90.180	-2.6781
100.068542	90.166	-2.8378
100.793686	90.152	-2.9944
101.524078	90.139	-3.1452
102.259766	90.126	-3.2904
103.000778	90.113	-3.4308
103.747162	90.100	-3.5664
104.498962	90.087	-3.6980
105.256203	90.074	-3.8305
106.018929	90.060	-3.9680
106.787186	90.045	-4.1083
107.561012	90.029	-4.2481
108.340446	90.013	-4.3865
109.125526	89.998	-4.5243
109.916290	89.983	-4.6641
110.712791	89.969	-4.8049
111.515060	89.954	-4.9383
112.323143	89.940	-5.0614
113.137085	89.927	-5.1815
113.956924	89.913	-5.3032
114.782700	89.897	-5.4242
115.614464	89.881	-5.5416
116.452255	89.864	-5.6578
117.296112	89.846	-5.7750
118.146095	89.829	-5.8926
119.002228	89.812	-6.0110
119.864563	89.796	-6.1304
120.733154	89.779	-6.2482
121.608040	89.763	-6.3639
122.489258	89.747	-6.4795
123.376869	89.730	-6.5925
124.270905	89.712	-6.7016
125.171425	89.694	-6.8088
126.078468	89.676	-6.9133
126.992081	89.657	-7.0146
127.912323	89.639	-7.1140
128.839233	89.621	-7.2121
129.772842	89.603	-7.3117
130.713242	89.585	-7.4117
131.660431	89.567	-7.5116
132.614502	89.548	-7.6126
133.575485	89.528	-7.7081
134.543427	89.508	-7.7946
135.518387	89.488	-7.8761
136.500412	89.469	-7.9525
137.489548	89.450	-8.0266
138.485855	89.431	-8.1045
139.489380	89.410	-8.1836
140.500168	89.388	-8.2586
141.518295	89.366	-8.3291
142.543793	89.345	-8.3985
143.576721	89.324	-8.4652
144.617142	89.302	-8.5257
145.665100	89.281	-8.5814
146.720642	89.259	-8.6329
147.783844	89.235	-8.6807
148.854752	89.210	-8.7268
149.933411	89.184	-8.7669
151.019897	89.158	-8.7967
152.114243	89.133	-8.8164
153.216522	89.107	-8.8231
154.326797	89.082	-8.8156
155.445114	89.055	-8.7965
156.571533	89.026	-8.7684
157.706116	88.995	-8.7303
158.848923	88.966	-8.6801
160.000000	88.939	-8.6183
161.159424	88.917	-8.5424
162.327255	88.898	-8.4462
163.503540	88.883	-8.3213
164.688354	88.869	-8.1695
165.881760	88.857	-7.9983
167.083801	88.848	-7.8176
168.294571	88.845	-7.6441
169.514099	88.849	-7.4870
170.742462	88.865	-7.3574
171.979736	88.889	-7.2609
173.225967	88.921	-7.1957
174.481232	88.955	-7.1673
175.745605	88.988	-7.1839
177.019119	89.017	-7.2537
178.301880	89.043	-7.3811
179.593933	89.063	-7.5641
180.895340	89.077	-7.7863
182.206177	89.087	-8.0286
183.526520	89.091	-8.2727
184.856430	89.090	-8.5086
186.195984	89.084	-8.7348
187.545227	89.073	-8.9493
188.904266	89.059	-9.1548
190.273132	89.043	-9.3510
191.651932	89.025	-9.5309
193.040726	89.007	-9.6901
194.439575	88.988	-9.8326
195.848572	88.967	-9.9585
197.267761	88.944	-10.0725
198.697250	88.921	-10.1830
200.137085	88.897	-10.2937
201.587372	88.874	-10.4034
203.048157	88.851	-10.5077
204.519531	88.830	-10.6013
206.001556	88.808	-10.6827
207.494324	88.785	-10.7560
208.997925	88.761	-10.8263
210.512405	88.738	-10.8971
212.037857	88.714	-10.9694
213.574371	88.691	-11.0418
215.122025	88.668	-11.1109
216.680893	88.646	-11.1728
218.251053	88.623	-11.2269
219.832581	88.600	-11.2763
221.425583	88.577	-11.3220
223.030121	88.554	-11.3628
224.646286	88.531	-11.3999
226.274170	88.508	-11.4323
227.913849	88.486	-11.4614
229.565399	88.463	-11.4893
231.228928	88.440	-11.5154
232.904510	88.417	-11.5373
234.592224	88.394	-11.5568
236.292191	88.372	-11.5775
238.004456	88.349	-11.5970
239.729126	88.327	-11.6129
241.466309	88.305	-11.6280
243.216080	88.283	-11.6456
244.978516	88.262	-11.6641
246.753738	88.241	-11.6815
248.541809	88.221	-11.6971
250.342850	88.200	-11.7094
252.156937	88.180	-11.7188
253.984161	88.160	-11.7288
255.824646	88.139	-11.7394
257.678467	88.119	-11.7475
259.545685	88.099	-11.7507
261.426483	88.078	-11.7507
263.320862	88.057	-11.7503
265.229004	88.037	-11.7511
267.150970	88.016	-11.7501
269.086853	87.996	-11.7452
271.036774	87.977	-11.7387
273.000824	87.957	-11.7313
274.979095	87.938	-11.7224
276.971710	87.917	-11.7135
278.978760	87.897	-11.7083
281.000336	87.878	-11.7057
283.036591	87.859	-11.7003
285.087585	87.840	-11.6887
287.153442	87.821	-11.6717
289.234283	87.802	-11.6534
291.330200	87.782	-11.6358
293.441284	87.763	-11.6203
295.567688	87.744	-11.6063
297.709503	87.725	-11.5910
299.866821	87.705	-11.5711
302.039795	87.685	-11.5462
304.228485	87.665	-11.5202
306.433044	87.644	-11.4970
308.653595	87.624	-11.4754
310.890228	87.604	-11.4492
313.143066	87.584	-11.4183
315.412231	87.565	-11.3885
317.697845	87.546	-11.3631
320.000000	87.526	-11.3389
322.318848	87.506	-11.3104
324.654510	87.486	-11.2784
327.007080	87.466	-11.2456
329.376709	87.446	-11.2116
331.763519	87.425	-11.1762
334.167603	87.404	-11.1379
336.589142	87.382	-11.0963
339.028198	87.361	-11.0516
341.484924	87.339	-11.0049
343.959473	87.317	-10.9574
346.451935	87.295	-10.9086
348.962463	87.273	-10.8569
351.491211	87.251	-10.8012
354.038239	87.227	-10.7429
356.603760	87.204	-10.6834
359.187866	87.181	-10.6203
361.790680	87.157	-10.5522
364.412354	87.133	-10.4780
367.053040	87.109	-10.3968
369.712860	87.086	-10.3085
372.391968	87.062	-10.2105
375.090454	87.039	-10.1020
377.808533	87.017	-9.9880
380.546265	86.998	-9.8702
383.303864	86.980	-9.7427
386.081451	86.963	-9.6071
388.879150	86.949	-9.4708
391.697144	86.937	-9.3372
394.535522	86.928	-9.2105
397.394501	86.921	-9.0999
400.274170	86.916	-9.0100
403.174744	86.912	-8.9425
406.096313	86.908	-8.8953
409.039062	86.902	-8.8654
412.003113	86.893	-8.8514
414.988647	86.882	-8.8493
417.995850	86.868	-8.8517
421.024811	86.852	-8.8491
424.075714	86.833	-8.8395
427.148743	86.812	-8.8252
430.244049	86.791	-8.8053
433.361786	86.769	-8.7755
436.502106	86.747	-8.7367
439.665161	86.725	-8.6939
442.851166	86.702	-8.6458
446.060242	86.679	-8.5881
449.292572	86.655	-8.5231
452.548340	86.631	-8.4527
455.827698	86.608	-8.3772
459.130798	86.584	-8.2977
462.457855	86.562	-8.2152
465.809021	86.538	-8.1327
469.184448	86.514	-8.0438
472.584381	86.491	-7.9442
476.008911	86.468	-7.8419
479.458252	86.445	-7.7396
482.932617	86.422	-7.6329
486.432159	86.399	-7.5180
489.957031	86.376	-7.3981
493.507477	86.354	-7.2783
497.083618	86.331	-7.1589
500.685699	86.307	-7.0357
504.313873	86.283	-6.9054
507.968323	86.260	-6.7728
511.649292	86.237	-6.6376
515.356934	86.214	-6.4961
519.091370	86.191	-6.3497
522.852966	86.168	-6.1995
526.641724	86.145	-6.0444
530.458008	86.121	-5.8855
534.301941	86.097	-5.7244
538.173706	86.073	-5.5627
542.073547	86.050	-5.3987
546.001648	86.026	-5.2290
549.958191	86.001	-5.0537
553.943420	85.976	-4.8744
557.957520	85.951	-4.6926
562.000671	85.926	-4.5075
566.073181	85.902	-4.3202
570.175171	85.878	-4.1284
574.306885	85.855	-3.9292
578.468567	85.832	-3.7247
582.660400	85.808	-3.5134
586.882568	85.784	-3.2966
591.135376	85.760	-3.0768
595.419006	85.737	-2.8552
599.733643	85.715	-2.6263
604.079590	85.693	-2.3884
608.456970	85.671	-2.1484
612.866089	85.649	-1.9071
617.307190	85.627	-1.6592
621.780457	85.606	-1.4043
626.286133	85.586	-1.1446
630.824463	85.565	-0.8805
635.395691	85.544	-0.6114
640.000000	85.524	-0.3354
644.637695	85.504	-0.0535
649.309021	85.485	0.2343
654.014160	85.466	0.5283
658.753418	85.448	0.8284
663.527039	85.430	1.1369
668.335205	85.412	1.4556
673.178284	85.395	1.7797
678.056396	85.378	2.1034
682.969849	85.364	2.4311
687.918945	85.350	2.7684
692.903870	85.336	3.1126
697.924927	85.322	3.4658
702.982422	85.310	3.8275
708.076477	85.299	4.1906
713.207520	85.288	4.5556
718.375732	85.278	4.9261
723.581360	85.270	5.3035
728.824707	85.263	5.6902
734.106079	85.257	6.0836
739.425720	85.251	6.4817
744.783936	85.246	6.8854
750.180908	85.242	7.2944
755.617065	85.241	7.7071
761.092529	85.241	8.1249
766.607727	85.241	8.5478
772.162903	85.242	8.9773
777.758301	85.244	9.4117
783.394287	85.248	9.8507
789.071045	85.253	10.2924
794.789001	85.260	10.7395
800.548340	85.269	11.1941
806.349487	85.280	11.6503
812.192627	85.292	12.1082
818.078125	85.306	12.5708
824.006226	85.321	13.0401
829.977295	85.338	13.5138
835.991699	85.359	13.9902
842.049622	85.381	14.4686
848.151428	85.405	14.9481
854.297485	85.430	15.4286
860.488098	85.455	15.9093
866.723572	85.483	16.3940
873.004211	85.513	16.8863
879.330322	85.544	17.3793
885.702332	85.578	17.8726
892.120483	85.614	18.3654
898.585144	85.652	18.8621
905.096680	85.692	19.3612
911.655396	85.734	19.8561
918.261597	85.779	20.3457
924.915710	85.826	20.8311
931.618042	85.876	21.3093
938.368896	85.928	21.7838
945.168762	85.983	22.2609
952.017822	86.041	22.7354
958.916504	86.101	23.2031
965.865234	86.162	23.6607
972.864319	86.226	24.1057
979.914062	86.291	24.5417
987.014954	86.359	24.9731
994.167236	86.429	25.3953
1001.371399	86.503	25.8026
1008.627747	86.578	26.1993
1015.936646	86.655	26.5878
1023.298584	86.735	26.9635
1030.713867	86.816	27.3229
1038.182739	86.899	27.6664
1045.705933	86.984	27.9944
1053.283447	87.071	28.3054
1060.916016	87.160	28.6004
1068.603882	87.251	28.8771
1076.347412	87.338	29.1332
1084.147095	87.422	29.3693
1092.003296	87.510	29.5846
1099.916382	87.600	29.7820
1107.886841	87.693	29.9625
1115.915039	87.787	30.1218
1124.001343	87.881	30.2585
1132.146362	87.976	30.3767
1140.350342	88.072	30.4765
1148.613770	88.168	30.5549
1156.937134	88.265	30.6103
1165.320801	88.363	30.6441
1173.765137	88.460	30.6573
1182.270752	88.558	30.6534
1190.838013	88.656	30.6283
1199.467285	88.754	30.5806
1208.159180	88.855	30.5137
1216.913940	88.960	30.4254
1225.732178	89.068	30.3131
1234.614380	89.178	30.1789
1243.560913	89.288	30.0216
1252.572266	89.397	29.8386
1261.648926	89.507	29.6320
1270.791382	89.616	29.4000
1280.000000	89.724	29.1421
1289.275391	89.831	28.8585
1298.618042	89.938	28.5501
1308.028320	90.045	28.2141
1317.506836	90.150	27.8495
1327.054077	90.254	27.4536
1336.670410	90.357	27.0251
1346.356567	90.458	26.5685
1356.112793	90.559	26.0803
1365.939697	90.660	25.5572
1375.837891	90.760	25.0004
1385.807739	90.858	24.4099
1395.849854	90.952	23.7860
1405.964844	91.042	23.1282
1416.152954	91.129	22.4328
1426.415039	91.211	21.7009
1436.751465	91.287	20.9361
1447.162720	91.358	20.1407
1457.649414	91.423	19.3148
1468.212158	91.480	18.4582
1478.851440	91.530	17.5731
1489.567871	91.571	16.6663
1500.361816	91.604	15.7436
1511.234131	91.627	14.8084
1522.185059	91.637	13.8673
1533.215454	91.635	12.9299
1544.325806	91.619	12.0053
1555.516602	91.591	11.1024
1566.788574	91.552	10.2343
1578.142090	91.502	9.4151
1589.578003	91.441	8.6547
1601.096680	91.371	7.9663
1612.698975	91.293	7.3637
1624.385254	91.208	6.8547
1636.156250	91.117	6.4501
1648.012451	91.024	6.1640
1659.954590	90.929	6.0011
1671.983398	90.835	5.9630
1684.099243	90.746	6.0520
1696.302856	90.664	6.2623
1708.594971	90.593	6.5861
1720.976196	90.535	7.0129
1733.447144	90.494	7.5314
1746.008423	90.470	8.1245
1758.660645	90.464	8.7707
1771.404663	90.479	9.4505
1784.240967	90.514	10.1413
1797.170288	90.570	10.8204
1810.193359	90.646	11.4650
1823.310791	90.742	12.0544
1836.523193	90.856	12.5683
1849.831421	90.985	12.9897
1863.236084	91.129	13.2996
1876.737793	91.284	13.4832
1890.337524	91.449	13.5331
1904.035645	91.619	13.4374
1917.833008	91.794	13.1873
1931.730469	91.969	12.7785
1945.728638	92.142	12.2088
1959.828125	92.310	11.4777
1974.029907	92.469	10.5860
1988.334473	92.618	9.5362
2002.742798	92.754	8.3388
2017.255493	92.876	7.0010
2031.873291	92.980	5.5299
2046.597168	93.066	3.9369
2061.427734	93.131	2.2360
2076.365479	93.175	0.4456
2091.411865	93.196	-1.4151
2106.566895	93.195	-3.3235
2121.832031	93.171	-5.2549
2137.207764	93.125	-7.1851
2152.694824	93.055	-9.0852
2168.294189	92.963	-10.9261
2184.006592	92.850	-12.6817
2199.832764	92.718	-14.3276
2215.773682	92.568	-15.8409
2231.830078	92.402	-17.2040
2248.002686	92.223	-18.4024
2264.292725	92.033	-19.4240
2280.700684	91.835	-20.2604
2297.227539	91.631	-20.9102
2313.874268	91.425	-21.3792
2330.641602	91.220	-21.6740
2347.530273	91.018	-21.8037
2364.541504	90.823	-21.7828
2381.676025	90.638	-21.6296
2398.934570	90.463	-21.3687
2416.318359	90.300	-21.0244
2433.827881	90.151	-20.6186
2451.464355	90.014	-20.1758
2469.228760	89.889	-19.7171
2487.121826	89.773	-19.2535
2505.144531	89.663	-18.7930
2523.297852	89.557	-18.3383
2541.582764	89.453	-17.8842
2560.000000	89.348	-17.4157
2578.550781	89.243	-16.9147
2597.236084	89.136	-16.3673
2616.056641	89.029	-15.7561
2635.013672	88.923	-15.0619
2654.108154	88.820	-14.2729
2673.340820	88.724	-13.3863
2692.713135	88.637	-12.4011
2712.225586	88.562	-11.3198
2731.879395	88.500	-10.1523
2751.675781	88.453	-8.9045
2771.615479	88.422	-7.5818
2791.699707	88.409	-6.1913
2811.929688	88.416	-4.7342
2832.305908	88.445	-3.2075
2852.830078	88.500	-1.6171
2873.502930	88.585	0.0255
2894.325439	88.708	1.6951
2915.298828	88.873	3.3474
2936.424316	89.085	4.9216
2957.702881	89.345	6.3416
2979.135742	89.651	7.5196
3000.723633	89.996	8.3622
3022.468262	90.367	8.7876
3044.370117	90.748	8.7366
3066.430908	91.121	8.1836
3088.651611	91.468	7.1452
3111.033203	91.775	5.6740
3133.577148	92.030	3.8521
3156.284180	92.229	1.7773
3179.156006	92.370	-0.4466
3202.193359	92.460	-2.7221
3225.397949	92.504	-4.9719
3248.770508	92.513	-7.1405
3272.312500	92.492	-9.1922
3296.024902	92.449	-11.1093
3319.909180	92.389	-12.8887
3343.966797	92.312	-14.5336
3368.198486	92.221	-16.0512
3392.605713	92.115	-17.4510
3417.189941	91.994	-18.7370
3441.952393	91.856	-19.8986
3466.894287	91.703	-20.9162
3492.016846	91.533	-21.7605
3517.321289	91.348	-22.3946
3542.809326	91.155	-22.7758
3568.481934	90.958	-22.8693
3594.340576	90.769	-22.6566
3620.386719	90.598	-22.1372
3646.621582	90.458	-21.3389
3673.046387	90.361	-20.3191
3699.662842	90.314	-19.1583
3726.472168	90.322	-17.9524
3753.475586	90.386	-16.8034
3780.675049	90.501	-15.8087
3808.071289	90.663	-15.0541
3835.666016	90.863	-14.6161
3863.460938	91.091	-14.5554
3891.457275	91.335	-14.9254
3919.656250	91.582	-15.7711
3948.059814	91.814	-17.1197
3976.668945	92.014	-18.9765
4005.485596	92.162	-21.3110
4034.510986	92.240	-24.0457
4063.746582	92.230	-27.0500
4093.194336	92.123	-30.1369
4122.855469	91.918	-33.0804
4152.730957	91.624	-35.6593
4182.823730	91.260	-37.6869
4213.133789	90.849	-39.0382
4243.664062	90.417	-39.6550
4274.415527	89.989	-39.5525
4305.389648	89.587	-38.8062
4336.588379	89.227	-37.5204
4368.013184	88.925	-35.8159
4399.665527	88.687	-33.8212
4431.547363	88.520	-31.6503
4463.660156	88.425	-29.4041
