* Measurement data measured by REW V5.20.7
* Source: 마이크(Realtek High Definition Audi, MICROPHONE (마스), L, volume: 0.050
* Format: 128k Log Swept Sine, 1 sweep at -12.0 dBFS with no timing reference
* Dated: May 5, 2023 5:13:41 PM
* REW Settings:
*  C-weighting compensation: Off
*  Target level: 75.0 dB
* Note: ; 
* Measurement: Rhapsodio Thousand Sound R
* Smoothing: 1/48 octave
* Frequency Step: 1/96 octave
* Start Frequency: 20.145 Hz
*
* Freq(Hz)	SPL(dB)	Phase(degrees)
20.144928	90.531	40.7593
20.290907	90.539	40.5319
20.437943	90.547	40.2153
20.586044	90.554	39.9167
20.735220	90.559	39.6173
20.885475	90.563	39.3148
21.036821	90.566	39.0125
21.189262	90.567	38.7075
21.342808	90.570	38.3979
21.497467	90.572	38.0842
21.653246	90.573	37.7663
21.810154	90.573	37.4439
21.968201	90.573	37.1171
22.127390	90.571	36.7860
22.287735	90.569	36.4500
22.449242	90.567	36.1085
22.611917	90.564	35.7613
22.775772	90.562	35.4073
22.940815	90.559	35.0463
23.107054	90.556	34.6788
23.274498	90.553	34.3042
23.443153	90.550	33.9246
23.613033	90.547	33.5405
23.784142	90.544	33.1538
23.956491	90.543	32.7668
24.130091	90.542	32.3799
24.304947	90.542	31.9958
24.481071	90.542	31.6141
24.658470	90.543	31.2360
24.837156	90.545	30.8612
25.017136	90.548	30.4889
25.198421	90.551	30.1191
25.381020	90.556	29.7505
25.564941	90.562	29.3831
25.750195	90.568	29.0163
25.936790	90.574	28.6504
26.124741	90.581	28.2860
26.314051	90.588	27.9236
26.504732	90.595	27.5650
26.696796	90.600	27.2105
26.890253	90.604	26.8621
27.085112	90.607	26.5201
27.281382	90.609	26.1858
27.479073	90.612	25.8587
27.678198	90.615	25.5391
27.878765	90.618	25.2258
28.080786	90.621	24.9183
28.284271	90.625	24.6146
28.489231	90.630	24.3142
28.695675	90.634	24.0155
28.903616	90.639	23.7184
29.113064	90.643	23.4225
29.324028	90.647	23.1283
29.536524	90.651	22.8364
29.750557	90.655	22.5473
29.966141	90.659	22.2614
30.183289	90.663	21.9784
30.402010	90.668	21.6979
30.622314	90.673	21.4191
30.844217	90.678	21.1410
31.067726	90.683	20.8634
31.292856	90.687	20.5864
31.519617	90.690	20.3107
31.748020	90.693	20.0373
31.978081	90.695	19.7677
32.209808	90.696	19.5023
32.443211	90.697	19.2419
32.678310	90.697	18.9859
32.915108	90.696	18.7342
33.153625	90.695	18.4862
33.393871	90.694	18.2423
33.635857	90.694	18.0031
33.879597	90.693	17.7700
34.125103	90.693	17.5428
34.372387	90.692	17.3217
34.621464	90.692	17.1035
34.872345	90.691	16.8844
35.125042	90.692	16.6610
35.379574	90.692	16.4279
35.635948	90.692	16.1842
35.894180	90.690	15.9302
36.154285	90.686	15.6686
36.416275	90.681	15.4050
36.680161	90.674	15.1424
36.945961	90.666	14.8841
37.213688	90.658	14.6304
37.483353	90.651	14.3784
37.754974	90.644	14.1254
38.028561	90.639	13.8678
38.304131	90.633	13.6028
38.581699	90.627	13.3305
38.861279	90.622	13.0516
39.142883	90.616	12.7680
39.426529	90.610	12.4829
39.712231	90.604	12.1993
40.000000	90.598	11.9201
40.289856	90.592	11.6484
40.581814	90.586	11.3868
40.875885	90.580	11.1356
41.172089	90.576	10.8933
41.470440	90.573	10.6569
41.770950	90.571	10.4229
42.073643	90.569	10.1887
42.378525	90.567	9.9544
42.685616	90.563	9.7226
42.994934	90.559	9.4964
43.306492	90.553	9.2776
43.620308	90.547	9.0661
43.936401	90.540	8.8592
44.254780	90.533	8.6529
44.575470	90.525	8.4447
44.898483	90.516	8.2345
45.223835	90.506	8.0229
45.551544	90.496	7.8104
45.881630	90.485	7.5959
46.214108	90.474	7.3769
46.548996	90.463	7.1513
46.886307	90.452	6.9189
47.226067	90.440	6.6826
47.568283	90.428	6.4464
47.912983	90.416	6.2131
48.260181	90.406	5.9825
48.609894	90.397	5.7524
48.962143	90.389	5.5209
49.316940	90.381	5.2884
49.674313	90.373	5.0581
50.034271	90.365	4.8333
50.396843	90.358	4.6155
50.762039	90.351	4.4029
51.129883	90.345	4.1923
51.500389	90.338	3.9815
51.873581	90.330	3.7710
52.249481	90.321	3.5635
52.628101	90.312	3.3610
53.009464	90.301	3.1633
53.393593	90.291	2.9678
53.780506	90.280	2.7722
54.170223	90.267	2.5755
54.562763	90.253	2.3784
54.958145	90.239	2.1814
55.356396	90.225	1.9837
55.757530	90.211	1.7835
56.161572	90.198	1.5798
56.568542	90.184	1.3742
56.978462	90.170	1.1699
57.391350	90.156	0.9695
57.807232	90.143	0.7730
58.226128	90.131	0.5782
58.648056	90.119	0.3831
59.073048	90.107	0.1877
59.501114	90.095	-0.0057
59.932281	90.083	-0.1947
60.366577	90.070	-0.3783
60.804020	90.057	-0.5576
61.244629	90.044	-0.7345
61.688435	90.030	-0.9107
62.135452	90.015	-1.0867
62.585712	90.000	-1.2622
63.039234	89.984	-1.4371
63.496040	89.968	-1.6122
63.956161	89.953	-1.7893
64.419617	89.938	-1.9704
64.886421	89.922	-2.1553
65.356621	89.906	-2.3407
65.830215	89.890	-2.5222
66.307251	89.874	-2.6973
66.787743	89.859	-2.8674
67.271713	89.844	-3.0351
67.759193	89.829	-3.2007
68.250206	89.814	-3.3617
68.744774	89.799	-3.5160
69.242928	89.785	-3.6662
69.744690	89.770	-3.8178
70.250084	89.756	-3.9743
70.759148	89.740	-4.1334
71.271896	89.723	-4.2901
71.788361	89.706	-4.4419
72.308571	89.689	-4.5920
72.832550	89.673	-4.7453
73.360321	89.657	-4.9027
73.891922	89.641	-5.0611
74.427376	89.624	-5.2168
74.966705	89.608	-5.3691
75.509949	89.592	-5.5200
76.057121	89.576	-5.6703
76.608261	89.558	-5.8191
77.163399	89.541	-5.9654
77.722557	89.523	-6.1096
78.285767	89.504	-6.2526
78.853058	89.485	-6.3932
79.424461	89.465	-6.5301
80.000000	89.446	-6.6647
80.579712	89.426	-6.8009
81.163628	89.407	-6.9396
81.751770	89.387	-7.0773
82.344177	89.368	-7.2111
82.940880	89.349	-7.3426
83.541901	89.330	-7.4735
84.147285	89.310	-7.6027
84.757050	89.291	-7.7280
85.371231	89.272	-7.8496
85.989868	89.252	-7.9689
86.612984	89.232	-8.0863
87.240616	89.212	-8.2020
87.872803	89.191	-8.3159
88.509560	89.171	-8.4281
89.150940	89.150	-8.5405
89.796967	89.130	-8.6553
90.447670	89.109	-8.7715
91.103088	89.089	-8.8866
91.763260	89.068	-9.0008
92.428215	89.047	-9.1136
93.097992	89.025	-9.2213
93.772614	89.004	-9.3229
94.452133	88.983	-9.4239
95.136566	88.962	-9.5275
95.825966	88.940	-9.6302
96.520363	88.919	-9.7284
97.219788	88.897	-9.8234
97.924286	88.876	-9.9177
98.633881	88.854	-10.0109
99.348625	88.832	-10.0995
100.068542	88.810	-10.1821
100.793686	88.788	-10.2626
101.524078	88.767	-10.3454
102.259766	88.744	-10.4288
103.000778	88.721	-10.5099
103.747162	88.698	-10.5894
104.498962	88.675	-10.6679
105.256203	88.652	-10.7430
106.018929	88.628	-10.8139
106.787186	88.606	-10.8811
107.561012	88.583	-10.9442
108.340446	88.561	-11.0053
109.125526	88.539	-11.0674
109.916290	88.517	-11.1297
110.712791	88.494	-11.1894
111.515060	88.471	-11.2469
112.323143	88.447	-11.3059
113.137085	88.424	-11.3665
113.956924	88.400	-11.4252
114.782700	88.376	-11.4806
115.614464	88.352	-11.5343
116.452255	88.328	-11.5861
117.296112	88.303	-11.6328
118.146095	88.277	-11.6726
119.002228	88.251	-11.7068
119.864563	88.226	-11.7371
120.733154	88.201	-11.7677
121.608040	88.175	-11.8012
122.489258	88.149	-11.8338
123.376869	88.123	-11.8632
124.270905	88.097	-11.8905
125.171425	88.069	-11.9124
126.078468	88.042	-11.9256
126.992081	88.013	-11.9305
127.912323	87.985	-11.9276
128.839233	87.955	-11.9183
129.772842	87.926	-11.9024
130.713242	87.895	-11.8772
131.660431	87.863	-11.8399
132.614502	87.830	-11.7890
133.575485	87.797	-11.7225
134.543427	87.763	-11.6361
135.518387	87.730	-11.5280
136.500412	87.697	-11.4007
137.489548	87.665	-11.2525
138.485855	87.635	-11.0757
139.489380	87.606	-10.8671
140.500168	87.582	-10.6243
141.518295	87.562	-10.3414
142.543793	87.549	-10.0217
143.576721	87.544	-9.6734
144.617142	87.551	-9.3080
145.665100	87.572	-8.9473
146.720642	87.605	-8.6160
147.783844	87.652	-8.3386
148.854752	87.709	-8.1424
149.933411	87.774	-8.0513
151.019897	87.841	-8.0803
152.114243	87.902	-8.2276
153.216522	87.953	-8.4710
154.326797	87.991	-8.7809
155.445114	88.014	-9.1266
156.571533	88.026	-9.4814
157.706116	88.026	-9.8251
158.848923	88.019	-10.1468
160.000000	88.005	-10.4413
161.159424	87.986	-10.7078
162.327255	87.963	-10.9447
163.503540	87.938	-11.1551
164.688354	87.910	-11.3463
165.881760	87.881	-11.5159
167.083801	87.851	-11.6632
168.294571	87.821	-11.7915
169.514099	87.792	-11.9049
170.742462	87.765	-12.0048
171.979736	87.739	-12.0929
173.225967	87.713	-12.1727
174.481232	87.688	-12.2450
175.745605	87.664	-12.3097
177.019119	87.640	-12.3669
178.301880	87.616	-12.4165
179.593933	87.593	-12.4600
180.895340	87.570	-12.4971
182.206177	87.548	-12.5297
183.526520	87.526	-12.5603
184.856430	87.505	-12.5875
186.195984	87.484	-12.6093
187.545227	87.463	-12.6265
188.904266	87.443	-12.6378
190.273132	87.422	-12.6429
191.651932	87.401	-12.6452
193.040726	87.379	-12.6426
194.439575	87.358	-12.6354
195.848572	87.337	-12.6278
197.267761	87.316	-12.6199
198.697250	87.295	-12.6071
200.137085	87.274	-12.5906
201.587372	87.253	-12.5730
203.048157	87.232	-12.5502
204.519531	87.212	-12.5216
206.001556	87.192	-12.4880
207.494324	87.173	-12.4467
208.997925	87.153	-12.3967
210.512405	87.134	-12.3432
212.037857	87.116	-12.2914
213.574371	87.098	-12.2408
215.122025	87.080	-12.1904
216.680893	87.063	-12.1410
218.251053	87.047	-12.0921
219.832581	87.032	-12.0443
221.425583	87.018	-12.0024
223.030121	87.004	-11.9670
224.646286	86.990	-11.9339
226.274170	86.978	-11.9013
227.913849	86.966	-11.8701
229.565399	86.954	-11.8406
231.228928	86.942	-11.8140
232.904510	86.929	-11.7932
234.592224	86.915	-11.7775
236.292191	86.901	-11.7649
238.004456	86.886	-11.7510
239.729126	86.871	-11.7341
241.466309	86.856	-11.7157
243.216080	86.842	-11.6967
244.978516	86.827	-11.6753
246.753738	86.812	-11.6512
248.541809	86.797	-11.6264
250.342850	86.782	-11.5975
252.156937	86.768	-11.5611
253.984161	86.755	-11.5209
255.824646	86.742	-11.4787
257.678467	86.729	-11.4320
259.545685	86.717	-11.3808
261.426483	86.705	-11.3305
263.320862	86.694	-11.2832
265.229004	86.682	-11.2372
267.150970	86.670	-11.1915
269.086853	86.659	-11.1475
271.036774	86.649	-11.1113
273.000824	86.638	-11.0797
274.979095	86.627	-11.0448
276.971710	86.617	-11.0078
278.978760	86.605	-10.9697
281.000336	86.593	-10.9288
283.036591	86.581	-10.8843
285.087585	86.569	-10.8361
287.153442	86.557	-10.7862
289.234283	86.545	-10.7316
291.330200	86.532	-10.6734
293.441284	86.521	-10.6142
295.567688	86.510	-10.5521
297.709503	86.500	-10.4862
299.866821	86.489	-10.4148
302.039795	86.479	-10.3431
304.228485	86.470	-10.2761
306.433044	86.460	-10.2088
308.653595	86.450	-10.1372
310.890228	86.441	-10.0594
313.143066	86.432	-9.9743
315.412231	86.424	-9.8825
317.697845	86.417	-9.7892
320.000000	86.411	-9.6968
322.318848	86.406	-9.6045
324.654510	86.403	-9.5109
327.007080	86.401	-9.4186
329.376709	86.402	-9.3337
331.763519	86.404	-9.2605
334.167603	86.406	-9.1991
336.589142	86.409	-9.1502
339.028198	86.411	-9.1107
341.484924	86.413	-9.0778
343.959473	86.413	-9.0575
346.451935	86.411	-9.0516
348.962463	86.408	-9.0492
351.491211	86.403	-9.0396
354.038239	86.397	-9.0219
356.603760	86.391	-9.0039
359.187866	86.384	-8.9872
361.790680	86.377	-8.9663
364.412354	86.369	-8.9391
367.053040	86.361	-8.9050
369.712860	86.353	-8.8669
372.391968	86.345	-8.8292
375.090454	86.337	-8.7902
377.808533	86.329	-8.7479
380.546265	86.322	-8.7030
383.303864	86.314	-8.6567
386.081451	86.307	-8.6084
388.879150	86.300	-8.5583
391.697144	86.294	-8.5115
394.535522	86.287	-8.4699
397.394501	86.281	-8.4269
400.274170	86.276	-8.3768
403.174744	86.270	-8.3175
406.096313	86.265	-8.2538
409.039062	86.259	-8.1935
412.003113	86.254	-8.1376
414.988647	86.249	-8.0811
417.995850	86.244	-8.0236
421.024811	86.239	-7.9653
424.075714	86.233	-7.9064
427.148743	86.229	-7.8466
430.244049	86.226	-7.7843
433.361786	86.223	-7.7217
436.502106	86.220	-7.6626
439.665161	86.217	-7.6035
442.851166	86.215	-7.5403
446.060242	86.214	-7.4780
449.292572	86.212	-7.4150
452.548340	86.210	-7.3450
455.827698	86.207	-7.2722
459.130798	86.205	-7.2028
462.457855	86.204	-7.1343
465.809021	86.202	-7.0670
469.184448	86.201	-7.0021
472.584381	86.199	-6.9369
476.008911	86.198	-6.8704
479.458252	86.198	-6.8035
482.932617	86.197	-6.7367
486.432159	86.197	-6.6697
489.957031	86.198	-6.6012
493.507477	86.199	-6.5314
497.083618	86.200	-6.4614
500.685699	86.201	-6.3913
504.313873	86.202	-6.3227
507.968323	86.203	-6.2544
511.649292	86.204	-6.1853
515.356934	86.206	-6.1140
519.091370	86.209	-6.0408
522.852966	86.211	-5.9680
526.641724	86.214	-5.8962
530.458008	86.217	-5.8236
534.301941	86.220	-5.7503
538.173706	86.222	-5.6761
542.073547	86.224	-5.5983
546.001648	86.226	-5.5188
549.958191	86.227	-5.4404
553.943420	86.229	-5.3656
557.957520	86.231	-5.2918
562.000671	86.233	-5.2135
566.073181	86.235	-5.1310
570.175171	86.237	-5.0493
574.306885	86.241	-4.9697
578.468567	86.244	-4.8905
582.660400	86.248	-4.8120
586.882568	86.252	-4.7354
591.135376	86.256	-4.6588
595.419006	86.260	-4.5790
599.733643	86.265	-4.4946
604.079590	86.269	-4.4057
608.456970	86.275	-4.3160
612.866089	86.282	-4.2312
617.307190	86.288	-4.1502
621.780457	86.294	-4.0662
626.286133	86.301	-3.9816
630.824463	86.309	-3.8994
635.395691	86.316	-3.8124
640.000000	86.323	-3.7210
644.637695	86.330	-3.6290
649.309021	86.338	-3.5388
654.014160	86.347	-3.4507
658.753418	86.356	-3.3593
663.527039	86.366	-3.2643
668.335205	86.376	-3.1680
673.178284	86.385	-3.0687
678.056396	86.395	-2.9697
682.969849	86.405	-2.8740
687.918945	86.416	-2.7767
692.903870	86.428	-2.6773
697.924927	86.440	-2.5760
702.982422	86.454	-2.4715
708.076477	86.467	-2.3647
713.207520	86.481	-2.2575
718.375732	86.496	-2.1493
723.581360	86.511	-2.0390
728.824707	86.528	-1.9296
734.106079	86.544	-1.8217
739.425720	86.560	-1.7138
744.783936	86.578	-1.6036
750.180908	86.598	-1.4906
755.617065	86.617	-1.3739
761.092529	86.635	-1.2561
766.607727	86.654	-1.1398
772.162903	86.673	-1.0260
777.758301	86.693	-0.9159
783.394287	86.713	-0.8037
789.071045	86.733	-0.6856
794.789001	86.755	-0.5644
800.548340	86.777	-0.4459
806.349487	86.800	-0.3296
812.192627	86.824	-0.2108
818.078125	86.849	-0.0924
824.006226	86.874	0.0283
829.977295	86.901	0.1522
835.991699	86.929	0.2762
842.049622	86.958	0.3984
848.151428	86.987	0.5188
854.297485	87.018	0.6398
860.488098	87.049	0.7590
866.723572	87.080	0.8750
873.004211	87.111	0.9950
879.330322	87.144	1.1154
885.702332	87.177	1.2289
892.120483	87.212	1.3405
898.585144	87.247	1.4536
905.096680	87.284	1.5668
911.655396	87.323	1.6781
918.261597	87.362	1.7831
924.915710	87.402	1.8827
931.618042	87.443	1.9814
938.368896	87.486	2.0772
945.168762	87.530	2.1662
952.017822	87.575	2.2514
958.916504	87.622	2.3338
965.865234	87.669	2.4134
972.864319	87.717	2.4897
979.914062	87.765	2.5581
987.014954	87.815	2.6193
994.167236	87.865	2.6748
1001.371399	87.916	2.7239
1008.627747	87.969	2.7674
1015.936646	88.023	2.8082
1023.298584	88.077	2.8430
1030.713867	88.133	2.8650
1038.182739	88.190	2.8787
1045.705933	88.248	2.8896
1053.283447	88.307	2.8943
1060.916016	88.366	2.8896
1068.603882	88.425	2.8711
1076.347412	88.480	2.8419
1084.147095	88.533	2.8081
1092.003296	88.588	2.7686
1099.916382	88.645	2.7197
1107.886841	88.704	2.6597
1115.915039	88.764	2.5880
1124.001343	88.824	2.5092
1132.146362	88.884	2.4231
1140.350342	88.946	2.3268
1148.613770	89.007	2.2198
1156.937134	89.070	2.1062
1165.320801	89.132	1.9822
1173.765137	89.195	1.8473
1182.270752	89.258	1.7028
1190.838013	89.320	1.5462
1199.467285	89.384	1.3806
1208.159180	89.451	1.2107
1216.913940	89.523	1.0307
1225.732178	89.598	0.8350
1234.614380	89.674	0.6288
1243.560913	89.751	0.4142
1252.572266	89.829	0.1870
1261.648926	89.907	-0.0536
1270.791382	89.984	-0.3058
1280.000000	90.062	-0.5682
1289.275391	90.139	-0.8405
1298.618042	90.216	-1.1250
1308.028320	90.293	-1.4234
1317.506836	90.370	-1.7383
1327.054077	90.448	-2.0671
1336.670410	90.525	-2.4070
1346.356567	90.601	-2.7593
1356.112793	90.679	-3.1263
1365.939697	90.758	-3.5111
1375.837891	90.839	-3.9139
1385.807739	90.919	-4.3332
1395.849854	90.999	-4.7676
1405.964844	91.078	-5.2186
1416.152954	91.156	-5.6897
1426.415039	91.233	-6.1795
1436.751465	91.309	-6.6837
1447.162720	91.383	-7.2021
1457.649414	91.455	-7.7390
1468.212158	91.525	-8.2979
1478.851440	91.594	-8.8765
1489.567871	91.660	-9.4733
1500.361816	91.724	-10.0880
1511.234131	91.785	-10.7217
1522.185059	91.842	-11.3732
1533.215454	91.894	-12.0414
1544.325806	91.939	-12.7247
1555.516602	91.981	-13.4227
1566.788574	92.019	-14.1351
1578.142090	92.055	-14.8607
1589.578003	92.087	-15.6003
1601.096680	92.115	-16.3530
1612.698975	92.141	-17.1155
1624.385254	92.163	-17.8877
1636.156250	92.181	-18.6697
1648.012451	92.196	-19.4579
1659.954590	92.206	-20.2498
1671.983398	92.214	-21.0436
1684.099243	92.218	-21.8386
1696.302856	92.218	-22.6322
1708.594971	92.215	-23.4228
1720.976196	92.209	-24.2100
1733.447144	92.200	-24.9911
1746.008423	92.189	-25.7659
1758.660645	92.174	-26.5336
1771.404663	92.156	-27.2898
1784.240967	92.134	-28.0334
1797.170288	92.110	-28.7634
1810.193359	92.082	-29.4774
1823.310791	92.051	-30.1738
1836.523193	92.018	-30.8538
1849.831421	91.981	-31.5177
1863.236084	91.941	-32.1617
1876.737793	91.900	-32.7843
1890.337524	91.856	-33.3848
1904.035645	91.811	-33.9639
1917.833008	91.764	-34.5215
1931.730469	91.714	-35.0577
1945.728638	91.663	-35.5723
1959.828125	91.609	-36.0640
1974.029907	91.554	-36.5326
1988.334473	91.497	-36.9775
2002.742798	91.440	-37.3994
2017.255493	91.382	-37.7984
2031.873291	91.323	-38.1744
2046.597168	91.262	-38.5293
2061.427734	91.201	-38.8642
2076.365479	91.140	-39.1761
2091.411865	91.078	-39.4635
2106.566895	91.016	-39.7281
2121.832031	90.954	-39.9711
2137.207764	90.892	-40.1913
2152.694824	90.830	-40.3896
2168.294189	90.768	-40.5676
2184.006592	90.707	-40.7260
2199.832764	90.645	-40.8650
2215.773682	90.583	-40.9853
2231.830078	90.522	-41.0871
2248.002686	90.461	-41.1692
2264.292725	90.400	-41.2310
2280.700684	90.340	-41.2691
2297.227539	90.280	-41.2833
2313.874268	90.221	-41.2780
2330.641602	90.163	-41.2528
2347.530273	90.106	-41.2083
2364.541504	90.050	-41.1452
2381.676025	89.995	-41.0588
2398.934570	89.942	-40.9488
2416.318359	89.889	-40.8140
2433.827881	89.839	-40.6555
2451.464355	89.791	-40.4832
2469.228760	89.745	-40.3008
2487.121826	89.701	-40.1088
2505.144531	89.659	-39.9158
2523.297852	89.618	-39.7324
2541.582764	89.579	-39.5633
2560.000000	89.539	-39.4075
2578.550781	89.500	-39.2634
2597.236084	89.459	-39.1331
2616.056641	89.415	-39.0142
2635.013672	89.368	-38.8995
2654.108154	89.319	-38.7846
2673.340820	89.266	-38.6608
2692.713135	89.211	-38.5234
2712.225586	89.152	-38.3683
2731.879395	89.091	-38.1835
2751.675781	89.029	-37.9531
2771.615479	88.968	-37.6664
2791.699707	88.909	-37.3225
2811.929688	88.852	-36.9168
2832.305908	88.797	-36.4416
2852.830078	88.745	-35.8958
2873.502930	88.697	-35.2847
2894.325439	88.653	-34.6155
2915.298828	88.616	-33.8959
2936.424316	88.584	-33.1281
2957.702881	88.556	-32.3108
2979.135742	88.534	-31.4468
3000.723633	88.519	-30.5371
3022.468262	88.510	-29.5801
3044.370117	88.509	-28.5770
3066.430908	88.516	-27.5302
3088.651611	88.530	-26.4415
3111.033203	88.553	-25.3106
3133.577148	88.586	-24.1401
3156.284180	88.631	-22.9323
3179.156006	88.688	-21.6895
3202.193359	88.758	-20.4152
3225.397949	88.843	-19.1183
3248.770508	88.943	-17.8074
3272.312500	89.061	-16.4927
3296.024902	89.200	-15.1905
3319.909180	89.358	-13.9310
3343.966797	89.538	-12.7441
3368.198486	89.739	-11.6623
3392.605713	89.957	-10.7174
3417.189941	90.192	-9.9410
3441.952393	90.439	-9.3611
3466.894287	90.692	-8.9893
3492.016846	90.945	-8.8329
3517.321289	91.192	-8.8976
3542.809326	91.428	-9.1697
3568.481934	91.647	-9.6263
3594.340576	91.847	-10.2447
3620.386719	92.025	-10.9913
3646.621582	92.182	-11.8321
3673.046387	92.317	-12.7409
3699.662842	92.432	-13.6934
3726.472168	92.528	-14.6680
3753.475586	92.609	-15.6522
3780.675049	92.675	-16.6425
3808.071289	92.728	-17.6419
3835.666016	92.770	-18.6495
3863.460938	92.803	-19.6636
3891.457275	92.827	-20.6872
3919.656250	92.841	-21.7265
3948.059814	92.847	-22.7895
3976.668945	92.844	-23.8872
4005.485596	92.832	-25.0294
4034.510986	92.806	-26.2107
4063.746582	92.768	-27.4204
4093.194336	92.718	-28.6669
4122.855469	92.650	-29.9564
4152.730957	92.561	-31.2790
4182.823730	92.443	-32.6000
4213.133789	92.296	-33.8740
4243.664062	92.118	-35.0655
4274.415527	91.908	-36.1390
4305.389648	91.669	-37.0711
