* Measurement data measured by REW V5.20.9
* Source: Mic in at rear panel (Pink)(Realtek(R) Audio), MICROPHONE (마스), R, volume: 0.250
* Format: 256k Log Swept Sine, 1 sweep at -12.0 dBFS with no timing reference
* Dated: 2022. 9. 16 오후 10:43:39
* REW Settings:
*  C-weighting compensation: Off
*  Target level: 75.0 dB
* Note: 
* Measurement: R
* Smoothing: 1/24 octave
* Frequency Step: 1/48 octave
* Start Frequency: 20.300 Hz
*
* Freq(Hz)	SPL(dB)	Phase(degrees)
20.299999	70.125	-145.6034
20.600000	70.150	-146.0551
20.900000	70.195	-146.8669
21.200001	70.227	-147.6490
21.400000	70.239	-148.1464
21.799999	70.251	-149.1066
22.000000	70.252	-149.5720
22.400000	70.251	-150.4552
22.700001	70.250	-151.0769
23.000000	70.253	-151.6788
23.299999	70.262	-152.2787
23.600000	70.276	-152.8923
24.000000	70.300	-153.7489
24.299999	70.318	-154.4193
24.700001	70.338	-155.3267
25.000000	70.349	-155.9897
25.400000	70.358	-156.8171
25.799999	70.368	-157.5677
26.200001	70.383	-158.2666
26.500000	70.398	-158.7845
26.900000	70.415	-159.4925
27.200001	70.423	-160.0369
27.600000	70.424	-160.7578
28.000000	70.415	-161.4337
28.500000	70.400	-162.1888
29.000000	70.391	-162.8886
29.500000	70.387	-163.6068
30.000000	70.380	-164.3647
30.400000	70.371	-164.9693
30.700001	70.363	-165.4047
31.100000	70.355	-165.9600
31.500000	70.350	-166.5046
32.000000	70.349	-167.2016
32.500000	70.345	-167.9107
33.000000	70.338	-168.5788
33.500000	70.333	-169.1673
34.000000	70.337	-169.6939
34.500000	70.347	-170.2132
35.000000	70.358	-170.7604
35.500000	70.361	-171.3306
36.000000	70.354	-171.8939
36.500000	70.338	-172.4242
37.000000	70.315	-172.9115
37.500000	70.290	-173.3648
38.200001	70.257	-173.9950
38.700001	70.235	-174.4898
39.500000	70.192	-175.4055
40.000000	70.154	-176.0045
40.599998	70.102	-176.6450
41.200001	70.064	-177.1647
41.799999	70.058	-177.6909
42.500000	70.072	-178.5264
43.099998	70.064	-179.3959
43.700001	70.028	179.8220
44.400002	69.976	179.1912
45.000000	69.949	178.8235
45.500000	69.942	178.5319
46.200001	69.942	178.0452
46.799999	69.936	177.5336
47.500000	69.907	176.9222
48.200001	69.868	176.4294
48.700001	69.851	176.1225
49.400002	69.841	175.5877
50.000000	69.821	175.0069
50.799999	69.766	174.3227
51.500000	69.725	173.9339
52.200001	69.710	173.5729
53.000000	69.699	173.0792
53.799999	69.683	172.6178
54.500000	69.673	172.2408
55.200001	69.663	171.8162
56.000000	69.636	171.3030
57.000000	69.586	170.7112
58.000000	69.527	170.1683
59.000000	69.468	169.6518
60.000000	69.412	169.0982
60.799999	69.368	168.6456
61.500000	69.333	168.2645
62.200001	69.302	167.8852
63.000000	69.268	167.4589
64.000000	69.226	166.9811
65.000000	69.192	166.5339
66.000000	69.156	166.0653
67.000000	69.111	165.6143
68.000000	69.062	165.1931
69.000000	69.012	164.7762
70.000000	68.962	164.3640
71.000000	68.914	163.9381
72.000000	68.865	163.4993
73.000000	68.816	163.0731
74.000000	68.766	162.6769
75.000000	68.720	162.3135
76.199997	68.667	161.8967
77.500000	68.610	161.4668
78.800003	68.551	161.0471
80.000000	68.490	160.6677
81.199997	68.426	160.3160
82.500000	68.360	159.9438
83.800003	68.297	159.5359
85.000000	68.237	159.1613
86.199997	68.186	158.8379
87.500000	68.141	158.4504
88.500000	68.103	158.1381
90.000000	68.034	157.7249
91.199997	67.976	157.4742
92.500000	67.914	157.2385
93.800003	67.859	156.9971
95.000000	67.812	156.6889
96.199997	67.752	156.3584
97.500000	67.682	156.1007
98.800003	67.622	155.9495
100.000000	67.582	155.8393
101.500000	67.542	155.5923
103.000000	67.486	155.2472
104.400002	67.422	154.9166
106.000000	67.338	154.5499
107.500000	67.258	154.2983
109.000000	67.193	154.0969
110.599998	67.136	153.8105
112.000000	67.087	153.5242
113.800003	67.025	153.1929
115.000000	66.985	153.0491
117.199997	66.915	153.0557
118.000000	66.899	153.1271
120.599998	66.858	152.8180
122.000000	66.771	152.4259
124.099998	66.629	152.1528
125.000000	66.584	152.0690
126.500000	66.524	151.9103
128.000000	66.469	151.7537
131.500000	66.331	151.4457
132.000000	66.310	151.3984
134.000000	66.220	151.2209
136.000000	66.134	151.0776
138.000000	66.054	150.9138
140.000000	65.965	150.7338
143.000000	65.827	150.6558
145.000000	65.742	150.6948
147.500000	65.632	150.7735
150.000000	65.517	150.9070
152.500000	65.409	151.1751
155.000000	65.316	151.6212
157.500000	65.252	152.1644
160.000000	65.231	152.6735
162.500000	65.256	153.0513
165.000000	65.299	153.1645
167.500000	65.322	152.9564
170.000000	65.309	152.5671
172.500000	65.271	152.2068
175.000000	65.216	151.9351
177.500000	65.152	151.7518
180.000000	65.090	151.6465
182.500000	65.038	151.6035
185.000000	64.985	151.5530
187.500000	64.923	151.4825
190.000000	64.864	151.4243
192.500000	64.817	151.3480
195.000000	64.770	151.2697
197.500000	64.721	151.2232
200.000000	64.672	151.1534
203.000000	64.607	151.0516
206.000000	64.539	150.9866
209.000000	64.469	150.9295
212.000000	64.396	150.8860
214.000000	64.349	150.8678
218.000000	64.263	150.8607
220.000000	64.222	150.8778
224.000000	64.135	150.9329
227.000000	64.064	151.0431
230.000000	63.995	151.1844
233.000000	63.925	151.3050
236.000000	63.855	151.4649
240.000000	63.765	151.7698
243.000000	63.702	152.0551
247.000000	63.638	152.5362
250.000000	63.611	152.9128
254.000000	63.610	153.2742
258.000000	63.621	153.3604
262.000000	63.602	153.2646
265.000000	63.569	153.1714
269.000000	63.510	153.0887
272.000000	63.462	153.0518
276.000000	63.400	153.0507
280.000000	63.341	153.1228
285.000000	63.269	153.2515
290.000000	63.196	153.4351
295.000000	63.120	153.6785
300.000000	63.045	153.9211
304.000000	62.991	154.1458
307.000000	62.955	154.3507
311.000000	62.914	154.6662
315.000000	62.882	155.0080
320.000000	62.857	155.3723
325.000000	62.848	155.6236
330.000000	62.837	155.8037
335.000000	62.816	155.9428
340.000000	62.781	156.0628
345.000000	62.733	156.1771
350.000000	62.686	156.3432
355.000000	62.638	156.5291
360.000000	62.592	156.7241
365.000000	62.551	156.9461
370.000000	62.511	157.1949
375.000000	62.474	157.4456
382.000000	62.421	157.7800
387.000000	62.381	158.0174
395.000000	62.315	158.3595
400.000000	62.277	158.5779
406.000000	62.241	158.8834
412.000000	62.206	159.2088
418.000000	62.168	159.5323
425.000000	62.125	159.8754
431.000000	62.093	160.1542
437.000000	62.063	160.4463
444.000000	62.029	160.7923
450.000000	62.002	161.0923
455.000000	61.982	161.3457
462.000000	61.956	161.7092
468.000000	61.932	162.0234
475.000000	61.904	162.3767
482.000000	61.880	162.7108
487.000000	61.864	162.9543
494.000000	61.845	163.3146
500.000000	61.828	163.6253
508.000000	61.808	164.0276
515.000000	61.793	164.3895
522.000000	61.776	164.7621
530.000000	61.760	165.1667
538.000000	61.747	165.5731
545.000000	61.734	165.9296
552.000000	61.721	166.2910
560.000000	61.707	166.7097
570.000000	61.692	167.2290
580.000000	61.680	167.7065
590.000000	61.675	168.2089
600.000000	61.677	168.7288
608.000000	61.672	169.1571
615.000000	61.668	169.5382
622.000000	61.665	169.9030
630.000000	61.661	170.2874
640.000000	61.658	170.7589
650.000000	61.661	171.2744
660.000000	61.667	171.7906
670.000000	61.678	172.3067
680.000000	61.686	172.8165
690.000000	61.694	173.3215
700.000000	61.701	173.8170
710.000000	61.711	174.3255
720.000000	61.725	174.8203
730.000000	61.738	175.3112
740.000000	61.756	175.8354
750.000000	61.780	176.3663
762.000000	61.807	176.9756
775.000000	61.838	177.6163
788.000000	61.873	178.2595
800.000000	61.907	178.8483
812.000000	61.946	179.4149
825.000000	61.993	-179.9717
838.000000	62.047	-179.3416
850.000000	62.100	-178.7724
862.000000	62.153	-178.2127
875.000000	62.214	-177.6197
885.000000	62.262	-177.1806
900.000000	62.340	-176.5745
912.000000	62.407	-176.1015
925.000000	62.482	-175.5859
938.000000	62.560	-175.1022
950.000000	62.635	-174.6725
962.000000	62.713	-174.2623
975.000000	62.796	-173.8572
988.000000	62.881	-173.5031
1000.000000	62.963	-173.1963
1015.000000	63.071	-172.7895
1030.000000	63.179	-172.4229
1044.000000	63.282	-172.1238
1060.000000	63.399	-171.8036
1075.000000	63.504	-171.5316
1090.000000	63.612	-171.3039
1106.000000	63.735	-171.1253
1120.000000	63.845	-170.9921
1138.000000	63.986	-170.8259
1150.000000	64.079	-170.7354
1172.000000	64.246	-170.6185
1180.000000	64.307	-170.5831
1206.000000	64.497	-170.4797
1220.000000	64.596	-170.4545
1241.000000	64.744	-170.4350
1250.000000	64.807	-170.4253
1265.000000	64.911	-170.4088
1280.000000	65.015	-170.3964
1315.000000	65.252	-170.3941
1320.000000	65.285	-170.3926
1340.000000	65.417	-170.3873
1360.000000	65.545	-170.3817
1380.000000	65.677	-170.3889
1400.000000	65.815	-170.4078
1430.000000	66.025	-170.4511
1450.000000	66.169	-170.4804
1475.000000	66.352	-170.5502
1500.000000	66.539	-170.6453
1525.000000	66.729	-170.7828
1550.000000	66.920	-170.9637
1575.000000	67.117	-171.1773
1600.000000	67.318	-171.4365
1625.000000	67.524	-171.7617
1650.000000	67.731	-172.1794
1675.000000	67.937	-172.6788
1700.000000	68.143	-173.2739
1725.000000	68.346	-173.9867
1750.000000	68.542	-174.8114
1775.000000	68.731	-175.7553
1800.000000	68.910	-176.8459
1825.000000	69.069	-178.1282
1850.000000	69.189	-179.6101
1875.000000	69.243	178.8130
1900.000000	69.214	177.3901
1925.000000	69.117	176.4669
1950.000000	69.006	176.2855
1975.000000	68.951	176.7757
2000.000000	68.994	177.5818
2030.000000	69.173	178.4438
2060.000000	69.436	178.8641
2090.000000	69.729	178.7621
2120.000000	70.022	178.2328
2140.000000	70.210	177.6985
2180.000000	70.559	176.3005
2200.000000	70.718	175.4756
2240.000000	71.007	173.6587
2270.000000	71.199	172.1928
2300.000000	71.372	170.6641
2330.000000	71.529	169.0811
2360.000000	71.670	167.4589
2400.000000	71.836	165.2511
2430.000000	71.947	163.5709
2470.000000	72.082	161.3162
2500.000000	72.173	159.6066
2540.000000	72.288	157.2739
2580.000000	72.397	154.8495
2620.000000	72.505	152.2940
2650.000000	72.590	150.2258
2690.000000	72.706	147.1160
2720.000000	72.787	144.3734
2760.000000	72.847	139.9017
2800.000000	72.759	134.2823
2850.000000	72.183	126.3184
2900.000000	70.866	121.4707
2950.000000	69.392	123.5959
3000.000000	68.672	128.1828
3040.000000	68.439	130.3182
3070.000000	68.246	131.2828
3110.000000	67.949	132.7987
3150.000000	67.728	134.7699
3200.000000	67.594	137.1252
3250.000000	67.512	139.2661
3300.000000	67.500	141.6130
3350.000000	67.634	143.6829
3400.000000	67.834	144.8437
3450.000000	68.006	145.3154
3500.000000	68.134	145.5267
3550.000000	68.234	145.6939
3600.000000	68.322	145.8848
3650.000000	68.412	146.0935
3700.000000	68.511	146.2745
3750.000000	68.618	146.3683
3820.000000	68.772	146.3113
3870.000000	68.883	146.1121
3950.000000	69.040	145.3780
4000.000000	69.093	144.6629
4060.000000	69.071	143.8902
4120.000000	69.011	143.8031
4180.000000	69.050	144.2031
4250.000000	69.228	144.0070
4310.000000	69.342	142.7502
4370.000000	69.257	141.0894
4440.000000	68.934	140.7757
4500.000000	68.800	142.3024
4550.000000	68.907	143.5070
4620.000000	69.206	143.7623
4680.000000	69.441	142.7219
4750.000000	69.597	140.4933
4820.000000	69.571	137.7178
4870.000000	69.435	135.6786
4940.000000	69.022	133.1878
5000.000000	68.442	132.8408
5080.000000	67.832	136.3425
5150.000000	67.887	140.1034
5220.000000	68.251	141.8113
5300.000000	68.634	141.1206
5380.000000	68.777	138.9639
5450.000000	68.745	137.2414
5520.000000	68.718	135.6149
5600.000000	68.631	132.5342
5700.000000	67.998	128.2517
5800.000000	66.906	128.0626
5900.000000	65.977	131.9355
6000.000000	65.632	137.3992
6080.000000	65.714	139.9442
6150.000000	65.709	140.4144
6220.000000	65.458	140.6000
6300.000000	64.928	142.5886
6400.000000	64.406	148.6754
6500.000000	64.455	155.5905
6600.000000	64.803	160.7639
6700.000000	65.134	164.6613
6800.000000	65.393	168.5948
6900.000000	65.681	173.7730
7000.000000	66.375	-178.6152
7100.000000	68.171	-169.8994
7200.000000	70.691	-166.8975
7300.000000	72.546	-173.8144
7400.000000	73.380	175.6977
7500.000000	73.710	167.4031
7620.000000	74.014	159.8459
7750.000000	74.253	152.0181
7880.000000	74.191	144.6495
8000.000000	74.016	139.0113
8120.000000	73.893	133.3192
8250.000000	73.627	125.8805
8380.000000	72.975	118.4198
8500.000000	72.087	113.4087
8620.000000	71.178	110.2944
8750.000000	70.297	107.5698
8850.000000	69.620	105.4652
9000.000000	68.519	102.8181
9120.000000	67.616	101.3320
9250.000000	66.670	99.6710
9380.000000	65.656	97.2647
9500.000000	64.474	94.9529
9620.000000	62.950	94.2650
9750.000000	61.012	97.1176
9880.000000	59.074	103.9889
10000.000000	57.563	112.8966
10150.000000	56.243	125.7342
10300.000000	55.557	138.7845
10440.000000	55.372	149.9572
10600.000000	55.456	160.7581
10750.000000	55.608	169.2794
10900.000000	55.738	177.1582
11060.000000	55.888	-174.1763
11200.000000	56.167	-166.0723
11380.000000	56.942	-155.8946
11500.000000	57.685	-150.3065
11720.000000	59.133	-143.9674
11800.000000	59.606	-142.7780
12060.000000	60.829	-141.0948
12200.000000	61.308	-140.7913
12410.000000	61.858	-140.7121
12500.000000	62.045	-140.8127
12650.000000	62.295	-141.1543
12800.000000	62.469	-141.6510
13150.000000	62.567	-142.8123
13200.000000	62.548	-142.9022
13400.000000	62.403	-142.8460
13600.000000	62.201	-141.8645
13800.000000	62.072	-139.8968
14000.000000	62.117	-137.6720
14300.000000	62.358	-135.8308
14500.000000	62.444	-135.6681
14750.000000	62.372	-135.5584
15000.000000	62.195	-134.4506
15250.000000	62.150	-132.2211
15500.000000	62.458	-130.0160
15750.000000	63.135	-129.3404
16000.000000	64.022	-131.8355
16250.000000	64.787	-139.2789
16500.000000	64.901	-151.7068
16750.000000	63.972	-165.0651
17000.000000	62.091	-173.9771
17250.000000	59.739	-176.6691
17500.000000	57.416	-174.5273
17750.000000	55.371	-169.3817
18000.000000	53.650	-162.4654
18250.000000	52.288	-154.7242
18500.000000	51.325	-147.6219
18750.000000	50.638	-143.0992
19000.000000	49.825	-142.3728
19250.000000	48.344	-143.4608
19500.000000	45.832	-139.4672
19750.000000	42.487	-123.6476
20000.000000	39.481	-98.4007
