* Measurement data measured by REW V5.20.13
* Source: EXCL: Mic in at rear panel (Pink)(Realtek(R) Audio), MICROPHONE (마스), L, volume: 1.000
* Format: 256k Log Swept Sine, 1 sweep at -12.0 dBFS with no timing reference
* Dated: 2022. 12. 24 오후 6:54:18
* REW Settings:
*  C-weighting compensation: Off
*  Target level: 75.0 dB
* Note: 
* Measurement: L
* Smoothing: 1/24 octave
* Frequency Step: 1/48 octave
* Start Frequency: 20.300 Hz
*
* Freq(Hz)	SPL(dB)	Phase(degrees)
20.299999	91.885	170.7765
20.600000	91.872	170.5197
20.900000	91.843	170.0606
21.200001	91.812	169.6195
21.400000	91.791	169.3275
21.799999	91.743	168.7188
22.000000	91.716	168.3969
22.400000	91.656	167.7363
22.700001	91.609	167.2411
23.000000	91.563	166.7507
23.299999	91.520	166.2614
23.600000	91.481	165.7657
24.000000	91.436	165.0842
24.299999	91.406	164.5568
24.700001	91.366	163.8456
25.000000	91.337	163.3235
25.400000	91.296	162.6643
25.799999	91.258	162.0577
26.200001	91.224	161.4960
26.500000	91.199	161.0937
26.900000	91.164	160.5733
27.200001	91.136	160.1951
27.600000	91.094	159.7147
28.000000	91.049	159.2708
28.500000	90.992	158.7626
29.000000	90.938	158.2681
29.500000	90.885	157.7414
30.000000	90.827	157.1705
30.400000	90.774	156.7044
30.700001	90.731	156.3653
31.100000	90.674	155.9382
31.500000	90.619	155.5324
32.000000	90.557	155.0206
32.500000	90.499	154.4693
33.000000	90.440	153.8881
33.500000	90.377	153.3262
34.000000	90.315	152.8248
34.500000	90.258	152.3775
35.000000	90.207	151.9486
35.500000	90.159	151.5118
36.000000	90.111	151.0692
36.500000	90.060	150.6322
37.000000	90.006	150.2035
37.500000	89.950	149.7832
38.200001	89.862	149.2308
38.700001	89.797	148.8788
39.500000	89.702	148.3522
40.000000	89.648	148.0010
40.599998	89.582	147.5476
41.200001	89.510	147.1038
41.799999	89.439	146.7041
42.500000	89.362	146.2663
43.099998	89.301	145.8734
43.700001	89.236	145.4809
44.400002	89.157	145.0735
45.000000	89.095	144.7513
45.500000	89.047	144.4564
46.200001	88.978	143.9842
46.799999	88.913	143.5600
47.500000	88.834	143.0721
48.200001	88.754	142.5849
48.700001	88.694	142.2550
49.400002	88.610	141.8599
50.000000	88.544	141.5787
50.799999	88.464	141.2474
51.500000	88.400	141.0026
52.200001	88.346	140.7799
53.000000	88.291	140.4604
53.799999	88.222	140.0722
54.500000	88.147	139.7734
55.200001	88.070	139.5425
56.000000	87.992	139.2935
57.000000	87.900	138.9128
58.000000	87.803	138.4721
59.000000	87.697	138.0702
60.000000	87.591	137.7549
60.799999	87.510	137.5548
61.500000	87.444	137.4176
62.200001	87.385	137.2900
63.000000	87.324	137.0979
64.000000	87.239	136.7778
65.000000	87.140	136.4808
66.000000	87.047	136.2453
67.000000	86.968	135.9406
68.000000	86.880	135.5577
69.000000	86.785	135.2435
70.000000	86.698	134.9911
71.000000	86.618	134.7435
72.000000	86.540	134.4951
73.000000	86.457	134.2514
74.000000	86.371	134.0539
75.000000	86.289	133.8873
76.199997	86.197	133.6585
77.500000	86.098	133.3431
78.800003	85.992	132.9678
80.000000	85.886	132.6665
81.199997	85.784	132.4560
82.500000	85.691	132.2952
83.800003	85.606	132.1022
85.000000	85.521	131.9471
86.199997	85.431	131.8279
87.500000	85.328	131.7589
88.500000	85.255	131.7296
90.000000	85.160	131.5250
91.199997	85.073	131.2573
92.500000	84.968	131.0494
93.800003	84.876	131.0015
95.000000	84.813	131.0122
96.199997	84.763	130.9313
97.500000	84.690	130.6929
98.800003	84.586	130.4949
100.000000	84.485	130.4219
101.500000	84.375	130.3736
103.000000	84.282	130.3073
104.400002	84.206	130.2448
106.000000	84.121	130.1323
107.500000	84.028	130.0783
109.000000	83.939	130.0737
110.599998	83.843	130.0083
112.000000	83.757	129.9403
113.800003	83.651	129.8330
115.000000	83.584	129.7572
117.199997	83.476	129.5766
118.000000	83.438	129.4754
120.599998	83.288	129.2901
122.000000	83.218	129.3383
124.099998	83.119	129.3690
125.000000	83.072	129.3824
126.500000	82.993	129.4203
128.000000	82.913	129.4668
131.500000	82.726	129.5210
132.000000	82.699	129.5308
134.000000	82.599	129.5429
136.000000	82.504	129.5060
138.000000	82.415	129.4814
140.000000	82.328	129.5149
143.000000	82.197	129.5724
145.000000	82.097	129.5962
147.500000	81.975	129.6931
150.000000	81.872	129.8230
152.500000	81.777	129.9071
155.000000	81.674	130.0078
157.500000	81.567	130.1074
160.000000	81.458	130.2048
162.500000	81.353	130.3835
165.000000	81.261	130.6457
167.500000	81.173	130.8768
170.000000	81.078	131.0377
172.500000	80.977	131.2388
175.000000	80.889	131.5274
177.500000	80.804	131.8284
180.000000	80.717	132.1162
182.500000	80.631	132.4034
185.000000	80.553	132.7648
187.500000	80.486	133.2515
190.000000	80.435	133.8119
192.500000	80.406	134.3524
195.000000	80.409	134.7932
197.500000	80.435	135.0477
200.000000	80.465	135.1537
203.000000	80.502	135.1202
206.000000	80.526	134.8659
209.000000	80.511	134.3961
212.000000	80.457	133.8424
214.000000	80.412	133.5020
218.000000	80.297	132.9379
220.000000	80.224	132.6879
224.000000	80.069	132.3731
227.000000	79.967	132.3288
230.000000	79.870	132.3188
233.000000	79.768	132.3492
236.000000	79.673	132.4434
240.000000	79.558	132.5472
243.000000	79.470	132.6341
247.000000	79.349	132.7861
250.000000	79.260	132.8920
254.000000	79.150	133.0489
258.000000	79.047	133.2625
262.000000	78.950	133.5231
265.000000	78.874	133.7080
269.000000	78.772	133.9527
272.000000	78.701	134.1326
276.000000	78.617	134.3649
280.000000	78.534	134.5980
285.000000	78.433	134.9000
290.000000	78.341	135.2148
295.000000	78.242	135.6123
300.000000	78.142	135.8967
304.000000	78.066	136.0404
307.000000	78.012	136.2385
311.000000	77.947	136.6267
315.000000	77.892	136.9738
320.000000	77.825	137.3007
325.000000	77.753	137.6098
330.000000	77.688	137.8972
335.000000	77.624	138.0988
340.000000	77.562	138.3284
345.000000	77.498	138.6229
350.000000	77.428	138.8887
355.000000	77.349	139.2370
360.000000	77.269	139.5602
365.000000	77.192	139.8210
370.000000	77.117	140.1163
375.000000	77.041	140.4629
382.000000	76.955	140.8497
387.000000	76.896	141.1255
395.000000	76.767	141.6845
400.000000	76.684	141.9982
406.000000	76.598	142.3724
412.000000	76.533	142.7590
418.000000	76.475	143.1554
425.000000	76.383	143.6439
431.000000	76.301	144.0820
437.000000	76.232	144.5726
444.000000	76.167	145.0741
450.000000	76.114	145.4870
455.000000	76.071	145.8416
462.000000	76.007	146.2588
468.000000	75.944	146.6616
475.000000	75.876	147.1868
482.000000	75.813	147.7014
487.000000	75.770	148.0671
494.000000	75.710	148.5807
500.000000	75.657	149.0524
508.000000	75.590	149.7058
515.000000	75.532	150.2550
522.000000	75.479	150.7602
530.000000	75.427	151.2414
538.000000	75.365	151.8131
545.000000	75.318	152.3765
552.000000	75.285	152.9435
560.000000	75.251	153.6235
570.000000	75.206	154.4996
580.000000	75.158	155.2700
590.000000	75.104	155.9691
600.000000	75.046	156.7756
608.000000	75.001	157.3725
615.000000	74.967	157.9110
622.000000	74.944	158.5079
630.000000	74.920	159.1945
640.000000	74.879	160.0508
650.000000	74.841	160.9667
660.000000	74.817	161.8702
670.000000	74.818	162.6427
680.000000	74.836	163.2382
690.000000	74.836	163.7572
700.000000	74.807	164.4280
710.000000	74.771	165.2170
720.000000	74.754	166.0159
730.000000	74.739	166.7688
740.000000	74.707	167.4796
750.000000	74.666	168.2460
762.000000	74.614	169.4332
775.000000	74.613	171.0939
788.000000	74.692	172.3882
800.000000	74.762	173.2882
812.000000	74.814	174.1213
825.000000	74.861	175.0144
838.000000	74.895	175.9787
850.000000	74.927	176.8990
862.000000	74.974	177.7408
875.000000	75.034	178.5549
885.000000	75.087	179.1299
900.000000	75.176	-179.9282
912.000000	75.248	-179.1044
925.000000	75.324	-178.2947
938.000000	75.396	-177.5149
950.000000	75.462	-176.8195
962.000000	75.534	-176.2129
975.000000	75.624	-175.6304
988.000000	75.718	-175.1568
1000.000000	75.809	-174.7234
1015.000000	75.927	-173.9807
1030.000000	76.031	-173.3087
1044.000000	76.126	-172.8126
1060.000000	76.241	-172.3223
1075.000000	76.345	-171.8548
1090.000000	76.452	-171.4490
1106.000000	76.582	-171.0859
1120.000000	76.700	-170.7723
1138.000000	76.831	-170.4110
1150.000000	76.910	-170.2148
1172.000000	77.061	-169.9034
1180.000000	77.117	-169.7900
1206.000000	77.294	-169.4293
1220.000000	77.385	-169.2631
1241.000000	77.512	-169.0010
1250.000000	77.567	-168.8959
1265.000000	77.660	-168.7392
1280.000000	77.747	-168.5941
1315.000000	77.925	-168.2587
1320.000000	77.952	-168.1978
1340.000000	78.065	-167.9349
1360.000000	78.166	-167.6848
1380.000000	78.260	-167.4557
1400.000000	78.364	-167.2086
1430.000000	78.522	-166.8101
1450.000000	78.625	-166.5490
1475.000000	78.759	-166.1963
1500.000000	78.893	-165.8207
1525.000000	79.025	-165.4865
1550.000000	79.166	-165.1366
1575.000000	79.308	-164.7687
1600.000000	79.454	-164.4163
1625.000000	79.604	-164.0658
1650.000000	79.750	-163.7413
1675.000000	79.902	-163.4648
1700.000000	80.070	-163.1839
1725.000000	80.241	-162.8811
1750.000000	80.404	-162.5791
1775.000000	80.567	-162.3646
1800.000000	80.733	-162.2087
1825.000000	80.905	-162.0355
1850.000000	81.083	-161.8710
1875.000000	81.263	-161.7637
1900.000000	81.446	-161.6752
1925.000000	81.634	-161.6141
1950.000000	81.826	-161.6047
1975.000000	82.017	-161.6499
2000.000000	82.209	-161.7288
2030.000000	82.446	-161.9009
2060.000000	82.681	-162.1586
2090.000000	82.918	-162.4727
2120.000000	83.156	-162.8585
2140.000000	83.315	-163.1637
2180.000000	83.630	-163.9062
2200.000000	83.785	-164.3480
2240.000000	84.085	-165.3495
2270.000000	84.301	-166.1877
2300.000000	84.513	-167.1066
2330.000000	84.716	-168.1121
2360.000000	84.910	-169.2071
2400.000000	85.150	-170.7941
2430.000000	85.313	-172.0650
2470.000000	85.509	-173.8560
2500.000000	85.638	-175.2644
2540.000000	85.786	-177.1979
2580.000000	85.902	-179.1601
2620.000000	85.983	178.8771
2650.000000	86.023	177.4163
2690.000000	86.051	175.5247
2720.000000	86.053	174.1592
2760.000000	86.031	172.4145
2800.000000	85.986	170.7746
2850.000000	85.901	168.8996
2900.000000	85.788	167.2468
2950.000000	85.659	165.8233
3000.000000	85.522	164.6091
3040.000000	85.404	163.8174
3070.000000	85.313	163.3231
3110.000000	85.189	162.7614
3150.000000	85.070	162.3122
3200.000000	84.927	161.9346
3250.000000	84.793	161.7222
3300.000000	84.666	161.6563
3350.000000	84.548	161.7340
3400.000000	84.443	161.9334
3450.000000	84.358	162.2261
3500.000000	84.295	162.6201
3550.000000	84.251	163.1213
3600.000000	84.222	163.7058
3650.000000	84.208	164.3449
3700.000000	84.210	165.0166
3750.000000	84.228	165.7382
3820.000000	84.289	166.8181
3870.000000	84.354	167.6003
3950.000000	84.499	168.8664
4000.000000	84.619	169.6297
4060.000000	84.794	170.5139
4120.000000	85.012	171.3046
4180.000000	85.275	171.8829
4250.000000	85.634	172.1319
4310.000000	85.966	171.7971
4370.000000	86.277	170.8435
4440.000000	86.540	169.0357
4500.000000	86.649	167.2952
4550.000000	86.669	166.0977
4620.000000	86.660	165.1118
4680.000000	86.689	164.7836
4750.000000	86.810	164.5675
4820.000000	87.016	164.1072
4870.000000	87.194	163.4800
4940.000000	87.455	162.0904
5000.000000	87.670	160.3808
5080.000000	87.908	157.4061
5150.000000	88.041	154.2484
5220.000000	88.074	150.7096
5300.000000	87.972	146.4655
5380.000000	87.718	142.3362
5450.000000	87.381	139.0731
5520.000000	86.958	136.3005
5600.000000	86.399	133.8284
5700.000000	85.638	131.8418
5800.000000	84.860	131.0045
5900.000000	84.099	131.1580
6000.000000	83.385	132.1083
6080.000000	82.854	133.3363
6150.000000	82.419	134.7044
6220.000000	82.010	136.3281
6300.000000	81.561	138.5424
6400.000000	81.025	142.2377
6500.000000	80.680	147.6287
6600.000000	80.845	152.6469
6700.000000	81.068	154.5437
6800.000000	81.028	155.9822
6900.000000	80.963	158.3493
7000.000000	80.998	161.2225
7100.000000	81.149	164.2684
7200.000000	81.414	167.2840
7300.000000	81.798	170.0361
7400.000000	82.307	172.2812
7500.000000	82.939	173.7740
7620.000000	83.839	174.1057
7750.000000	84.866	171.9526
7880.000000	85.691	166.7364
8000.000000	86.090	159.5283
8120.000000	86.030	151.2687
8250.000000	85.453	143.1007
8380.000000	84.492	137.2013
8500.000000	83.439	134.0466
8620.000000	82.352	132.7616
8750.000000	81.210	133.0386
8850.000000	80.385	134.1591
9000.000000	79.271	136.9346
9120.000000	78.507	139.8321
9250.000000	77.812	143.3640
9380.000000	77.246	147.1014
9500.000000	76.837	150.5315
9620.000000	76.519	153.7855
9750.000000	76.251	156.9563
9880.000000	76.044	159.6156
10000.000000	75.881	161.5820
10150.000000	75.672	163.3426
10300.000000	75.406	164.4716
10440.000000	75.066	165.2152
10600.000000	74.552	166.0507
10750.000000	73.952	167.1758
10900.000000	73.269	168.8982
11060.000000	72.497	171.5424
11200.000000	71.809	174.5417
11380.000000	70.940	179.3600
11500.000000	70.409	-176.8265
11720.000000	69.595	-169.1113
11800.000000	69.352	-166.1839
12060.000000	68.715	-156.3764
12200.000000	68.450	-150.9691
12410.000000	68.128	-142.9398
12500.000000	68.020	-139.5214
12650.000000	67.898	-133.8569
12800.000000	67.862	-128.2269
13150.000000	68.094	-115.3240
13200.000000	68.176	-113.5414
13400.000000	68.645	-106.7725
13600.000000	69.344	-100.8249
13800.000000	70.326	-96.1669
14000.000000	71.610	-93.8468
14300.000000	73.716	-98.1387
14500.000000	74.632	-107.9453
14750.000000	74.495	-124.1996
15000.000000	73.020	-135.9895
15250.000000	71.002	-140.3593
15500.000000	69.110	-139.2821
15750.000000	67.684	-134.9604
16000.000000	66.784	-129.1234
16250.000000	66.409	-122.7888
16500.000000	66.550	-116.9172
16750.000000	67.152	-112.5330
17000.000000	68.128	-110.3632
17250.000000	69.406	-111.2502
17500.000000	70.819	-116.4000
17750.000000	71.970	-126.7492
18000.000000	72.410	-141.0552
18250.000000	71.977	-154.9590
18500.000000	70.918	-164.5093
18750.000000	69.732	-169.1595
19000.000000	68.819	-170.7473
19250.000000	68.306	-171.6185
19500.000000	68.076	-173.9573
19750.000000	67.887	-178.4679
20000.000000	67.669	177.2682
