* Measurement data measured by REW V5.20.13
* Source: EXCL: Mic in at rear panel (Pink)(Realtek(R) Audio), MICROPHONE (마스), L, volume: 1.000
* Format: 256k Log Swept Sine, 1 sweep at -12.0 dBFS with no timing reference
* Dated: 2023. 1. 3 오전 11:50:32
* REW Settings:
*  C-weighting compensation: Off
*  Target level: 75.0 dB
* Note: 
* Measurement: L
* Smoothing: 1/24 octave
* Frequency Step: 1/48 octave
* Start Frequency: 20.300 Hz
*
* Freq(Hz)	SPL(dB)	Phase(degrees)
20.299999	86.113	-144.3301
20.600000	86.145	-144.5081
20.900000	86.209	-144.8210
21.200001	86.265	-145.1093
21.400000	86.300	-145.2968
21.799999	86.362	-145.6904
22.000000	86.391	-145.9037
22.400000	86.443	-146.3538
22.700001	86.477	-146.7012
23.000000	86.507	-147.0512
23.299999	86.537	-147.4021
23.600000	86.568	-147.7554
24.000000	86.612	-148.2347
24.299999	86.647	-148.6032
24.700001	86.692	-149.1023
25.000000	86.724	-149.4729
25.400000	86.764	-149.9447
25.799999	86.803	-150.3790
26.200001	86.845	-150.7811
26.500000	86.878	-151.0719
26.900000	86.922	-151.4563
27.200001	86.952	-151.7441
27.600000	86.988	-152.1223
28.000000	87.021	-152.4865
28.500000	87.059	-152.9230
29.000000	87.091	-153.3529
29.500000	87.117	-153.7751
30.000000	87.140	-154.1690
30.400000	87.162	-154.4686
30.700001	87.181	-154.7019
31.100000	87.209	-155.0522
31.500000	87.231	-155.4510
32.000000	87.247	-155.9598
32.500000	87.251	-156.3810
33.000000	87.264	-156.6882
33.500000	87.299	-156.9704
34.000000	87.348	-157.3365
34.500000	87.391	-157.7956
35.000000	87.417	-158.2618
35.500000	87.435	-158.6485
36.000000	87.457	-158.9575
36.500000	87.487	-159.2544
37.000000	87.517	-159.5843
37.500000	87.540	-159.9271
38.200001	87.560	-160.3546
38.700001	87.573	-160.6215
39.500000	87.597	-161.0617
40.000000	87.611	-161.3583
40.599998	87.625	-161.7171
41.200001	87.639	-162.0741
41.799999	87.654	-162.4411
42.500000	87.669	-162.8748
43.099998	87.683	-163.2225
43.700001	87.699	-163.5368
44.400002	87.720	-163.8857
45.000000	87.741	-164.1985
45.500000	87.756	-164.4758
46.200001	87.768	-164.8587
46.799999	87.772	-165.1284
47.500000	87.781	-165.3634
48.200001	87.803	-165.6026
48.700001	87.821	-165.8159
49.400002	87.842	-166.1478
50.000000	87.856	-166.4270
50.799999	87.876	-166.8079
51.500000	87.891	-167.1592
52.200001	87.903	-167.4791
53.000000	87.920	-167.7953
53.799999	87.940	-168.1238
54.500000	87.951	-168.4031
55.200001	87.961	-168.6201
56.000000	87.984	-168.8596
57.000000	88.003	-169.2885
58.000000	87.995	-169.6638
59.000000	87.993	-169.9247
60.000000	87.996	-170.2469
60.799999	87.996	-170.5081
61.500000	88.001	-170.7369
62.200001	88.010	-170.9980
63.000000	88.016	-171.3176
64.000000	88.016	-171.6695
65.000000	88.020	-171.9544
66.000000	88.032	-172.2297
67.000000	88.046	-172.5225
68.000000	88.054	-172.8273
69.000000	88.054	-173.1021
70.000000	88.056	-173.3439
71.000000	88.061	-173.5989
72.000000	88.063	-173.8522
73.000000	88.067	-174.1029
74.000000	88.067	-174.3571
75.000000	88.064	-174.5881
76.199997	88.061	-174.8616
77.500000	88.055	-175.1783
78.800003	88.050	-175.4826
80.000000	88.049	-175.7534
81.199997	88.052	-176.0314
82.500000	88.058	-176.3559
83.800003	88.063	-176.6612
85.000000	88.065	-176.9342
86.199997	88.061	-177.1926
87.500000	88.055	-177.4264
88.500000	88.051	-177.6049
90.000000	88.049	-177.9154
91.199997	88.050	-178.2038
92.500000	88.049	-178.5356
93.800003	88.045	-178.8138
95.000000	88.045	-179.0335
96.199997	88.046	-179.2606
97.500000	88.041	-179.5108
98.800003	88.032	-179.7449
100.000000	88.023	-179.9330
101.500000	88.017	179.8639
103.000000	88.015	179.6419
104.400002	88.013	179.4240
106.000000	88.006	179.1848
107.500000	87.998	178.9631
109.000000	87.988	178.7255
110.599998	87.980	178.4664
112.000000	87.976	178.2247
113.800003	87.970	177.9301
115.000000	87.967	177.7850
117.199997	87.960	177.6268
118.000000	87.958	177.5920
120.599998	87.963	177.2649
122.000000	87.945	176.9352
124.099998	87.913	176.5460
125.000000	87.906	176.4009
126.500000	87.898	176.1686
128.000000	87.890	175.9776
131.500000	87.876	175.6095
132.000000	87.873	175.5438
134.000000	87.857	175.2844
136.000000	87.841	175.0416
138.000000	87.825	174.8122
140.000000	87.808	174.6019
143.000000	87.790	174.2773
145.000000	87.776	174.0400
147.500000	87.756	173.7625
150.000000	87.737	173.4995
152.500000	87.723	173.2671
155.000000	87.708	173.0543
157.500000	87.687	172.8647
160.000000	87.665	172.6622
162.500000	87.643	172.4102
165.000000	87.621	172.1567
167.500000	87.601	171.9339
170.000000	87.583	171.7328
172.500000	87.564	171.5399
175.000000	87.541	171.3528
177.500000	87.516	171.1833
180.000000	87.492	171.0119
182.500000	87.465	170.8185
185.000000	87.438	170.6261
187.500000	87.417	170.4499
190.000000	87.394	170.2801
192.500000	87.364	170.1326
195.000000	87.337	170.0062
197.500000	87.318	169.8825
200.000000	87.303	169.7520
203.000000	87.280	169.5696
206.000000	87.255	169.3946
209.000000	87.233	169.2225
212.000000	87.210	169.0468
214.000000	87.192	168.9373
218.000000	87.159	168.7514
220.000000	87.144	168.6544
224.000000	87.113	168.4165
227.000000	87.088	168.2681
230.000000	87.065	168.1591
233.000000	87.040	168.0529
236.000000	87.012	167.9633
240.000000	86.975	167.8372
243.000000	86.945	167.7397
247.000000	86.906	167.5897
250.000000	86.874	167.4417
254.000000	86.832	167.2829
258.000000	86.795	167.1806
262.000000	86.753	167.0974
265.000000	86.719	167.0419
269.000000	86.677	166.9503
272.000000	86.651	166.8755
276.000000	86.619	166.7815
280.000000	86.581	166.7203
285.000000	86.528	166.6853
290.000000	86.470	166.6575
295.000000	86.411	166.6954
300.000000	86.350	166.8393
304.000000	86.307	167.0524
307.000000	86.281	167.2984
311.000000	86.261	167.7573
315.000000	86.277	168.2773
320.000000	86.365	168.7292
325.000000	86.483	168.6918
330.000000	86.561	168.1814
335.000000	86.585	167.5087
340.000000	86.568	166.9456
345.000000	86.525	166.5489
350.000000	86.470	166.2643
355.000000	86.420	166.0677
360.000000	86.375	165.9355
365.000000	86.329	165.8358
370.000000	86.287	165.7561
375.000000	86.252	165.6924
382.000000	86.207	165.5843
387.000000	86.173	165.5146
395.000000	86.113	165.4429
400.000000	86.079	165.4151
406.000000	86.041	165.3832
412.000000	86.001	165.3580
418.000000	85.961	165.3410
425.000000	85.917	165.3265
431.000000	85.877	165.3346
437.000000	85.840	165.3808
444.000000	85.805	165.4636
450.000000	85.779	165.5089
455.000000	85.762	165.5128
462.000000	85.740	165.4851
468.000000	85.719	165.4599
475.000000	85.686	165.4526
482.000000	85.652	165.4710
487.000000	85.629	165.4772
494.000000	85.598	165.4791
500.000000	85.574	165.5020
508.000000	85.541	165.5910
515.000000	85.515	165.6815
522.000000	85.490	165.7817
530.000000	85.461	165.8956
538.000000	85.438	165.9597
545.000000	85.423	165.9962
552.000000	85.407	166.0244
560.000000	85.378	166.0481
570.000000	85.339	166.1001
580.000000	85.306	166.2032
590.000000	85.268	166.3489
600.000000	85.226	166.5218
608.000000	85.194	166.6964
615.000000	85.174	166.8765
622.000000	85.163	167.0528
630.000000	85.158	167.2228
640.000000	85.155	167.3727
650.000000	85.148	167.4655
660.000000	85.133	167.5444
670.000000	85.111	167.6712
680.000000	85.088	167.8239
690.000000	85.065	167.9719
700.000000	85.045	168.1273
710.000000	85.026	168.3123
720.000000	85.008	168.5223
730.000000	84.989	168.7177
740.000000	84.976	168.9213
750.000000	84.968	169.1450
762.000000	84.960	169.4236
775.000000	84.954	169.7334
788.000000	84.949	170.0438
800.000000	84.951	170.3113
812.000000	84.957	170.5938
825.000000	84.969	170.9031
838.000000	84.984	171.1921
850.000000	85.002	171.4565
862.000000	85.023	171.7292
875.000000	85.053	172.0001
885.000000	85.078	172.1940
900.000000	85.118	172.4388
912.000000	85.154	172.6174
925.000000	85.200	172.7881
938.000000	85.250	172.9377
950.000000	85.298	173.0556
962.000000	85.351	173.1545
975.000000	85.411	173.2240
988.000000	85.473	173.2391
1000.000000	85.531	173.2208
1015.000000	85.599	173.1723
1030.000000	85.666	173.0695
1044.000000	85.728	172.9097
1060.000000	85.800	172.6777
1075.000000	85.864	172.4408
1090.000000	85.924	172.1550
1106.000000	85.993	171.8033
1120.000000	86.052	171.4795
1138.000000	86.122	171.0377
1150.000000	86.168	170.7119
1172.000000	86.242	170.0841
1180.000000	86.264	169.8558
1206.000000	86.325	169.0888
1220.000000	86.355	168.6498
1241.000000	86.392	168.0095
1250.000000	86.406	167.7473
1265.000000	86.427	167.3109
1280.000000	86.444	166.8726
1315.000000	86.467	165.8890
1320.000000	86.468	165.7538
1340.000000	86.467	165.2281
1360.000000	86.458	164.7257
1380.000000	86.449	164.2359
1400.000000	86.443	163.7759
1430.000000	86.427	163.1407
1450.000000	86.415	162.7587
1475.000000	86.397	162.3127
1500.000000	86.375	161.9083
1525.000000	86.354	161.5397
1550.000000	86.333	161.2109
1575.000000	86.309	160.9320
1600.000000	86.286	160.6896
1625.000000	86.264	160.4614
1650.000000	86.241	160.2708
1675.000000	86.219	160.1318
1700.000000	86.197	160.0218
1725.000000	86.180	159.9250
1750.000000	86.166	159.8351
1775.000000	86.153	159.7538
1800.000000	86.143	159.6859
1825.000000	86.136	159.6307
1850.000000	86.129	159.5822
1875.000000	86.123	159.5487
1900.000000	86.118	159.5327
1925.000000	86.112	159.5395
1950.000000	86.103	159.5722
1975.000000	86.097	159.6323
2000.000000	86.099	159.7314
2030.000000	86.114	159.8800
2060.000000	86.138	160.0534
2090.000000	86.170	160.2182
2120.000000	86.213	160.3653
2140.000000	86.246	160.4633
2180.000000	86.322	160.6072
2200.000000	86.365	160.6334
2240.000000	86.457	160.6101
2270.000000	86.533	160.5255
2300.000000	86.611	160.3704
2330.000000	86.688	160.1198
2360.000000	86.760	159.7971
2400.000000	86.848	159.2722
2430.000000	86.905	158.8131
2470.000000	86.968	158.1380
2500.000000	87.002	157.5846
2540.000000	87.029	156.8047
2580.000000	87.036	156.0380
2620.000000	87.022	155.3185
2650.000000	86.999	154.8074
2690.000000	86.953	154.1648
2720.000000	86.908	153.7422
2760.000000	86.840	153.2744
2800.000000	86.766	152.9112
2850.000000	86.662	152.5903
2900.000000	86.552	152.4030
2950.000000	86.446	152.3785
3000.000000	86.344	152.5119
3040.000000	86.264	152.6930
3070.000000	86.206	152.8734
3110.000000	86.136	153.1768
3150.000000	86.076	153.5259
3200.000000	86.009	154.0210
3250.000000	85.952	154.5872
3300.000000	85.910	155.1968
3350.000000	85.879	155.8470
3400.000000	85.861	156.5293
3450.000000	85.861	157.2309
3500.000000	85.881	157.9327
3550.000000	85.913	158.6439
3600.000000	85.953	159.3562
3650.000000	86.003	160.0382
3700.000000	86.061	160.6838
3750.000000	86.126	161.2811
3820.000000	86.225	162.0351
3870.000000	86.295	162.5253
3950.000000	86.398	163.2292
4000.000000	86.458	163.5873
4060.000000	86.525	163.9623
4120.000000	86.583	164.3141
4180.000000	86.635	164.6527
4250.000000	86.686	165.0521
4310.000000	86.712	165.4046
4370.000000	86.715	165.7957
4440.000000	86.704	166.3510
4500.000000	86.690	166.9243
4550.000000	86.678	167.4740
4620.000000	86.667	168.3598
4680.000000	86.665	169.2217
4750.000000	86.679	170.2968
4820.000000	86.709	171.4155
4870.000000	86.739	172.2389
4940.000000	86.793	173.3937
5000.000000	86.854	174.3746
5080.000000	86.956	175.6478
5150.000000	87.062	176.6967
5220.000000	87.176	177.6543
5300.000000	87.315	178.6074
5380.000000	87.455	179.4450
5450.000000	87.574	-179.8806
5520.000000	87.686	-179.2309
5600.000000	87.812	-178.5042
5700.000000	87.973	-177.6407
5800.000000	88.132	-176.8250
5900.000000	88.284	-176.0339
6000.000000	88.425	-175.1671
6080.000000	88.540	-174.2957
6150.000000	88.658	-173.3873
6220.000000	88.806	-172.3616
6300.000000	89.032	-171.1229
6400.000000	89.412	-169.7394
6500.000000	89.896	-168.7731
6600.000000	90.491	-168.5253
6700.000000	91.178	-169.5301
6800.000000	91.873	-172.4320
6900.000000	92.419	-177.6431
7000.000000	92.589	175.3194
7100.000000	92.227	168.4700
7200.000000	91.416	164.3706
7300.000000	90.477	164.1372
7400.000000	89.781	166.8414
7500.000000	89.523	170.5870
7620.000000	89.725	174.1503
7750.000000	90.232	175.3249
7880.000000	90.631	173.5851
8000.000000	90.734	170.2266
8120.000000	90.534	166.3595
8250.000000	90.007	162.8005
8380.000000	89.255	160.6835
8500.000000	88.462	160.2316
8620.000000	87.653	161.1251
8750.000000	86.813	163.4038
8850.000000	86.227	165.9024
9000.000000	85.489	170.4939
9120.000000	85.028	174.5828
9250.000000	84.640	179.2108
9380.000000	84.354	-175.9698
9500.000000	84.184	-171.3054
9620.000000	84.129	-166.4771
9750.000000	84.222	-161.2663
9880.000000	84.476	-156.3532
10000.000000	84.842	-152.2639
10150.000000	85.462	-147.9099
10300.000000	86.269	-144.6060
10440.000000	87.206	-142.8612
10600.000000	88.465	-143.3570
10750.000000	89.668	-147.4570
10900.000000	90.595	-155.9057
11060.000000	90.925	-168.8225
11200.000000	90.496	179.0303
11380.000000	89.036	166.4364
11500.000000	87.675	161.1945
11720.000000	84.877	158.0703
11800.000000	83.866	158.6595
12060.000000	80.887	165.0369
12200.000000	79.554	170.4876
12410.000000	77.982	179.7532
12500.000000	77.447	-176.2647
12650.000000	76.670	-169.8400
12800.000000	75.969	-163.4649
13150.000000	74.705	-146.4631
13200.000000	74.617	-143.8615
13400.000000	74.538	-134.0491
13600.000000	74.788	-125.8320
13800.000000	75.229	-119.5746
14000.000000	75.679	-115.4250
14300.000000	76.442	-109.2702
14500.000000	77.570	-107.6210
14750.000000	78.640	-114.6540
15000.000000	78.487	-126.5214
15250.000000	77.229	-135.2040
15500.000000	75.579	-137.7903
15750.000000	74.295	-136.5588
16000.000000	73.704	-136.1509
16250.000000	73.413	-140.6424
16500.000000	72.773	-150.8784
16750.000000	71.224	-164.6321
17000.000000	68.480	-175.7564
17250.000000	64.700	-179.2315
17500.000000	60.375	-174.7684
17750.000000	56.144	-169.6063
18000.000000	52.211	152.4601
18250.000000	48.375	82.1750
18500.000000	44.521	-71.3613
18750.000000	41.486	149.5127
19000.000000	40.483	-156.9551
19250.000000	41.040	-72.5312
19500.000000	42.363	133.7266
19750.000000	43.927	-64.9688
20000.000000	44.769	-54.5391
