* Measurement data measured by REW V5.20.13
* Source: EXCL: Mic in at rear panel (Pink)(Realtek(R) Audio), MICROPHONE (마스), L, volume: 1.000
* Format: 256k Log Swept Sine, 1 sweep at -12.0 dBFS with no timing reference
* Dated: 2023. 1. 3 오전 11:51:23
* REW Settings:
*  C-weighting compensation: Off
*  Target level: 75.0 dB
* Note: 
* Measurement: R
* Smoothing: 1/24 octave
* Frequency Step: 1/48 octave
* Start Frequency: 20.300 Hz
*
* Freq(Hz)	SPL(dB)	Phase(degrees)
20.299999	89.994	-167.3715
20.600000	90.008	-167.4348
20.900000	90.037	-167.5420
21.200001	90.060	-167.6312
21.400000	90.072	-167.6879
21.799999	90.094	-167.8140
22.000000	90.105	-167.8903
22.400000	90.122	-168.0719
22.700001	90.134	-168.2334
23.000000	90.143	-168.4160
23.299999	90.151	-168.6136
23.600000	90.158	-168.8177
24.000000	90.170	-169.0851
24.299999	90.181	-169.2760
24.700001	90.201	-169.5226
25.000000	90.219	-169.7122
25.400000	90.244	-169.9837
25.799999	90.267	-170.2747
26.200001	90.286	-170.5613
26.500000	90.297	-170.7530
26.900000	90.307	-170.9612
27.200001	90.315	-171.0845
27.600000	90.327	-171.2267
28.000000	90.342	-171.3754
28.500000	90.359	-171.5956
29.000000	90.366	-171.8333
29.500000	90.364	-172.0442
30.000000	90.364	-172.2123
30.400000	90.371	-172.3419
30.700001	90.380	-172.4580
31.100000	90.394	-172.6584
31.500000	90.405	-172.9090
32.000000	90.410	-173.2498
32.500000	90.405	-173.5550
33.000000	90.401	-173.7892
33.500000	90.405	-173.9676
34.000000	90.420	-174.1250
34.500000	90.442	-174.2914
35.000000	90.464	-174.4820
35.500000	90.484	-174.6954
36.000000	90.497	-174.9134
36.500000	90.505	-175.1108
37.000000	90.510	-175.2695
37.500000	90.515	-175.3960
38.200001	90.522	-175.5789
38.700001	90.526	-175.7431
39.500000	90.524	-176.0275
40.000000	90.522	-176.1980
40.599998	90.523	-176.4136
41.200001	90.523	-176.6513
41.799999	90.522	-176.8741
42.500000	90.528	-177.0837
43.099998	90.545	-177.2608
43.700001	90.563	-177.4679
44.400002	90.577	-177.7015
45.000000	90.586	-177.8417
45.500000	90.599	-177.9277
46.200001	90.625	-178.0808
46.799999	90.646	-178.3028
47.500000	90.652	-178.6520
48.200001	90.630	-178.9731
48.700001	90.606	-179.1081
49.400002	90.581	-179.1569
50.000000	90.579	-179.1656
50.799999	90.600	-179.3025
51.500000	90.622	-179.5815
52.200001	90.634	-179.9422
53.000000	90.632	179.6587
53.799999	90.623	179.3544
54.500000	90.617	179.1821
55.200001	90.620	179.0758
56.000000	90.635	178.9681
57.000000	90.656	178.7739
58.000000	90.667	178.5462
59.000000	90.666	178.3190
60.000000	90.654	178.1168
60.799999	90.645	177.9821
61.500000	90.642	177.8546
62.200001	90.643	177.6954
63.000000	90.643	177.4842
64.000000	90.640	177.2248
65.000000	90.638	176.9718
66.000000	90.636	176.7217
67.000000	90.634	176.5048
68.000000	90.630	176.2936
69.000000	90.622	176.1055
70.000000	90.618	175.9272
71.000000	90.615	175.7134
72.000000	90.613	175.4862
73.000000	90.614	175.2383
74.000000	90.611	174.9797
75.000000	90.604	174.7603
76.199997	90.595	174.5482
77.500000	90.586	174.3520
78.800003	90.579	174.1436
80.000000	90.567	173.9163
81.199997	90.552	173.6927
82.500000	90.542	173.4294
83.800003	90.535	173.1597
85.000000	90.531	172.9499
86.199997	90.529	172.7517
87.500000	90.521	172.5447
88.500000	90.509	172.4095
90.000000	90.490	172.1931
91.199997	90.474	171.9759
92.500000	90.461	171.7375
93.800003	90.458	171.4963
95.000000	90.459	171.2563
96.199997	90.460	171.0305
97.500000	90.459	170.7857
98.800003	90.449	170.5575
100.000000	90.436	170.3832
101.500000	90.420	170.1725
103.000000	90.400	169.9440
104.400002	90.383	169.7815
106.000000	90.377	169.5815
107.500000	90.363	169.3238
109.000000	90.342	169.0925
110.599998	90.321	168.8665
112.000000	90.307	168.6594
113.800003	90.291	168.3836
115.000000	90.282	168.2209
117.199997	90.266	167.9429
118.000000	90.258	167.8555
120.599998	90.235	167.5665
122.000000	90.220	167.3468
124.099998	90.193	167.0335
125.000000	90.183	166.9169
126.500000	90.169	166.7333
128.000000	90.156	166.5553
131.500000	90.117	166.1636
132.000000	90.111	166.1065
134.000000	90.090	165.8584
136.000000	90.069	165.5687
138.000000	90.044	165.2953
140.000000	90.021	165.0551
143.000000	89.983	164.7095
145.000000	89.954	164.4973
147.500000	89.921	164.2385
150.000000	89.890	163.9813
152.500000	89.860	163.7333
155.000000	89.831	163.4844
157.500000	89.800	163.2440
160.000000	89.767	163.0120
162.500000	89.733	162.7810
165.000000	89.701	162.5493
167.500000	89.670	162.3117
170.000000	89.636	162.0948
172.500000	89.601	161.9068
175.000000	89.569	161.6974
177.500000	89.534	161.4651
180.000000	89.496	161.2566
182.500000	89.461	161.0695
185.000000	89.428	160.8865
187.500000	89.392	160.7180
190.000000	89.349	160.5580
192.500000	89.306	160.3956
195.000000	89.272	160.2176
197.500000	89.245	160.0239
200.000000	89.217	159.8466
203.000000	89.178	159.6473
206.000000	89.134	159.4417
209.000000	89.088	159.2651
212.000000	89.048	159.1129
214.000000	89.023	159.0033
218.000000	88.969	158.7975
220.000000	88.939	158.7055
224.000000	88.879	158.5165
227.000000	88.837	158.3972
230.000000	88.803	158.2995
233.000000	88.769	158.1835
236.000000	88.733	158.0573
240.000000	88.684	157.8669
243.000000	88.644	157.7208
247.000000	88.584	157.5711
250.000000	88.539	157.4686
254.000000	88.483	157.3978
258.000000	88.425	157.4618
262.000000	88.356	157.3053
265.000000	88.300	157.0866
269.000000	88.234	156.9219
272.000000	88.186	156.8801
276.000000	88.118	156.8793
280.000000	88.052	156.9508
285.000000	87.985	157.1201
290.000000	87.929	157.2377
295.000000	87.867	157.4284
300.000000	87.794	157.7687
304.000000	87.746	158.1752
307.000000	87.734	158.5986
311.000000	87.769	159.1760
315.000000	87.858	159.5306
320.000000	87.991	159.4187
325.000000	88.080	158.7542
330.000000	88.096	157.9417
335.000000	88.061	157.2478
340.000000	88.000	156.7209
345.000000	87.929	156.3187
350.000000	87.855	156.0137
355.000000	87.784	155.8001
360.000000	87.716	155.6635
365.000000	87.653	155.5648
370.000000	87.593	155.4757
375.000000	87.532	155.4098
382.000000	87.446	155.3478
387.000000	87.388	155.3155
395.000000	87.302	155.2643
400.000000	87.251	155.2521
406.000000	87.190	155.2467
412.000000	87.132	155.2372
418.000000	87.072	155.2343
425.000000	86.999	155.2909
431.000000	86.945	155.3602
437.000000	86.895	155.4395
444.000000	86.842	155.5479
450.000000	86.805	155.6054
455.000000	86.775	155.6288
462.000000	86.731	155.6538
468.000000	86.689	155.6812
475.000000	86.640	155.7129
482.000000	86.593	155.7848
487.000000	86.559	155.8375
494.000000	86.508	155.9081
500.000000	86.466	155.9846
508.000000	86.417	156.0790
515.000000	86.378	156.1650
522.000000	86.337	156.2724
530.000000	86.294	156.4352
538.000000	86.255	156.5891
545.000000	86.220	156.6868
552.000000	86.187	156.7718
560.000000	86.153	156.8657
570.000000	86.109	157.0138
580.000000	86.062	157.1953
590.000000	86.014	157.3926
600.000000	85.969	157.5995
608.000000	85.936	157.7498
615.000000	85.906	157.8805
622.000000	85.875	158.0376
630.000000	85.840	158.2222
640.000000	85.802	158.4278
650.000000	85.769	158.6451
660.000000	85.737	158.8916
670.000000	85.708	159.1430
680.000000	85.679	159.4062
690.000000	85.650	159.6599
700.000000	85.620	159.8812
710.000000	85.595	160.1221
720.000000	85.573	160.3816
730.000000	85.551	160.6441
740.000000	85.532	160.9208
750.000000	85.518	161.2134
762.000000	85.507	161.5712
775.000000	85.493	161.9586
788.000000	85.483	162.3470
800.000000	85.482	162.6930
812.000000	85.482	163.0367
825.000000	85.487	163.3928
838.000000	85.502	163.7676
850.000000	85.523	164.1149
862.000000	85.545	164.4482
875.000000	85.570	164.7663
885.000000	85.595	164.9839
900.000000	85.642	165.3102
912.000000	85.684	165.5522
925.000000	85.728	165.7626
938.000000	85.777	165.9391
950.000000	85.828	166.0914
962.000000	85.882	166.2244
975.000000	85.944	166.3218
988.000000	86.012	166.3485
1000.000000	86.076	166.3391
1015.000000	86.141	166.3399
1030.000000	86.206	166.2920
1044.000000	86.271	166.1766
1060.000000	86.349	165.9894
1075.000000	86.419	165.7662
1090.000000	86.490	165.4910
1106.000000	86.565	165.1520
1120.000000	86.628	164.8295
1138.000000	86.709	164.3733
1150.000000	86.760	164.0399
1172.000000	86.842	163.4027
1180.000000	86.867	163.1724
1206.000000	86.940	162.4048
1220.000000	86.976	161.9753
1241.000000	87.026	161.3036
1250.000000	87.045	161.0249
1265.000000	87.070	160.5735
1280.000000	87.092	160.1173
1315.000000	87.129	159.0753
1320.000000	87.134	158.9286
1340.000000	87.144	158.3580
1360.000000	87.144	157.8054
1380.000000	87.141	157.2632
1400.000000	87.141	156.7382
1430.000000	87.140	155.9851
1450.000000	87.135	155.5231
1475.000000	87.126	154.9934
1500.000000	87.111	154.4714
1525.000000	87.096	153.9824
1550.000000	87.080	153.5129
1575.000000	87.060	153.0918
1600.000000	87.039	152.7171
1625.000000	87.018	152.3665
1650.000000	86.995	152.0356
1675.000000	86.971	151.7324
1700.000000	86.947	151.4547
1725.000000	86.923	151.2123
1750.000000	86.896	150.9953
1775.000000	86.872	150.8128
1800.000000	86.848	150.6515
1825.000000	86.826	150.5067
1850.000000	86.806	150.4087
1875.000000	86.787	150.3311
1900.000000	86.771	150.2747
1925.000000	86.759	150.2419
1950.000000	86.749	150.2264
1975.000000	86.741	150.2236
2000.000000	86.735	150.2399
2030.000000	86.738	150.2831
2060.000000	86.746	150.3283
2090.000000	86.760	150.3849
2120.000000	86.781	150.4493
2140.000000	86.799	150.4840
2180.000000	86.843	150.5423
2200.000000	86.868	150.5598
2240.000000	86.922	150.5536
2270.000000	86.971	150.5037
2300.000000	87.024	150.4067
2330.000000	87.077	150.2726
2360.000000	87.132	150.0992
2400.000000	87.206	149.7861
2430.000000	87.260	149.4823
2470.000000	87.326	149.0016
2500.000000	87.368	148.6109
2540.000000	87.414	148.0450
2580.000000	87.445	147.4139
2620.000000	87.459	146.7675
2650.000000	87.461	146.2985
2690.000000	87.453	145.6926
2720.000000	87.440	145.2430
2760.000000	87.407	144.6818
2800.000000	87.365	144.2031
2850.000000	87.303	143.7001
2900.000000	87.229	143.2849
2950.000000	87.149	142.9963
3000.000000	87.068	142.8103
3040.000000	87.004	142.7316
3070.000000	86.959	142.7157
3110.000000	86.902	142.7457
3150.000000	86.850	142.8266
3200.000000	86.791	142.9846
3250.000000	86.737	143.1832
3300.000000	86.691	143.4174
3350.000000	86.654	143.6853
3400.000000	86.625	143.9711
3450.000000	86.610	144.2527
3500.000000	86.607	144.5196
3550.000000	86.609	144.7776
3600.000000	86.616	145.0278
3650.000000	86.627	145.2696
3700.000000	86.641	145.4753
3750.000000	86.655	145.6293
3820.000000	86.667	145.7508
3870.000000	86.664	145.7829
3950.000000	86.632	145.7786
4000.000000	86.597	145.7369
4060.000000	86.537	145.6684
4120.000000	86.450	145.6185
4180.000000	86.335	145.6638
4250.000000	86.164	145.8842
4310.000000	85.987	146.2876
4370.000000	85.786	146.9321
4440.000000	85.536	148.0328
4500.000000	85.321	149.3066
4550.000000	85.152	150.6076
4620.000000	84.946	152.7425
4680.000000	84.805	154.8193
4750.000000	84.688	157.4732
4820.000000	84.629	160.2826
4870.000000	84.623	162.3297
4940.000000	84.667	165.1638
5000.000000	84.748	167.5170
5080.000000	84.909	170.5135
5150.000000	85.091	172.9538
5220.000000	85.303	175.1920
5300.000000	85.573	177.4813
5380.000000	85.869	179.5115
5450.000000	86.143	-178.9296
5520.000000	86.424	-177.5722
5600.000000	86.753	-176.2617
5700.000000	87.170	-175.0006
5800.000000	87.577	-174.0580
5900.000000	87.979	-173.4246
6000.000000	88.372	-173.0540
6080.000000	88.686	-172.9061
6150.000000	88.972	-172.9163
6220.000000	89.268	-173.1228
6300.000000	89.619	-173.6395
6400.000000	90.079	-174.8802
6500.000000	90.547	-177.2552
6600.000000	90.928	178.5402
6700.000000	90.991	172.2226
6800.000000	90.444	165.3685
6900.000000	89.204	162.1241
7000.000000	87.712	165.8642
7100.000000	86.835	174.9273
7200.000000	86.983	-175.5108
7300.000000	87.760	-168.5439
7400.000000	88.734	-164.6128
7500.000000	89.717	-163.1688
7620.000000	90.820	-164.0353
7750.000000	91.808	-167.6341
7880.000000	92.406	-173.3011
8000.000000	92.566	-179.4151
8120.000000	92.365	174.6949
8250.000000	91.815	169.6857
8380.000000	91.060	166.7130
8500.000000	90.312	165.7263
8620.000000	89.598	166.0608
8750.000000	88.900	167.4196
8850.000000	88.420	168.9239
9000.000000	87.784	171.7402
9120.000000	87.343	174.4203
9250.000000	86.945	177.6891
9380.000000	86.638	-178.7913
9500.000000	86.428	-175.4203
9620.000000	86.286	-171.9180
9750.000000	86.230	-167.9771
9880.000000	86.298	-164.0147
10000.000000	86.473	-160.5205
10150.000000	86.843	-156.6466
10300.000000	87.360	-153.6377
10440.000000	87.939	-151.8278
10600.000000	88.688	-150.9775
10750.000000	89.497	-151.5807
10900.000000	90.379	-154.3269
11060.000000	91.236	-160.6133
11200.000000	91.699	-169.3793
11380.000000	91.521	176.2559
11500.000000	90.810	167.0465
11720.000000	88.549	155.9589
11800.000000	87.565	154.1268
12060.000000	84.387	154.3614
12200.000000	82.848	157.0950
12410.000000	80.812	163.1337
12500.000000	80.034	166.2075
12650.000000	78.861	171.7710
12800.000000	77.836	177.7052
13150.000000	75.913	-167.8375
13200.000000	75.673	-165.6920
13400.000000	74.790	-156.6365
13600.000000	74.117	-147.2406
13800.000000	73.582	-137.5343
14000.000000	73.354	-126.5171
14300.000000	73.783	-112.3042
14500.000000	74.238	-104.4489
14750.000000	75.051	-95.4768
15000.000000	76.293	-87.9880
15250.000000	78.064	-83.3664
15500.000000	80.289	-83.8275
15750.000000	82.495	-91.9906
16000.000000	84.052	-108.7279
16250.000000	84.630	-131.9846
16500.000000	84.067	-159.8572
16750.000000	81.979	172.3367
17000.000000	78.231	154.0491
17250.000000	73.405	148.2797
17500.000000	68.390	150.7649
17750.000000	63.778	157.5841
18000.000000	59.646	166.5610
18250.000000	55.827	173.4079
18500.000000	52.126	134.9903
18750.000000	48.569	92.5261
19000.000000	45.177	-38.8994
19250.000000	42.359	-145.6230
19500.000000	40.917	28.4590
19750.000000	40.943	-29.8652
20000.000000	41.195	-153.0000
