* Measurement data measured by REW V5.20.13
* Source: EXCL: Mic in at rear panel (Pink)(Realtek(R) Audio), MICROPHONE (마스), L, volume: 1.000
* Format: 256k Log Swept Sine, 1 sweep at -12.0 dBFS with no timing reference
* Dated: 2023. 1. 3 오후 12:14:41
* REW Settings:
*  C-weighting compensation: Off
*  Target level: 75.0 dB
* Note: 
* Measurement: R_T-APB
* Smoothing: 1/24 octave
* Frequency Step: 1/48 octave
* Start Frequency: 20.300 Hz
*
* Freq(Hz)	SPL(dB)	Phase(degrees)
20.299999	89.891	-170.3305
20.600000	89.905	-170.3753
20.900000	89.931	-170.4514
21.200001	89.951	-170.5159
21.400000	89.961	-170.5573
21.799999	89.976	-170.6491
22.000000	89.982	-170.7035
22.400000	89.992	-170.8295
22.700001	89.998	-170.9406
23.000000	90.004	-171.0690
23.299999	90.010	-171.2153
23.600000	90.017	-171.3768
24.000000	90.028	-171.6087
24.299999	90.039	-171.7889
24.700001	90.056	-172.0327
25.000000	90.069	-172.2163
25.400000	90.086	-172.4592
25.799999	90.102	-172.6918
26.200001	90.118	-172.9016
26.500000	90.130	-173.0374
26.900000	90.147	-173.1898
27.200001	90.160	-173.2917
27.600000	90.179	-173.4308
28.000000	90.197	-173.5933
28.500000	90.213	-173.8277
29.000000	90.216	-174.0540
29.500000	90.211	-174.2282
30.000000	90.210	-174.3586
30.400000	90.216	-174.4719
30.700001	90.223	-174.5821
31.100000	90.230	-174.7666
31.500000	90.231	-174.9716
32.000000	90.228	-175.2021
32.500000	90.226	-175.3782
33.000000	90.235	-175.5454
33.500000	90.254	-175.7622
34.000000	90.271	-176.0283
34.500000	90.280	-176.2853
35.000000	90.282	-176.4834
35.500000	90.286	-176.6183
36.000000	90.299	-176.7274
36.500000	90.316	-176.8511
37.000000	90.334	-177.0039
37.500000	90.346	-177.1724
38.200001	90.353	-177.4039
38.700001	90.353	-177.5600
39.500000	90.348	-177.7856
40.000000	90.346	-177.9059
40.599998	90.349	-178.0513
41.200001	90.356	-178.2422
41.799999	90.359	-178.4774
42.500000	90.356	-178.7290
43.099998	90.358	-178.8923
43.700001	90.369	-179.0636
44.400002	90.378	-179.3152
45.000000	90.377	-179.5162
45.500000	90.376	-179.6346
46.200001	90.383	-179.7658
46.799999	90.394	-179.9066
47.500000	90.403	179.8925
48.200001	90.407	179.7011
48.700001	90.410	179.5860
49.400002	90.418	179.4417
50.000000	90.427	179.3014
50.799999	90.434	179.0721
51.500000	90.433	178.8813
52.200001	90.431	178.7361
53.000000	90.434	178.5833
53.799999	90.442	178.3697
54.500000	90.440	178.1135
55.200001	90.424	177.8688
56.000000	90.401	177.7366
57.000000	90.406	177.6671
58.000000	90.431	177.3813
59.000000	90.435	177.0273
60.000000	90.428	176.7872
60.799999	90.428	176.6517
61.500000	90.434	176.5311
62.200001	90.438	176.3972
63.000000	90.438	176.2657
64.000000	90.442	176.1153
65.000000	90.444	175.8836
66.000000	90.436	175.6325
67.000000	90.426	175.4235
68.000000	90.420	175.2263
69.000000	90.415	175.0244
70.000000	90.410	174.8177
71.000000	90.403	174.6322
72.000000	90.400	174.4670
73.000000	90.400	174.2623
74.000000	90.394	174.0322
75.000000	90.386	173.8253
76.199997	90.381	173.5661
77.500000	90.373	173.2527
78.800003	90.360	172.9880
80.000000	90.352	172.7889
81.199997	90.341	172.5895
82.500000	90.329	172.3889
83.800003	90.318	172.1880
85.000000	90.308	172.0078
86.199997	90.298	171.8328
87.500000	90.290	171.6687
88.500000	90.285	171.5349
90.000000	90.272	171.2308
91.199997	90.248	171.0057
92.500000	90.236	170.8281
93.800003	90.239	170.5759
95.000000	90.241	170.3162
96.199997	90.240	170.0873
97.500000	90.232	169.9016
98.800003	90.221	169.7883
100.000000	90.216	169.6912
101.500000	90.205	169.4547
103.000000	90.184	169.1622
104.400002	90.165	168.9078
106.000000	90.147	168.6677
107.500000	90.130	168.4865
109.000000	90.108	168.3121
110.599998	90.088	168.1039
112.000000	90.081	167.8708
113.800003	90.084	167.5771
115.000000	90.086	167.5022
117.199997	90.077	167.8235
118.000000	90.077	168.0794
120.599998	90.132	168.0845
122.000000	90.079	167.3546
124.099998	89.958	166.5562
125.000000	89.928	166.3167
126.500000	89.907	166.0082
128.000000	89.904	165.7944
131.500000	89.876	165.3923
132.000000	89.868	165.3291
134.000000	89.838	165.0714
136.000000	89.815	164.8485
138.000000	89.797	164.6840
140.000000	89.775	164.5093
143.000000	89.733	164.1783
145.000000	89.709	163.9564
147.500000	89.678	163.6974
150.000000	89.640	163.4494
152.500000	89.603	163.2095
155.000000	89.574	162.9681
157.500000	89.540	162.7241
160.000000	89.500	162.5053
162.500000	89.463	162.2713
165.000000	89.427	162.0422
167.500000	89.391	161.8463
170.000000	89.356	161.6584
172.500000	89.321	161.4427
175.000000	89.288	161.2141
177.500000	89.253	161.0065
180.000000	89.212	160.8469
182.500000	89.170	160.7003
185.000000	89.128	160.5319
187.500000	89.084	160.3842
190.000000	89.036	160.2730
192.500000	88.989	160.1726
195.000000	88.951	160.0316
197.500000	88.919	159.8199
200.000000	88.883	159.6193
203.000000	88.831	159.4503
206.000000	88.779	159.3093
209.000000	88.729	159.1743
212.000000	88.680	159.0842
214.000000	88.645	159.0412
218.000000	88.570	158.9645
220.000000	88.533	158.9194
224.000000	88.460	158.7936
227.000000	88.399	158.8101
230.000000	88.342	159.0622
233.000000	88.296	159.4175
236.000000	88.267	159.7322
240.000000	88.277	160.0414
243.000000	88.301	160.1243
247.000000	88.306	159.8824
250.000000	88.266	159.5829
254.000000	88.158	159.3692
258.000000	88.082	159.4876
262.000000	88.066	159.9543
265.000000	88.077	160.5109
269.000000	88.150	161.1235
272.000000	88.244	161.2861
276.000000	88.375	160.9720
280.000000	88.465	160.1546
285.000000	88.493	159.0306
290.000000	88.443	158.0432
295.000000	88.354	157.2664
300.000000	88.261	156.7126
304.000000	88.194	156.3912
307.000000	88.146	156.2022
311.000000	88.083	155.9971
315.000000	88.022	155.8488
320.000000	87.953	155.7236
325.000000	87.895	155.6069
330.000000	87.839	155.4853
335.000000	87.780	155.3632
340.000000	87.719	155.2507
345.000000	87.659	155.1558
350.000000	87.595	155.0726
355.000000	87.536	155.0158
360.000000	87.480	154.9862
365.000000	87.422	154.9471
370.000000	87.363	154.9013
375.000000	87.308	154.8726
382.000000	87.236	154.8486
387.000000	87.183	154.8580
395.000000	87.097	154.8788
400.000000	87.048	154.8953
406.000000	86.995	154.9226
412.000000	86.944	154.9632
418.000000	86.895	154.9873
425.000000	86.839	154.9806
431.000000	86.788	154.9973
437.000000	86.738	155.0119
444.000000	86.682	155.0399
450.000000	86.639	155.0810
455.000000	86.604	155.1066
462.000000	86.549	155.1462
468.000000	86.499	155.1926
475.000000	86.449	155.2596
482.000000	86.403	155.3472
487.000000	86.370	155.4099
494.000000	86.322	155.5009
500.000000	86.282	155.5809
508.000000	86.232	155.7033
515.000000	86.190	155.8315
522.000000	86.154	155.9941
530.000000	86.119	156.1615
538.000000	86.084	156.2512
545.000000	86.053	156.3221
552.000000	86.022	156.4215
560.000000	85.984	156.5259
570.000000	85.935	156.6253
580.000000	85.884	156.7916
590.000000	85.835	156.9978
600.000000	85.792	157.1999
608.000000	85.761	157.3668
615.000000	85.734	157.5172
622.000000	85.707	157.6644
630.000000	85.675	157.8345
640.000000	85.637	158.0539
650.000000	85.602	158.2970
660.000000	85.571	158.5455
670.000000	85.544	158.7643
680.000000	85.517	158.9599
690.000000	85.487	159.1730
700.000000	85.458	159.4238
710.000000	85.434	159.6815
720.000000	85.412	159.9365
730.000000	85.391	160.2005
740.000000	85.371	160.4668
750.000000	85.354	160.7457
762.000000	85.343	161.0698
775.000000	85.332	161.4076
788.000000	85.323	161.7791
800.000000	85.320	162.1399
812.000000	85.321	162.4728
825.000000	85.327	162.8248
838.000000	85.344	163.1787
850.000000	85.363	163.5020
862.000000	85.383	163.7975
875.000000	85.410	164.1031
885.000000	85.436	164.3431
900.000000	85.478	164.6476
912.000000	85.514	164.8629
925.000000	85.560	165.0824
938.000000	85.611	165.2708
950.000000	85.659	165.4090
962.000000	85.712	165.5139
975.000000	85.773	165.5970
988.000000	85.837	165.6316
1000.000000	85.895	165.6362
1015.000000	85.956	165.6357
1030.000000	86.026	165.5792
1044.000000	86.095	165.4497
1060.000000	86.170	165.2251
1075.000000	86.236	164.9926
1090.000000	86.302	164.7462
1106.000000	86.377	164.4344
1120.000000	86.441	164.1277
1138.000000	86.519	163.6847
1150.000000	86.569	163.3634
1172.000000	86.649	162.7479
1180.000000	86.674	162.5139
1206.000000	86.751	161.7308
1220.000000	86.788	161.3139
1241.000000	86.837	160.6820
1250.000000	86.856	160.4002
1265.000000	86.883	159.9191
1280.000000	86.907	159.4422
1315.000000	86.948	158.4090
1320.000000	86.952	158.2664
1340.000000	86.963	157.6841
1360.000000	86.966	157.1143
1380.000000	86.969	156.5768
1400.000000	86.970	156.0507
1430.000000	86.967	155.3065
1450.000000	86.967	154.8386
1475.000000	86.962	154.2632
1500.000000	86.950	153.7338
1525.000000	86.934	153.2374
1550.000000	86.917	152.7769
1575.000000	86.900	152.3437
1600.000000	86.883	151.9451
1625.000000	86.865	151.5802
1650.000000	86.845	151.2245
1675.000000	86.825	150.9141
1700.000000	86.805	150.6218
1725.000000	86.781	150.3530
1750.000000	86.756	150.1126
1775.000000	86.734	149.8996
1800.000000	86.715	149.7304
1825.000000	86.694	149.5885
1850.000000	86.672	149.4525
1875.000000	86.653	149.3411
1900.000000	86.639	149.2596
1925.000000	86.627	149.1949
1950.000000	86.619	149.1411
1975.000000	86.612	149.0986
2000.000000	86.610	149.0809
2030.000000	86.615	149.0835
2060.000000	86.624	149.0939
2090.000000	86.639	149.1205
2120.000000	86.660	149.1486
2140.000000	86.679	149.1577
2180.000000	86.724	149.1589
2200.000000	86.751	149.1392
2240.000000	86.807	149.0619
2270.000000	86.853	148.9836
2300.000000	86.905	148.8510
2330.000000	86.960	148.6674
2360.000000	87.014	148.4522
2400.000000	87.084	148.0922
2430.000000	87.134	147.7595
2470.000000	87.198	147.2317
2500.000000	87.240	146.7856
2540.000000	87.284	146.1447
2580.000000	87.312	145.4715
2620.000000	87.326	144.7760
2650.000000	87.327	144.2534
2690.000000	87.314	143.5635
2720.000000	87.295	143.0752
2760.000000	87.260	142.4713
2800.000000	87.214	141.9178
2850.000000	87.147	141.3344
2900.000000	87.067	140.8743
2950.000000	86.982	140.5104
3000.000000	86.899	140.2584
3040.000000	86.834	140.1260
3070.000000	86.787	140.0588
3110.000000	86.725	139.9987
3150.000000	86.667	139.9748
3200.000000	86.598	140.0175
3250.000000	86.534	140.1398
3300.000000	86.474	140.2873
3350.000000	86.423	140.4431
3400.000000	86.383	140.6184
3450.000000	86.356	140.7993
3500.000000	86.339	140.9677
3550.000000	86.328	141.1204
3600.000000	86.317	141.2621
3650.000000	86.309	141.3848
3700.000000	86.301	141.4815
3750.000000	86.288	141.5239
3820.000000	86.260	141.5067
3870.000000	86.227	141.4680
3950.000000	86.146	141.3525
4000.000000	86.076	141.2587
4060.000000	85.967	141.1621
4120.000000	85.826	141.1386
4180.000000	85.655	141.2474
4250.000000	85.425	141.6090
4310.000000	85.201	142.1724
4370.000000	84.956	143.0516
4440.000000	84.661	144.4963
4500.000000	84.418	146.0763
4550.000000	84.231	147.6167
4620.000000	84.006	150.1000
4680.000000	83.859	152.4674
4750.000000	83.746	155.4258
4820.000000	83.694	158.5087
4870.000000	83.695	160.7184
4940.000000	83.749	163.7541
5000.000000	83.840	166.2543
5080.000000	84.013	169.3805
5150.000000	84.202	171.8940
5220.000000	84.419	174.1996
5300.000000	84.695	176.5486
5380.000000	84.987	178.5820
5450.000000	85.251	-179.8599
5520.000000	85.517	-178.4656
5600.000000	85.828	-177.0592
5700.000000	86.227	-175.6534
5800.000000	86.616	-174.6458
5900.000000	86.989	-173.9040
6000.000000	87.346	-173.3722
6080.000000	87.630	-173.0766
6150.000000	87.884	-172.9858
6220.000000	88.135	-173.0675
6300.000000	88.422	-173.3800
6400.000000	88.777	-174.2492
6500.000000	89.097	-175.8757
6600.000000	89.307	-178.4735
6700.000000	89.283	178.1118
6800.000000	88.907	175.0174
6900.000000	88.207	174.2890
7000.000000	87.479	177.3190
7100.000000	87.147	-176.8239
7200.000000	87.378	-170.5723
7300.000000	88.004	-165.6838
7400.000000	88.812	-162.6756
7500.000000	89.683	-161.4747
7620.000000	90.722	-162.2370
7750.000000	91.717	-165.5970
7880.000000	92.375	-171.2318
8000.000000	92.600	-177.6643
8120.000000	92.447	175.8555
8250.000000	91.911	170.0870
8380.000000	91.132	166.4579
8500.000000	90.351	165.0321
8620.000000	89.620	164.9667
8750.000000	88.914	165.7173
8850.000000	88.411	166.5920
9000.000000	87.681	168.4007
9120.000000	87.115	170.4312
9250.000000	86.550	173.2956
9380.000000	86.062	176.7491
9500.000000	85.698	-179.7041
9620.000000	85.422	-175.9531
9750.000000	85.218	-171.7094
9880.000000	85.123	-167.3039
10000.000000	85.140	-163.2085
10150.000000	85.309	-158.2396
10300.000000	85.652	-153.5960
10440.000000	86.149	-149.7944
10600.000000	86.909	-146.6613
10750.000000	87.712	-145.3450
10900.000000	88.611	-145.2477
11060.000000	89.751	-147.4062
11200.000000	90.725	-152.6983
11380.000000	91.502	-164.8603
11500.000000	91.490	-175.2497
11720.000000	90.185	167.0354
11800.000000	89.370	162.4427
12060.000000	86.187	155.7856
12200.000000	84.458	156.2434
12410.000000	82.101	160.1120
12500.000000	81.195	162.5498
12650.000000	79.827	167.2906
12800.000000	78.630	172.6062
13150.000000	76.363	-173.8696
13200.000000	76.079	-171.8111
13400.000000	75.049	-163.0489
13600.000000	74.242	-153.8920
13800.000000	73.577	-144.2629
14000.000000	73.246	-133.2840
14300.000000	73.539	-119.3312
14500.000000	73.886	-111.6465
14750.000000	74.574	-102.8262
15000.000000	75.691	-95.4506
15250.000000	77.309	-90.8659
15500.000000	79.368	-91.2457
15750.000000	81.416	-99.1513
16000.000000	82.827	-115.1239
16250.000000	83.333	-136.8733
16500.000000	82.866	-163.2412
16750.000000	81.010	168.6933
17000.000000	77.445	148.5478
17250.000000	72.626	141.2285
17500.000000	67.469	143.1188
17750.000000	62.643	149.8596
18000.000000	58.285	158.6674
18250.000000	54.269	163.0676
18500.000000	50.419	101.9128
18750.000000	46.772	-49.6051
19000.000000	43.760	29.6230
19250.000000	41.477	16.9639
19500.000000	40.203	110.5469
19750.000000	40.025	-27.9922
20000.000000	40.152	-11.6133
