* Measurement data measured by REW V5.20.7
* Source: Input device not selected, no input selected, L, volume: no control
* Format: 128k Log Swept Sine, 1 sweep at -12.0 dBFS with no timing reference
* Dated: 2022. 5. 2 ¿ÀÈÄ 1:08:45
* REW Settings:
*  C-weighting compensation: Off
*  Target level: 75.0 dB
* Note: 
* Measurement: R_EQ
* Smoothing: 1/24 octave
* Frequency Step: 1/48 octave
* Start Frequency: 20.300 Hz
*
* Freq(Hz)	SPL(dB)	Phase(degrees)
20.299999	96.797	28.7994
20.600000	96.818	28.0448
20.900000	96.850	26.7163
21.200001	96.855	25.5144
21.400000	96.848	24.7979
21.799999	96.825	23.4825
22.000000	96.815	22.8447
22.400000	96.803	21.5561
22.700001	96.797	20.5398
23.000000	96.788	19.4671
23.299999	96.772	18.3729
23.600000	96.748	17.3018
24.000000	96.712	15.9686
24.299999	96.691	15.0493
24.700001	96.678	13.8805
25.000000	96.680	12.9877
25.400000	96.686	11.7246
25.799999	96.676	10.4134
26.200001	96.642	9.1827
26.500000	96.606	8.3935
26.900000	96.561	7.5498
27.200001	96.543	7.0197
27.600000	96.543	6.3108
28.000000	96.555	5.4447
28.500000	96.545	4.1025
29.000000	96.471	2.7387
29.500000	96.350	1.6870
30.000000	96.239	1.0093
30.400000	96.183	0.5503
30.700001	96.158	0.1354
31.100000	96.129	-0.5874
31.500000	96.082	-1.4596
32.000000	95.986	-2.5510
32.500000	95.868	-3.4274
33.000000	95.765	-4.0834
33.500000	95.694	-4.7066
34.000000	95.639	-5.4614
34.500000	95.573	-6.3194
35.000000	95.489	-7.1362
35.500000	95.400	-7.8239
36.000000	95.322	-8.4369
36.500000	95.251	-9.0651
37.000000	95.171	-9.7057
37.500000	95.079	-10.2628
38.200001	94.953	-10.7717
38.700001	94.887	-10.9992
39.500000	94.824	-11.4423
40.000000	94.785	-11.8355
40.599998	94.714	-12.2654
41.200001	94.636	-12.3883
41.799999	94.612	-12.2648
42.500000	94.671	-12.4616
43.099998	94.709	-13.3248
43.700001	94.650	-14.4594
44.400002	94.476	-15.3527
45.000000	94.322	-15.6013
45.500000	94.220	-15.6791
46.200001	94.100	-15.8153
46.799999	94.005	-15.9271
47.500000	93.913	-16.0216
48.200001	93.850	-16.1892
48.700001	93.815	-16.4096
49.400002	93.764	-16.8650
50.000000	93.701	-17.2974
50.799999	93.599	-17.6780
51.500000	93.532	-17.8099
52.200001	93.495	-18.0162
53.000000	93.442	-18.4678
53.799999	93.351	-18.8572
54.500000	93.270	-18.9832
55.200001	93.213	-19.0259
56.000000	93.171	-19.1531
57.000000	93.129	-19.4653
58.000000	93.071	-19.9580
59.000000	92.956	-20.3256
60.000000	92.844	-20.1625
60.799999	92.801	-20.0227
61.500000	92.763	-20.0490
62.200001	92.714	-20.0587
63.000000	92.674	-20.0237
64.000000	92.652	-20.2337
65.000000	92.606	-20.7644
66.000000	92.518	-21.2082
67.000000	92.433	-21.3563
68.000000	92.377	-21.4175
69.000000	92.330	-21.4725
70.000000	92.292	-21.5784
71.000000	92.238	-21.8092
72.000000	92.161	-21.9741
73.000000	92.094	-22.0387
74.000000	92.048	-22.1187
75.000000	92.017	-22.2941
76.199997	91.967	-22.5392
77.500000	91.922	-22.5813
78.800003	91.903	-22.6919
80.000000	91.865	-22.8479
81.199997	91.822	-22.9269
82.500000	91.773	-23.0647
83.800003	91.706	-23.2003
85.000000	91.639	-23.2493
86.199997	91.580	-23.2277
87.500000	91.547	-23.2547
88.500000	91.532	-23.4382
90.000000	91.495	-23.7898
91.199997	91.454	-23.9976
92.500000	91.401	-24.0387
93.800003	91.355	-23.9998
95.000000	91.308	-24.0263
96.199997	91.259	-24.0871
97.500000	91.227	-24.1827
98.800003	91.215	-24.3819
100.000000	91.199	-24.5123
101.500000	91.169	-24.4440
103.000000	91.121	-24.2947
104.400002	91.063	-24.2890
106.000000	90.998	-24.6320
107.500000	90.955	-25.0250
109.000000	90.951	-25.0991
110.599998	90.972	-24.8341
112.000000	90.937	-24.6612
113.800003	90.803	-24.8425
115.000000	90.744	-25.6141
117.199997	90.926	-28.8856
118.000000	91.069	-30.7796
120.599998	90.855	-34.4098
122.000000	90.654	-31.1459
124.099998	90.728	-26.8532
125.000000	90.716	-26.0205
126.500000	90.616	-25.5402
128.000000	90.515	-25.8462
131.500000	90.483	-26.9103
132.000000	90.490	-26.9048
134.000000	90.487	-26.7156
136.000000	90.415	-26.6280
138.000000	90.340	-26.8197
140.000000	90.316	-27.0496
143.000000	90.299	-27.1921
145.000000	90.252	-27.2790
147.500000	90.178	-27.5761
150.000000	90.133	-27.7684
152.500000	90.100	-27.8085
155.000000	90.058	-27.8741
157.500000	90.028	-28.1743
160.000000	90.000	-28.4815
162.500000	89.964	-28.5989
165.000000	89.910	-28.7381
167.500000	89.841	-28.8966
170.000000	89.805	-28.8902
172.500000	89.792	-28.9102
175.000000	89.747	-29.0565
177.500000	89.683	-29.2595
180.000000	89.642	-29.4479
182.500000	89.616	-29.5790
185.000000	89.577	-29.6700
187.500000	89.530	-29.8003
190.000000	89.492	-30.0154
192.500000	89.456	-30.2252
195.000000	89.410	-30.3629
197.500000	89.357	-30.4463
200.000000	89.308	-30.5338
203.000000	89.256	-30.6147
206.000000	89.209	-30.7141
209.000000	89.144	-30.8355
212.000000	89.067	-30.8450
214.000000	89.026	-30.7700
218.000000	88.977	-30.6071
220.000000	88.959	-30.5053
224.000000	88.940	-30.3009
227.000000	88.941	-30.2543
230.000000	88.947	-30.3636
233.000000	88.952	-30.5746
236.000000	88.954	-30.7604
240.000000	88.933	-30.9759
243.000000	88.898	-31.1223
247.000000	88.853	-31.3555
250.000000	88.815	-31.5771
254.000000	88.768	-31.7704
258.000000	88.727	-31.8727
262.000000	88.678	-31.9063
265.000000	88.639	-31.9732
269.000000	88.592	-32.1418
272.000000	88.560	-32.2640
276.000000	88.505	-32.3636
280.000000	88.443	-32.4025
285.000000	88.381	-32.4492
290.000000	88.310	-32.5064
295.000000	88.235	-32.5838
300.000000	88.169	-32.6370
304.000000	88.110	-32.6896
307.000000	88.067	-32.6704
311.000000	88.012	-32.5775
315.000000	87.960	-32.5467
320.000000	87.907	-32.5612
325.000000	87.838	-32.4759
330.000000	87.752	-32.3974
335.000000	87.671	-32.2995
340.000000	87.565	-32.1569
345.000000	87.467	-31.8949
350.000000	87.393	-31.5801
355.000000	87.331	-31.2594
360.000000	87.259	-30.8633
365.000000	87.183	-30.4657
370.000000	87.101	-30.1046
375.000000	87.032	-29.7565
382.000000	86.931	-29.2695
387.000000	86.849	-28.8814
395.000000	86.740	-28.0692
400.000000	86.669	-27.5283
406.000000	86.592	-26.9330
412.000000	86.522	-26.4249
418.000000	86.467	-25.8774
425.000000	86.423	-25.1250
431.000000	86.373	-24.4502
437.000000	86.319	-23.6738
444.000000	86.268	-22.7890
450.000000	86.235	-22.1206
455.000000	86.208	-21.5074
462.000000	86.155	-20.6892
468.000000	86.099	-20.0854
475.000000	86.037	-19.3319
482.000000	85.991	-18.5822
487.000000	85.968	-18.0642
494.000000	85.944	-17.3023
500.000000	85.916	-16.6703
508.000000	85.863	-15.9143
515.000000	85.817	-15.2882
522.000000	85.780	-14.5851
530.000000	85.753	-13.6884
538.000000	85.720	-12.9659
545.000000	85.678	-12.3979
552.000000	85.634	-11.7372
560.000000	85.587	-10.9982
570.000000	85.526	-10.1267
580.000000	85.489	-9.2801
590.000000	85.448	-8.2488
600.000000	85.384	-7.2976
608.000000	85.348	-6.6094
615.000000	85.319	-6.0071
622.000000	85.279	-5.3774
630.000000	85.232	-4.5988
640.000000	85.181	-3.6621
650.000000	85.136	-2.7253
660.000000	85.096	-1.8117
670.000000	85.053	-0.9389
680.000000	85.017	-0.0382
690.000000	84.969	0.8155
700.000000	84.912	1.6012
710.000000	84.868	2.4969
720.000000	84.833	3.3417
730.000000	84.792	4.2376
740.000000	84.762	5.2387
750.000000	84.751	6.1913
762.000000	84.737	7.2391
775.000000	84.699	8.2684
788.000000	84.666	9.3364
800.000000	84.652	10.3741
812.000000	84.657	11.3702
825.000000	84.672	12.4078
838.000000	84.687	13.4794
850.000000	84.702	14.5136
862.000000	84.722	15.5334
875.000000	84.753	16.4364
885.000000	84.791	17.0928
900.000000	84.840	18.2751
912.000000	84.867	19.2882
925.000000	84.914	20.2901
938.000000	84.986	21.2504
950.000000	85.064	22.0967
962.000000	85.142	22.9708
975.000000	85.229	23.9129
988.000000	85.308	24.6591
1000.000000	85.390	25.3900
1015.000000	85.522	26.6184
1030.000000	85.671	27.6528
1044.000000	85.803	28.4975
1060.000000	85.940	29.3489
1075.000000	86.078	30.0780
1090.000000	86.223	30.7811
1106.000000	86.358	31.5167
1120.000000	86.474	32.1731
1138.000000	86.621	32.9585
1150.000000	86.710	33.4402
1172.000000	86.854	34.3922
1180.000000	86.904	34.7214
1206.000000	87.070	35.6157
1220.000000	87.138	36.0764
1241.000000	87.230	36.8025
1250.000000	87.268	37.1234
1265.000000	87.327	37.6289
1280.000000	87.381	38.0811
1315.000000	87.513	39.1527
1320.000000	87.530	39.3098
1340.000000	87.595	39.9363
1360.000000	87.658	40.5841
1380.000000	87.717	41.2906
1400.000000	87.775	42.0361
1430.000000	87.872	43.0085
1450.000000	87.934	43.6243
1475.000000	88.021	44.4623
1500.000000	88.123	45.3163
1525.000000	88.229	46.1361
1550.000000	88.342	46.9381
1575.000000	88.464	47.7482
1600.000000	88.589	48.5712
1625.000000	88.720	49.3324
1650.000000	88.859	50.1254
1675.000000	88.997	50.9577
1700.000000	89.137	51.7252
1725.000000	89.274	52.4567
1750.000000	89.419	53.2795
1775.000000	89.568	54.0423
1800.000000	89.721	54.6809
1825.000000	89.877	55.3416
1850.000000	90.034	56.0231
1875.000000	90.197	56.6856
1900.000000	90.362	57.3281
1925.000000	90.531	57.9526
1950.000000	90.702	58.5327
1975.000000	90.868	59.1170
2000.000000	91.030	59.6688
2030.000000	91.219	60.2192
2060.000000	91.406	60.8078
2090.000000	91.590	61.3820
2120.000000	91.769	61.8933
2140.000000	91.885	62.2615
2180.000000	92.110	63.0401
2200.000000	92.230	63.3681
2240.000000	92.489	63.8493
2270.000000	92.684	63.9384
2300.000000	92.868	63.7759
2330.000000	93.037	63.4372
2360.000000	93.197	62.9261
2400.000000	93.403	62.0317
2430.000000	93.554	61.2280
2470.000000	93.763	59.9455
2500.000000	93.932	58.8486
2540.000000	94.170	57.1841
2580.000000	94.439	55.2979
2620.000000	94.735	53.2211
2650.000000	94.966	51.5787
2690.000000	95.290	49.2604
2720.000000	95.535	47.4077
2760.000000	95.847	44.7975
2800.000000	96.136	42.0341
2850.000000	96.434	38.4328
2900.000000	96.624	34.7750
2950.000000	96.702	31.2125
3000.000000	96.664	27.9280
3040.000000	96.555	25.5642
3070.000000	96.429	23.9376
3110.000000	96.204	21.9596
3150.000000	95.924	20.2141
3200.000000	95.520	18.3596
3250.000000	95.062	16.8161
3300.000000	94.583	15.5957
3350.000000	94.124	14.7257
3400.000000	93.705	14.1326
3450.000000	93.363	13.7423
3500.000000	93.118	13.5358
3550.000000	92.965	13.4893
3600.000000	92.912	13.6117
3650.000000	92.948	13.8873
3700.000000	93.051	14.2459
3750.000000	93.219	14.7028
3820.000000	93.522	15.4715
3870.000000	93.753	16.0518
3950.000000	94.125	17.0455
4000.000000	94.331	17.6585
4060.000000	94.538	18.3709
4120.000000	94.694	19.0475
4180.000000	94.795	19.6558
4250.000000	94.835	20.2876
4310.000000	94.797	20.7455
4370.000000	94.697	21.0756
4440.000000	94.535	21.3055
4500.000000	94.383	21.3164
4550.000000	94.261	21.1397
4620.000000	94.103	20.5916
4680.000000	93.977	19.8000
4750.000000	93.833	18.3835
4820.000000	93.694	16.3783
4870.000000	93.607	14.5903
4940.000000	93.523	11.5463
5000.000000	93.499	8.4608
5080.000000	93.541	3.6966
5150.000000	93.639	-1.0143
5220.000000	93.794	-5.9885
5300.000000	94.035	-11.6417
5380.000000	94.303	-16.9354
5450.000000	94.524	-20.9783
5520.000000	94.713	-24.3755
5600.000000	94.877	-27.4880
5700.000000	94.990	-30.1649
5800.000000	94.985	-31.6235
5900.000000	94.872	-32.1375
6000.000000	94.679	-31.8943
6080.000000	94.475	-31.3469
6150.000000	94.275	-30.6546
6220.000000	94.074	-29.7544
6300.000000	93.864	-28.5182
6400.000000	93.654	-26.7242
6500.000000	93.502	-24.6975
6600.000000	93.377	-22.4809
6700.000000	93.258	-20.1842
6800.000000	93.122	-17.7926
6900.000000	92.964	-15.5061
7000.000000	92.763	-13.4815
7100.000000	92.513	-11.7110
7200.000000	92.235	-10.3406
7300.000000	91.920	-9.2997
7400.000000	91.570	-8.8064
7500.000000	91.209	-9.1110
7620.000000	90.828	-10.7545
7750.000000	90.544	-14.5219
7880.000000	90.493	-21.8688
8000.000000	90.579	-31.6663
8120.000000	90.604	-43.5711
8250.000000	90.695	-56.3066
8380.000000	90.957	-66.4967
8500.000000	91.251	-72.8510
8620.000000	91.397	-76.2665
8750.000000	91.302	-77.2565
8850.000000	91.014	-76.8249
9000.000000	90.210	-74.9848
9120.000000	89.378	-72.8053
9250.000000	88.358	-69.8681
9380.000000	87.226	-66.2906
9500.000000	86.109	-62.4223
9620.000000	85.009	-58.3133
9750.000000	83.882	-53.8604
9880.000000	82.816	-49.2458
10000.000000	81.867	-44.8459
10150.000000	80.680	-39.2309
10300.000000	79.465	-33.5877
10440.000000	78.156	-28.3580
10600.000000	76.340	-22.6113
10750.000000	74.516	-17.1703
10900.000000	72.852	-11.7430
11060.000000	71.316	-6.0677
11200.000000	70.077	-1.0823
11380.000000	68.698	5.3622
11500.000000	68.233	9.7625
11720.000000	69.049	17.5451
11800.000000	69.792	20.2739
12060.000000	72.804	29.0492
12200.000000	74.382	33.6677
12410.000000	76.481	39.9673
12500.000000	77.246	42.3931
12650.000000	78.276	45.9329
12800.000000	79.217	49.2154
13150.000000	82.092	57.6287
13200.000000	82.561	58.8798
13400.000000	84.365	62.3947
13600.000000	86.285	63.0263
13800.000000	88.372	58.7766
14000.000000	90.022	47.6384
14300.000000	90.760	26.1339
14500.000000	90.007	12.7066
14750.000000	88.442	2.6644
15000.000000	86.681	-1.0609
15250.000000	85.098	-0.4037
15500.000000	83.805	3.3729
15750.000000	82.416	7.6827
16000.000000	81.088	13.3369
16250.000000	79.689	20.4752
16500.000000	77.853	27.5487
16750.000000	75.463	32.4239
17000.000000	73.181	34.6636
17250.000000	72.243	34.4052
17500.000000	74.416	29.3931
17750.000000	76.654	20.7320
18000.000000	77.445	9.3765
18250.000000	76.876	-3.0068
18500.000000	74.858	-11.6287
18750.000000	71.774	-13.6419
19000.000000	68.774	-11.4153
19250.000000	66.833	-8.1896
19500.000000	65.309	-1.9983
19750.000000	63.963	5.2979
20000.000000	63.240	9.4341
