* Measurement data measured by REW V5.20.7
* Source: Input device not selected, no input selected, L, volume: no control
* Format: 128k Log Swept Sine, 1 sweep at -12.0 dBFS with no timing reference
* Dated: 2022. 5. 2 ¿ÀÈÄ 1:37:48
* REW Settings:
*  C-weighting compensation: Off
*  Target level: 75.0 dB
* Note: 
* Measurement: AAC_L
* Smoothing: 1/24 octave
* Frequency Step: 1/48 octave
* Start Frequency: 20.300 Hz
*
* Freq(Hz)	SPL(dB)	Phase(degrees)
20.299999	95.006	23.9421
20.600000	95.013	23.2603
20.900000	95.024	22.0607
21.200001	95.024	20.9653
21.400000	95.019	20.2828
21.799999	94.999	18.9534
22.000000	94.985	18.2890
22.400000	94.950	16.9931
22.700001	94.924	16.0696
23.000000	94.904	15.1781
23.299999	94.895	14.2881
23.600000	94.895	13.3638
24.000000	94.903	12.0320
24.299999	94.908	10.9525
24.700001	94.900	9.4480
25.000000	94.879	8.3271
25.400000	94.833	6.9220
25.799999	94.773	5.6868
26.200001	94.709	4.6453
26.500000	94.666	3.9746
26.900000	94.616	3.1795
27.200001	94.585	2.6143
27.600000	94.544	1.8591
28.000000	94.493	1.1059
28.500000	94.401	0.2832
29.000000	94.298	-0.2366
29.500000	94.225	-0.4691
30.000000	94.213	-0.7339
30.400000	94.233	-1.2268
30.700001	94.244	-1.8150
31.100000	94.231	-2.8138
31.500000	94.175	-3.8880
32.000000	94.060	-5.0746
32.500000	93.934	-5.9943
33.000000	93.827	-6.7792
33.500000	93.736	-7.5662
34.000000	93.646	-8.3369
34.500000	93.560	-8.9968
35.000000	93.495	-9.5541
35.500000	93.454	-10.1311
36.000000	93.419	-10.7950
36.500000	93.373	-11.4694
37.000000	93.319	-12.0516
37.500000	93.270	-12.5708
38.200001	93.189	-13.3550
38.700001	93.095	-13.8480
39.500000	92.926	-14.0598
40.000000	92.863	-14.0829
40.599998	92.791	-14.5057
41.200001	92.614	-15.0301
41.799999	92.364	-14.6294
42.500000	92.253	-13.0017
43.099998	92.399	-12.3810
43.700001	92.531	-13.3992
44.400002	92.452	-15.2869
45.000000	92.270	-16.1062
45.500000	92.166	-16.3152
46.200001	92.112	-16.7967
46.799999	92.055	-17.5582
47.500000	91.944	-18.2346
48.200001	91.857	-18.5135
48.700001	91.825	-18.6750
49.400002	91.790	-18.9945
50.000000	91.749	-19.2558
50.799999	91.683	-19.4420
51.500000	91.629	-19.4717
52.200001	91.585	-19.4684
53.000000	91.539	-19.5062
53.799999	91.493	-19.6012
54.500000	91.455	-19.7516
55.200001	91.417	-19.9971
56.000000	91.360	-20.3628
57.000000	91.263	-20.7675
58.000000	91.159	-20.8302
59.000000	91.119	-20.6412
60.000000	91.128	-20.8260
60.799999	91.099	-21.2433
61.500000	91.039	-21.5528
62.200001	90.969	-21.7533
63.000000	90.884	-21.8939
64.000000	90.784	-21.9087
65.000000	90.720	-21.8417
66.000000	90.686	-21.9063
67.000000	90.656	-22.0800
68.000000	90.624	-22.2502
69.000000	90.594	-22.4097
70.000000	90.557	-22.5767
71.000000	90.506	-22.7111
72.000000	90.450	-22.7443
73.000000	90.408	-22.7237
74.000000	90.381	-22.7746
75.000000	90.356	-22.9287
76.199997	90.312	-23.1398
77.500000	90.257	-23.1842
78.800003	90.225	-23.0458
80.000000	90.220	-22.9650
81.199997	90.212	-23.0649
82.500000	90.170	-23.2564
83.800003	90.119	-23.3193
85.000000	90.090	-23.4035
86.199997	90.065	-23.5270
87.500000	90.038	-23.6960
88.500000	90.006	-23.7661
90.000000	89.969	-23.7163
91.199997	89.958	-23.6804
92.500000	89.973	-23.8279
93.800003	89.967	-24.2619
95.000000	89.934	-24.5184
96.199997	89.910	-24.5494
97.500000	89.903	-24.4679
98.800003	89.894	-24.4251
100.000000	89.870	-24.3931
101.500000	89.839	-24.4398
103.000000	89.805	-24.6380
104.400002	89.770	-24.8265
106.000000	89.732	-24.7780
107.500000	89.727	-24.6073
109.000000	89.723	-24.6700
110.599998	89.697	-24.9529
112.000000	89.695	-25.1611
113.800003	89.748	-25.3182
115.000000	89.777	-25.1407
117.199997	89.767	-23.7033
118.000000	89.762	-22.8551
120.599998	89.904	-22.1089
122.000000	89.816	-23.7095
124.099998	89.606	-25.4810
125.000000	89.580	-25.9576
126.500000	89.591	-26.4850
128.000000	89.612	-26.6326
131.500000	89.583	-26.3926
132.000000	89.574	-26.3991
134.000000	89.534	-26.5274
136.000000	89.514	-26.5746
138.000000	89.509	-26.6496
140.000000	89.491	-26.8035
143.000000	89.490	-27.1691
145.000000	89.498	-27.3927
147.500000	89.495	-27.3859
150.000000	89.481	-27.3200
152.500000	89.468	-27.4249
155.000000	89.458	-27.6059
157.500000	89.446	-27.6840
160.000000	89.441	-27.7695
162.500000	89.434	-27.9722
165.000000	89.427	-28.1456
167.500000	89.422	-28.2024
170.000000	89.418	-28.2672
172.500000	89.404	-28.4135
175.000000	89.384	-28.5658
177.500000	89.358	-28.6321
180.000000	89.339	-28.6270
182.500000	89.331	-28.7499
185.000000	89.322	-28.9858
187.500000	89.308	-29.1946
190.000000	89.294	-29.2684
192.500000	89.285	-29.2649
195.000000	89.272	-29.3067
197.500000	89.252	-29.4365
200.000000	89.229	-29.6040
203.000000	89.209	-29.7238
206.000000	89.186	-29.7833
209.000000	89.155	-29.8199
212.000000	89.125	-29.7970
214.000000	89.102	-29.7280
218.000000	89.057	-29.4874
220.000000	89.053	-29.3333
224.000000	89.095	-29.0600
227.000000	89.129	-29.0107
230.000000	89.144	-29.1135
233.000000	89.144	-29.3093
236.000000	89.140	-29.5260
240.000000	89.141	-29.8628
243.000000	89.136	-30.0421
247.000000	89.123	-30.0797
250.000000	89.105	-30.1100
254.000000	89.068	-30.2706
258.000000	89.036	-30.5144
262.000000	89.004	-30.7136
265.000000	88.977	-30.8081
269.000000	88.944	-30.8894
272.000000	88.919	-30.9598
276.000000	88.881	-31.0035
280.000000	88.840	-30.9829
285.000000	88.787	-31.0208
290.000000	88.727	-31.1218
295.000000	88.667	-31.1751
300.000000	88.617	-31.2644
304.000000	88.563	-31.2867
307.000000	88.513	-31.2160
311.000000	88.445	-31.0516
315.000000	88.387	-30.9570
320.000000	88.322	-30.9056
325.000000	88.237	-30.8041
330.000000	88.136	-30.6759
335.000000	88.057	-30.5099
340.000000	87.988	-30.2558
345.000000	87.912	-29.9858
350.000000	87.829	-29.7438
355.000000	87.733	-29.4333
360.000000	87.633	-29.0676
365.000000	87.541	-28.7370
370.000000	87.461	-28.3629
375.000000	87.391	-27.9053
382.000000	87.279	-27.2600
387.000000	87.202	-26.8020
395.000000	87.105	-25.8176
400.000000	87.034	-25.1096
406.000000	86.950	-24.3178
412.000000	86.882	-23.5827
418.000000	86.815	-22.8322
425.000000	86.753	-21.9854
431.000000	86.707	-21.2421
437.000000	86.661	-20.4804
444.000000	86.615	-19.6166
450.000000	86.565	-18.8183
455.000000	86.532	-18.1854
462.000000	86.488	-17.3999
468.000000	86.457	-16.7460
475.000000	86.429	-15.8933
482.000000	86.390	-15.0558
487.000000	86.364	-14.4754
494.000000	86.346	-13.6452
500.000000	86.332	-12.9786
508.000000	86.290	-12.1897
515.000000	86.255	-11.4444
522.000000	86.234	-10.6183
530.000000	86.220	-9.7261
538.000000	86.194	-8.8727
545.000000	86.170	-8.1504
552.000000	86.139	-7.4005
560.000000	86.110	-6.5096
570.000000	86.087	-5.5221
580.000000	86.053	-4.5853
590.000000	86.019	-3.6265
600.000000	85.995	-2.6306
608.000000	85.966	-1.8138
615.000000	85.937	-1.1391
622.000000	85.905	-0.5208
630.000000	85.871	0.2038
640.000000	85.837	1.1180
650.000000	85.809	2.0824
660.000000	85.785	3.0474
670.000000	85.756	3.9751
680.000000	85.720	4.8676
690.000000	85.682	5.7887
700.000000	85.631	6.6964
710.000000	85.605	7.6246
720.000000	85.587	8.6109
730.000000	85.549	9.7089
740.000000	85.520	10.7274
750.000000	85.502	11.5978
762.000000	85.467	12.6486
775.000000	85.418	13.8173
788.000000	85.385	15.0484
800.000000	85.360	16.1290
812.000000	85.314	17.1219
825.000000	85.289	18.2400
838.000000	85.292	19.4432
850.000000	85.283	20.5363
862.000000	85.261	21.6462
875.000000	85.254	22.8238
885.000000	85.274	23.7160
900.000000	85.317	25.0060
912.000000	85.334	25.9852
925.000000	85.344	27.0249
938.000000	85.373	28.0221
950.000000	85.414	28.9378
962.000000	85.456	29.8346
975.000000	85.498	30.7595
988.000000	85.528	31.6565
1000.000000	85.568	32.4726
1015.000000	85.672	33.5072
1030.000000	85.763	34.4218
1044.000000	85.838	35.1502
1060.000000	85.931	36.0331
1075.000000	86.024	36.8951
1090.000000	86.120	37.6935
1106.000000	86.222	38.5130
1120.000000	86.302	39.1859
1138.000000	86.405	39.9478
1150.000000	86.478	40.4211
1172.000000	86.617	41.4232
1180.000000	86.669	41.7876
1206.000000	86.851	42.8617
1220.000000	86.944	43.4111
1241.000000	87.065	44.1146
1250.000000	87.119	44.4096
1265.000000	87.209	44.9097
1280.000000	87.297	45.4385
1315.000000	87.508	46.7556
1320.000000	87.537	46.9405
1340.000000	87.649	47.6347
1360.000000	87.748	48.3427
1380.000000	87.847	48.9729
1400.000000	87.948	49.6549
1430.000000	88.109	50.7502
1450.000000	88.202	51.4750
1475.000000	88.303	52.4693
1500.000000	88.407	53.4057
1525.000000	88.514	54.2298
1550.000000	88.603	55.0711
1575.000000	88.689	55.9903
1600.000000	88.764	56.9372
1625.000000	88.824	57.8734
1650.000000	88.873	58.7689
1675.000000	88.922	59.6627
1700.000000	88.976	60.5693
1725.000000	89.023	61.4397
1750.000000	89.044	62.2702
1775.000000	89.057	63.1232
1800.000000	89.078	63.9970
1825.000000	89.085	64.7608
1850.000000	89.072	65.4985
1875.000000	89.069	66.2174
1900.000000	89.064	66.8436
1925.000000	89.047	67.4290
1950.000000	89.027	68.1215
1975.000000	89.000	68.8228
2000.000000	88.976	69.4760
2030.000000	88.947	70.2637
2060.000000	88.906	70.9680
2090.000000	88.866	71.6397
2120.000000	88.843	72.2981
2140.000000	88.842	72.7445
2180.000000	88.893	73.5779
2200.000000	88.942	73.9300
2240.000000	89.049	74.2752
2270.000000	89.117	74.2284
2300.000000	89.192	74.1181
2330.000000	89.287	73.9650
2360.000000	89.386	73.6658
2400.000000	89.543	73.0898
2430.000000	89.713	72.4806
2470.000000	89.988	71.2342
2500.000000	90.216	70.1236
2540.000000	90.550	68.4583
2580.000000	90.904	66.6028
2620.000000	91.265	64.4227
2650.000000	91.549	62.6472
2690.000000	91.934	60.1599
2720.000000	92.207	58.1689
2760.000000	92.543	55.3480
2800.000000	92.813	52.4169
2850.000000	93.042	48.5420
2900.000000	93.135	44.5403
2950.000000	93.107	40.6755
3000.000000	92.950	37.1678
3040.000000	92.742	34.5567
3070.000000	92.557	32.7750
3110.000000	92.273	30.6689
3150.000000	91.937	28.8024
3200.000000	91.465	26.8074
3250.000000	90.958	25.2207
3300.000000	90.428	23.9736
3350.000000	89.868	23.1425
3400.000000	89.295	22.6106
3450.000000	88.748	22.2437
3500.000000	88.221	22.0910
3550.000000	87.702	22.1432
3600.000000	87.191	22.3668
3650.000000	86.701	22.6760
3700.000000	86.219	23.0876
3750.000000	85.751	23.6268
3820.000000	85.134	24.4847
3870.000000	84.710	25.2465
3950.000000	84.070	26.3348
4000.000000	83.721	27.0224
4060.000000	83.359	27.8121
4120.000000	83.075	28.4142
4180.000000	82.925	29.0182
4250.000000	82.985	29.6977
4310.000000	83.234	29.9954
4370.000000	83.647	30.1470
4440.000000	84.263	30.1518
4500.000000	84.899	29.9424
4550.000000	85.486	29.5653
4620.000000	86.345	28.5805
4680.000000	87.113	27.2733
4750.000000	88.020	25.2073
4820.000000	88.892	22.4377
4870.000000	89.481	19.9696
4940.000000	90.248	15.8549
5000.000000	90.827	11.7436
5080.000000	91.427	5.5809
5150.000000	91.770	-0.1191
5220.000000	91.928	-5.6901
5300.000000	91.864	-11.4737
5380.000000	91.596	-16.3517
5450.000000	91.269	-19.7574
5520.000000	90.885	-22.3357
5600.000000	90.403	-24.3308
5700.000000	89.803	-25.5100
5800.000000	89.224	-25.5402
5900.000000	88.633	-25.0599
6000.000000	87.977	-24.4743
6080.000000	87.412	-23.7332
6150.000000	86.927	-22.8907
6220.000000	86.455	-21.9353
6300.000000	85.932	-20.6079
6400.000000	85.314	-18.6650
6500.000000	84.772	-16.5415
6600.000000	84.370	-14.1809
6700.000000	84.173	-11.8976
6800.000000	84.334	-9.5087
6900.000000	85.057	-6.9682
7000.000000	86.270	-4.5990
7100.000000	87.680	-2.4081
7200.000000	89.080	-0.4313
7300.000000	90.442	1.1026
7400.000000	91.764	2.0973
7500.000000	93.045	2.4297
7620.000000	94.500	1.4687
7750.000000	95.930	-1.9717
7880.000000	97.020	-8.9539
8000.000000	97.463	-18.9608
8120.000000	97.190	-31.4159
8250.000000	96.046	-44.8009
8380.000000	94.231	-55.1085
8500.000000	92.246	-61.0489
8620.000000	90.189	-64.1456
8750.000000	88.054	-65.1035
8850.000000	86.523	-64.5246
9000.000000	84.394	-62.2225
9120.000000	82.760	-59.5410
9250.000000	81.013	-56.0838
9380.000000	79.325	-52.2580
9500.000000	77.847	-48.4922
9620.000000	76.474	-44.4856
9750.000000	75.129	-39.8698
9880.000000	73.885	-35.1301
10000.000000	72.844	-30.6959
10150.000000	71.734	-25.1603
10300.000000	70.780	-19.6330
10440.000000	70.178	-14.4430
10600.000000	69.863	-8.3609
10750.000000	69.688	-2.4654
10900.000000	69.493	3.1967
11060.000000	69.400	8.9417
11200.000000	69.542	13.9785
11380.000000	70.182	20.7426
11500.000000	70.797	25.2257
11720.000000	71.801	33.0249
11800.000000	72.051	35.8082
12060.000000	72.637	44.5776
12200.000000	73.025	49.4575
12410.000000	73.815	56.4573
12500.000000	74.182	59.2401
12650.000000	74.723	63.6743
12800.000000	75.151	67.8424
13150.000000	75.978	76.1600
13200.000000	76.115	77.1378
13400.000000	76.796	80.3093
13600.000000	77.718	81.1321
13800.000000	78.763	77.6047
14000.000000	79.529	68.0290
14300.000000	78.969	44.6415
14500.000000	77.001	29.8794
14750.000000	72.936	18.8328
15000.000000	67.704	15.8167
15250.000000	62.100	18.3639
15500.000000	61.076	21.4914
15750.000000	63.897	16.3530
16000.000000	65.434	-126.2214
16250.000000	64.767	-67.5533
16500.000000	60.904	25.1982
16750.000000	54.821	12.5996
17000.000000	51.829	177.8145
17250.000000	51.706	-135.5859
17500.000000	51.900	28.9609
17750.000000	52.042	165.4258
18000.000000	51.942	17.4141
18250.000000	51.698	-10.5703
18500.000000	51.511	72.3203
18750.000000	51.596	-36.8594
19000.000000	51.731	-51.8203
19250.000000	51.679	-120.5000
19500.000000	51.690	136.3281
19750.000000	51.853	108.2031
20000.000000	51.915	-2.0781
