* Measurement data measured by REW V5.20.7
* Source: Input device not selected, no input selected, L, volume: no control
* Format: 128k Log Swept Sine, 1 sweep at -12.0 dBFS with no timing reference
* Dated: 2022. 5. 2 ¿ÀÈÄ 1:08:01
* REW Settings:
*  C-weighting compensation: Off
*  Target level: 75.0 dB
* Note: 
* Measurement: R
* Smoothing: 1/24 octave
* Frequency Step: 1/48 octave
* Start Frequency: 20.300 Hz
*
* Freq(Hz)	SPL(dB)	Phase(degrees)
20.299999	97.536	27.6230
20.600000	97.550	26.8597
20.900000	97.568	25.5338
21.200001	97.559	24.3876
21.400000	97.544	23.7471
21.799999	97.516	22.6636
22.000000	97.510	22.1655
22.400000	97.523	21.1506
22.700001	97.547	20.2879
23.000000	97.571	19.2969
23.299999	97.582	18.2194
23.600000	97.579	17.1232
24.000000	97.554	15.7409
24.299999	97.532	14.8092
24.700001	97.510	13.6831
25.000000	97.503	12.8672
25.400000	97.502	11.7463
25.799999	97.494	10.5751
26.200001	97.471	9.4147
26.500000	97.445	8.5960
26.900000	97.404	7.5922
27.200001	97.374	6.8855
27.600000	97.335	5.9613
28.000000	97.292	5.0306
28.500000	97.223	3.8963
29.000000	97.145	2.8712
29.500000	97.074	1.9413
30.000000	97.016	0.9942
30.400000	96.971	0.1809
30.700001	96.931	-0.4415
31.100000	96.871	-1.2264
31.500000	96.811	-1.9167
32.000000	96.753	-2.6754
32.500000	96.717	-3.4613
33.000000	96.681	-4.3850
33.500000	96.617	-5.3634
34.000000	96.518	-6.1721
34.500000	96.415	-6.6840
35.000000	96.337	-7.0154
35.500000	96.286	-7.4139
36.000000	96.230	-7.9755
36.500000	96.149	-8.5688
37.000000	96.060	-9.0475
37.500000	95.989	-9.4787
38.200001	95.914	-10.3327
38.700001	95.845	-11.0954
39.500000	95.737	-12.1684
40.000000	95.707	-12.9447
40.599998	95.659	-14.3277
41.200001	95.500	-15.7432
41.799999	95.262	-16.2072
42.500000	95.110	-15.4362
43.099998	95.163	-14.8964
43.700001	95.242	-15.1465
44.400002	95.234	-15.7599
45.000000	95.180	-15.9500
45.500000	95.147	-15.9727
46.200001	95.109	-16.1169
46.799999	95.056	-16.3262
47.500000	94.978	-16.5441
48.200001	94.896	-16.8087
48.700001	94.828	-17.0256
49.400002	94.728	-17.2570
50.000000	94.657	-17.3903
50.799999	94.589	-17.6454
51.500000	94.535	-17.9732
52.200001	94.478	-18.3034
53.000000	94.414	-18.6512
53.799999	94.347	-18.9606
54.500000	94.287	-19.1338
55.200001	94.241	-19.2356
56.000000	94.207	-19.4261
57.000000	94.150	-19.8434
58.000000	94.063	-20.0949
59.000000	94.009	-20.1260
60.000000	93.979	-20.4148
60.799999	93.917	-20.6858
61.500000	93.857	-20.7177
62.200001	93.822	-20.6705
63.000000	93.802	-20.7636
64.000000	93.765	-21.0410
65.000000	93.721	-21.3378
66.000000	93.666	-21.6581
67.000000	93.605	-21.8148
68.000000	93.566	-21.8940
69.000000	93.530	-22.0499
70.000000	93.484	-22.2024
71.000000	93.431	-22.3505
72.000000	93.372	-22.4914
73.000000	93.312	-22.5854
74.000000	93.265	-22.5989
75.000000	93.248	-22.6241
76.199997	93.242	-22.8461
77.500000	93.214	-23.1071
78.800003	93.180	-23.2374
80.000000	93.150	-23.3221
81.199997	93.116	-23.4262
82.500000	93.066	-23.5614
83.800003	93.006	-23.6437
85.000000	92.962	-23.6721
86.199997	92.935	-23.7673
87.500000	92.913	-23.9417
88.500000	92.909	-24.0866
90.000000	92.910	-24.3937
91.199997	92.894	-24.6362
92.500000	92.852	-24.7433
93.800003	92.803	-24.6754
95.000000	92.770	-24.5862
96.199997	92.749	-24.5848
97.500000	92.740	-24.6780
98.800003	92.738	-24.8324
100.000000	92.726	-24.9484
101.500000	92.688	-24.9383
103.000000	92.649	-24.8678
104.400002	92.628	-25.0296
106.000000	92.618	-25.4825
107.500000	92.621	-25.8592
109.000000	92.617	-25.8663
110.599998	92.592	-25.5790
112.000000	92.530	-25.4803
113.800003	92.454	-25.9422
115.000000	92.481	-26.6091
117.199997	92.944	-27.8128
118.000000	93.245	-28.5086
120.599998	93.489	-32.0052
122.000000	93.071	-30.4811
124.099998	92.686	-26.9391
125.000000	92.586	-26.2314
126.500000	92.458	-26.0655
128.000000	92.400	-26.5362
131.500000	92.498	-27.2181
132.000000	92.511	-27.2362
134.000000	92.503	-27.3562
136.000000	92.439	-27.6011
138.000000	92.414	-27.9168
140.000000	92.430	-28.1587
143.000000	92.433	-28.2712
145.000000	92.410	-28.3553
147.500000	92.386	-28.5312
150.000000	92.378	-28.6701
152.500000	92.361	-28.8345
155.000000	92.336	-29.0107
157.500000	92.328	-29.1432
160.000000	92.335	-29.2964
162.500000	92.330	-29.4722
165.000000	92.314	-29.6140
167.500000	92.296	-29.7754
170.000000	92.271	-29.9740
172.500000	92.244	-30.1663
175.000000	92.228	-30.3172
177.500000	92.224	-30.4614
180.000000	92.222	-30.6138
182.500000	92.218	-30.7695
185.000000	92.214	-30.9620
187.500000	92.206	-31.1881
190.000000	92.194	-31.3781
192.500000	92.180	-31.5139
195.000000	92.164	-31.6085
197.500000	92.148	-31.6643
200.000000	92.132	-31.7732
203.000000	92.096	-31.9706
206.000000	92.056	-32.1074
209.000000	92.031	-32.1376
212.000000	92.011	-32.0812
214.000000	91.995	-32.0457
218.000000	91.965	-32.0200
220.000000	91.961	-31.9694
224.000000	91.979	-31.7543
227.000000	92.000	-31.6250
230.000000	92.021	-31.6629
233.000000	92.037	-31.8708
236.000000	92.038	-32.1330
240.000000	92.024	-32.4406
243.000000	92.018	-32.6496
247.000000	92.007	-32.8802
250.000000	91.986	-32.9864
254.000000	91.962	-33.1130
258.000000	91.946	-33.2984
262.000000	91.912	-33.5436
265.000000	91.886	-33.7191
269.000000	91.862	-33.8402
272.000000	91.840	-33.8673
276.000000	91.802	-33.9780
280.000000	91.765	-34.1255
285.000000	91.707	-34.2211
290.000000	91.645	-34.3378
295.000000	91.583	-34.5037
300.000000	91.524	-34.5845
304.000000	91.479	-34.5959
307.000000	91.442	-34.6097
311.000000	91.388	-34.6140
315.000000	91.322	-34.6476
320.000000	91.243	-34.6395
325.000000	91.173	-34.5004
330.000000	91.104	-34.3815
335.000000	91.028	-34.2687
340.000000	90.947	-34.0766
345.000000	90.868	-33.9252
350.000000	90.784	-33.8074
355.000000	90.691	-33.5523
360.000000	90.601	-33.1788
365.000000	90.523	-32.8321
370.000000	90.452	-32.5223
375.000000	90.381	-32.1614
382.000000	90.275	-31.5693
387.000000	90.210	-31.1558
395.000000	90.108	-30.3615
400.000000	90.044	-29.8550
406.000000	89.971	-29.2457
412.000000	89.900	-28.6340
418.000000	89.840	-27.9983
425.000000	89.771	-27.2380
431.000000	89.708	-26.6186
437.000000	89.652	-25.9834
444.000000	89.598	-25.2694
450.000000	89.563	-24.6182
455.000000	89.529	-24.0517
462.000000	89.483	-23.2863
468.000000	89.449	-22.6845
475.000000	89.416	-21.9572
482.000000	89.390	-21.2276
487.000000	89.366	-20.7174
494.000000	89.326	-20.0552
500.000000	89.295	-19.5214
508.000000	89.262	-18.7821
515.000000	89.235	-18.1301
522.000000	89.200	-17.4454
530.000000	89.156	-16.6455
538.000000	89.124	-15.8691
545.000000	89.099	-15.2242
552.000000	89.075	-14.6224
560.000000	89.050	-13.9487
570.000000	89.010	-13.0745
580.000000	88.972	-12.0792
590.000000	88.933	-11.2051
600.000000	88.879	-10.3980
608.000000	88.850	-9.7062
615.000000	88.831	-9.1012
622.000000	88.808	-8.5199
630.000000	88.775	-7.8116
640.000000	88.735	-6.8887
650.000000	88.694	-6.0403
660.000000	88.653	-5.2132
670.000000	88.614	-4.4236
680.000000	88.574	-3.5336
690.000000	88.539	-2.6126
700.000000	88.503	-1.7782
710.000000	88.460	-0.9705
720.000000	88.418	-0.1165
730.000000	88.379	0.7358
740.000000	88.347	1.6053
750.000000	88.321	2.4643
762.000000	88.286	3.4859
775.000000	88.245	4.5741
788.000000	88.221	5.6802
800.000000	88.202	6.6422
812.000000	88.170	7.5967
825.000000	88.149	8.5995
838.000000	88.146	9.6156
850.000000	88.139	10.6026
862.000000	88.130	11.5575
875.000000	88.120	12.4912
885.000000	88.116	13.2044
900.000000	88.108	14.3285
912.000000	88.107	15.2206
925.000000	88.117	16.1336
938.000000	88.128	17.0537
950.000000	88.143	17.9734
962.000000	88.165	18.8747
975.000000	88.191	19.7766
988.000000	88.234	20.5270
1000.000000	88.285	21.1884
1015.000000	88.355	22.2715
1030.000000	88.427	23.2524
1044.000000	88.498	23.9877
1060.000000	88.577	24.7763
1075.000000	88.662	25.5249
1090.000000	88.758	26.2546
1106.000000	88.858	26.9618
1120.000000	88.937	27.5878
1138.000000	89.043	28.3657
1150.000000	89.119	28.8057
1172.000000	89.265	29.5911
1180.000000	89.318	29.8538
1206.000000	89.474	30.6045
1220.000000	89.557	31.0626
1241.000000	89.687	31.7816
1250.000000	89.740	32.0910
1265.000000	89.822	32.6000
1280.000000	89.903	33.0744
1315.000000	90.099	34.1236
1320.000000	90.126	34.2630
1340.000000	90.227	34.8129
1360.000000	90.328	35.4190
1380.000000	90.421	36.0472
1400.000000	90.507	36.6662
1430.000000	90.644	37.6580
1450.000000	90.729	38.2819
1475.000000	90.841	39.0659
1500.000000	90.943	39.8460
1525.000000	91.039	40.6368
1550.000000	91.131	41.4713
1575.000000	91.211	42.2733
1600.000000	91.285	43.0721
1625.000000	91.345	43.8667
1650.000000	91.398	44.6000
1675.000000	91.451	45.3265
1700.000000	91.494	46.0363
1725.000000	91.531	46.7533
1750.000000	91.559	47.4726
1775.000000	91.567	48.1468
1800.000000	91.564	48.8273
1825.000000	91.557	49.5470
1850.000000	91.542	50.2036
1875.000000	91.521	50.8238
1900.000000	91.499	51.4407
1925.000000	91.474	52.0059
1950.000000	91.440	52.5541
1975.000000	91.401	53.1232
2000.000000	91.363	53.6612
2030.000000	91.317	54.2639
2060.000000	91.264	54.8621
2090.000000	91.215	55.4053
2120.000000	91.174	55.9230
2140.000000	91.153	56.2735
2180.000000	91.138	56.9488
2200.000000	91.151	57.2531
2240.000000	91.218	57.7366
2270.000000	91.297	57.8194
2300.000000	91.385	57.6556
2330.000000	91.482	57.3148
2360.000000	91.587	56.7614
2400.000000	91.744	55.8007
2430.000000	91.874	55.0113
2470.000000	92.079	53.7426
2500.000000	92.263	52.6177
2540.000000	92.535	50.9651
2580.000000	92.844	49.1218
2620.000000	93.175	47.0816
2650.000000	93.431	45.4455
2690.000000	93.777	43.1114
2720.000000	94.024	41.2604
2760.000000	94.322	38.6906
2800.000000	94.576	35.9471
2850.000000	94.787	32.3438
2900.000000	94.869	28.7719
2950.000000	94.832	25.3141
3000.000000	94.679	22.0835
3040.000000	94.488	19.7020
3070.000000	94.307	18.0525
3110.000000	94.018	16.0775
3150.000000	93.698	14.3543
3200.000000	93.268	12.5408
3250.000000	92.788	11.0835
3300.000000	92.273	9.9415
3350.000000	91.741	9.1042
3400.000000	91.198	8.5215
3450.000000	90.661	8.1943
3500.000000	90.137	8.0648
3550.000000	89.622	8.0513
3600.000000	89.124	8.2338
3650.000000	88.639	8.5702
3700.000000	88.165	8.9696
3750.000000	87.704	9.4692
3820.000000	87.074	10.3034
3870.000000	86.640	10.9685
3950.000000	85.989	12.0994
4000.000000	85.608	12.7705
4060.000000	85.205	13.5744
4120.000000	84.897	14.4046
4180.000000	84.712	15.1362
4250.000000	84.716	15.9540
4310.000000	84.916	16.4883
4370.000000	85.269	16.8978
4440.000000	85.841	17.2510
4500.000000	86.433	17.3927
4550.000000	86.986	17.3039
4620.000000	87.821	16.8655
4680.000000	88.556	16.1959
4750.000000	89.411	14.9185
4820.000000	90.254	13.0846
4870.000000	90.840	11.4125
4940.000000	91.632	8.5123
5000.000000	92.270	5.5518
5080.000000	93.019	0.9924
5150.000000	93.540	-3.5008
5220.000000	93.906	-8.2321
5300.000000	94.117	-13.6309
5380.000000	94.118	-18.7033
5450.000000	93.976	-22.5750
5520.000000	93.736	-25.7998
5600.000000	93.381	-28.6491
5700.000000	92.865	-30.9722
5800.000000	92.278	-32.1439
5900.000000	91.619	-32.3594
6000.000000	90.907	-31.8189
6080.000000	90.314	-31.0270
6150.000000	89.801	-30.0889
6220.000000	89.311	-28.9350
6300.000000	88.796	-27.4099
6400.000000	88.214	-25.2442
6500.000000	87.700	-22.9047
6600.000000	87.289	-20.3954
6700.000000	87.087	-17.7113
6800.000000	87.289	-14.8999
6900.000000	88.069	-12.1952
7000.000000	89.327	-9.7477
7100.000000	90.777	-7.6131
7200.000000	92.217	-5.8934
7300.000000	93.590	-4.4435
7400.000000	94.911	-3.5552
7500.000000	96.171	-3.4977
7620.000000	97.568	-4.6492
7750.000000	98.875	-7.8339
7880.000000	99.896	-14.5903
8000.000000	100.317	-23.8498
8120.000000	99.960	-35.2588
8250.000000	98.788	-47.4153
8380.000000	97.007	-57.0491
8500.000000	95.037	-62.8840
8620.000000	92.977	-65.7609
8750.000000	90.863	-66.1940
8850.000000	89.387	-65.3312
9000.000000	87.280	-62.8396
9120.000000	85.649	-60.1230
9250.000000	83.919	-56.5413
9380.000000	82.225	-52.2773
9500.000000	80.739	-47.8365
9620.000000	79.382	-43.1295
9750.000000	78.038	-38.0187
9880.000000	76.839	-32.7400
10000.000000	75.853	-27.7641
10150.000000	74.754	-21.6720
10300.000000	73.929	-15.5487
10440.000000	73.408	-9.5555
10600.000000	73.018	-3.0889
10750.000000	72.809	2.9118
10900.000000	72.643	8.9690
11060.000000	72.492	15.4685
11200.000000	72.602	21.3705
11380.000000	73.268	28.8182
11500.000000	73.910	33.7318
11720.000000	74.951	42.8163
11800.000000	75.222	46.0398
12060.000000	75.871	56.5144
12200.000000	76.272	61.8493
12410.000000	77.122	69.2279
12500.000000	77.528	72.1535
12650.000000	78.075	76.4924
12800.000000	78.456	80.5836
13150.000000	79.237	90.9473
13200.000000	79.393	92.4854
13400.000000	80.059	97.1308
13600.000000	80.902	98.9670
13800.000000	82.025	95.9615
14000.000000	82.820	85.9891
14300.000000	82.121	66.3131
14500.000000	79.988	54.1378
14750.000000	75.965	45.6365
15000.000000	70.888	43.2299
15250.000000	65.256	45.5545
15500.000000	64.455	50.8799
15750.000000	67.434	56.8075
16000.000000	69.283	64.2182
16250.000000	70.006	72.9706
16500.000000	70.040	81.5435
16750.000000	69.836	88.0778
17000.000000	69.510	92.3287
17250.000000	69.204	94.1617
17500.000000	69.054	90.9135
17750.000000	68.657	83.6672
18000.000000	67.773	73.6568
18250.000000	66.205	60.4434
18500.000000	63.945	32.4526
18750.000000	61.488	-80.9142
19000.000000	59.451	-85.8319
19250.000000	58.014	37.2273
19500.000000	56.731	32.1614
19750.000000	55.734	-131.0933
20000.000000	55.346	9.4673
