* Measurement data measured by REW V5.20.7
* Source: Input device not selected, no input selected, L, volume: no control
* Format: 128k Log Swept Sine, 1 sweep at -12.0 dBFS with no timing reference
* Dated: 2022. 5. 2 ¿ÀÈÄ 1:33:57
* REW Settings:
*  C-weighting compensation: Off
*  Target level: 75.0 dB
* Note: 
* Measurement: L_Foam
* Smoothing: 1/24 octave
* Frequency Step: 1/48 octave
* Start Frequency: 20.300 Hz
*
* Freq(Hz)	SPL(dB)	Phase(degrees)
20.299999	97.457	28.2283
20.600000	97.478	27.6149
20.900000	97.517	26.5197
21.200001	97.545	25.4805
21.400000	97.558	24.8184
21.799999	97.576	23.5070
22.000000	97.584	22.8397
22.400000	97.597	21.4864
22.700001	97.604	20.4561
23.000000	97.610	19.4100
23.299999	97.613	18.3555
23.600000	97.612	17.3025
24.000000	97.605	15.9213
24.299999	97.595	14.9224
24.700001	97.575	13.6663
25.000000	97.558	12.7963
25.400000	97.535	11.7413
25.799999	97.517	10.7921
26.200001	97.507	9.9075
26.500000	97.503	9.2531
26.900000	97.499	8.3579
27.200001	97.491	7.6601
27.600000	97.467	6.7088
28.000000	97.425	5.7785
28.500000	97.353	4.7192
29.000000	97.275	3.7961
29.500000	97.205	2.9361
30.000000	97.145	2.0294
30.400000	97.095	1.2427
30.700001	97.054	0.6325
31.100000	96.993	-0.1677
31.500000	96.930	-0.9234
32.000000	96.858	-1.8090
32.500000	96.797	-2.6816
33.000000	96.737	-3.5712
33.500000	96.670	-4.4275
34.000000	96.597	-5.1651
34.500000	96.530	-5.7686
35.000000	96.478	-6.3158
35.500000	96.431	-6.8994
36.000000	96.376	-7.5239
36.500000	96.305	-8.1174
37.000000	96.227	-8.6272
37.500000	96.153	-9.0841
38.200001	96.056	-9.7541
38.700001	95.983	-10.2685
39.500000	95.860	-11.0596
40.000000	95.784	-11.4978
40.599998	95.702	-11.9185
41.200001	95.650	-12.2220
41.799999	95.645	-12.6226
42.500000	95.645	-13.5525
43.099998	95.572	-14.5467
43.700001	95.429	-15.1199
44.400002	95.277	-15.0052
45.000000	95.228	-14.7157
45.500000	95.219	-14.6931
46.200001	95.188	-14.9632
46.799999	95.135	-15.2412
47.500000	95.062	-15.5434
48.200001	94.982	-15.8616
48.700001	94.921	-16.0720
49.400002	94.841	-16.3361
50.000000	94.778	-16.5683
50.799999	94.697	-16.8424
51.500000	94.639	-17.0134
52.200001	94.597	-17.2079
53.000000	94.548	-17.4978
53.799999	94.489	-17.7632
54.500000	94.436	-17.9588
55.200001	94.382	-18.1474
56.000000	94.318	-18.3586
57.000000	94.233	-18.5649
58.000000	94.171	-18.6541
59.000000	94.145	-18.9121
60.000000	94.094	-19.3270
60.799999	94.042	-19.4675
61.500000	94.012	-19.5043
62.200001	93.991	-19.5789
63.000000	93.962	-19.6801
64.000000	93.926	-19.7845
65.000000	93.889	-19.9843
66.000000	93.831	-20.2408
67.000000	93.761	-20.4198
68.000000	93.702	-20.5237
69.000000	93.659	-20.6548
70.000000	93.618	-20.8419
71.000000	93.576	-21.0066
72.000000	93.540	-21.1471
73.000000	93.504	-21.2919
74.000000	93.469	-21.4219
75.000000	93.435	-21.5459
76.199997	93.394	-21.6666
77.500000	93.358	-21.7709
78.800003	93.329	-21.8954
80.000000	93.301	-22.0232
81.199997	93.268	-22.1122
82.500000	93.234	-22.1485
83.800003	93.199	-22.1881
85.000000	93.165	-22.1986
86.199997	93.133	-22.2300
87.500000	93.099	-22.2903
88.500000	93.078	-22.3542
90.000000	93.052	-22.5142
91.199997	93.028	-22.6758
92.500000	92.998	-22.8012
93.800003	92.978	-22.8984
95.000000	92.958	-23.0535
96.199997	92.932	-23.1974
97.500000	92.907	-23.3319
98.800003	92.887	-23.4600
100.000000	92.873	-23.5546
101.500000	92.859	-23.6807
103.000000	92.838	-23.7887
104.400002	92.820	-23.8841
106.000000	92.804	-24.0424
107.500000	92.796	-24.2228
109.000000	92.794	-24.3988
110.599998	92.789	-24.5162
112.000000	92.781	-24.5415
113.800003	92.760	-24.5964
115.000000	92.735	-24.6667
117.199997	92.697	-24.8949
118.000000	92.686	-25.0343
120.599998	92.641	-25.2769
122.000000	92.640	-25.1877
124.099998	92.645	-25.0815
125.000000	92.643	-25.0550
126.500000	92.636	-25.0795
128.000000	92.626	-25.2041
131.500000	92.603	-25.5360
132.000000	92.601	-25.5652
134.000000	92.596	-25.6432
136.000000	92.587	-25.7067
138.000000	92.575	-25.8079
140.000000	92.563	-25.9633
143.000000	92.546	-26.1311
145.000000	92.540	-26.2261
147.500000	92.533	-26.3533
150.000000	92.528	-26.5343
152.500000	92.517	-26.7051
155.000000	92.509	-26.8698
157.500000	92.499	-27.0489
160.000000	92.485	-27.1652
162.500000	92.477	-27.2406
165.000000	92.471	-27.3879
167.500000	92.462	-27.5665
170.000000	92.454	-27.6789
172.500000	92.446	-27.7504
175.000000	92.433	-27.8446
177.500000	92.423	-27.9295
180.000000	92.427	-27.9929
182.500000	92.432	-28.0708
185.000000	92.424	-28.1906
187.500000	92.407	-28.3411
190.000000	92.394	-28.4471
192.500000	92.388	-28.5395
195.000000	92.376	-28.6634
197.500000	92.363	-28.7956
200.000000	92.354	-28.9161
203.000000	92.343	-29.0117
206.000000	92.333	-29.1069
209.000000	92.327	-29.2482
212.000000	92.314	-29.4083
214.000000	92.298	-29.4701
218.000000	92.275	-29.5499
220.000000	92.266	-29.6382
224.000000	92.244	-29.8222
227.000000	92.225	-29.9126
230.000000	92.211	-29.9865
233.000000	92.202	-30.1112
236.000000	92.193	-30.2814
240.000000	92.167	-30.4165
243.000000	92.143	-30.4287
247.000000	92.116	-30.5254
250.000000	92.099	-30.6647
254.000000	92.076	-30.8104
258.000000	92.041	-30.9110
262.000000	92.007	-31.0216
265.000000	91.981	-31.0638
269.000000	91.940	-31.0946
272.000000	91.907	-31.1877
276.000000	91.866	-31.3302
280.000000	91.826	-31.3888
285.000000	91.764	-31.4136
290.000000	91.698	-31.4391
295.000000	91.637	-31.4850
300.000000	91.579	-31.4923
304.000000	91.530	-31.4409
307.000000	91.487	-31.3955
311.000000	91.424	-31.3326
315.000000	91.360	-31.2615
320.000000	91.274	-31.1379
325.000000	91.186	-30.9605
330.000000	91.103	-30.7397
335.000000	91.015	-30.4850
340.000000	90.926	-30.2390
345.000000	90.843	-29.9835
350.000000	90.774	-29.6369
355.000000	90.702	-29.1805
360.000000	90.614	-28.6846
365.000000	90.531	-28.2242
370.000000	90.461	-27.8028
375.000000	90.398	-27.4085
382.000000	90.300	-26.8101
387.000000	90.221	-26.2765
395.000000	90.110	-25.3142
400.000000	90.048	-24.7618
406.000000	89.992	-24.0878
412.000000	89.932	-23.3399
418.000000	89.871	-22.5805
425.000000	89.802	-21.7328
431.000000	89.741	-21.0391
437.000000	89.686	-20.3858
444.000000	89.632	-19.5762
450.000000	89.592	-18.8767
455.000000	89.563	-18.3015
462.000000	89.527	-17.4575
468.000000	89.493	-16.7136
475.000000	89.455	-15.8952
482.000000	89.426	-15.1302
487.000000	89.406	-14.6219
494.000000	89.381	-13.9199
500.000000	89.354	-13.2761
508.000000	89.310	-12.3918
515.000000	89.284	-11.6073
522.000000	89.268	-10.8664
530.000000	89.246	-10.0631
538.000000	89.218	-9.2370
545.000000	89.188	-8.4973
552.000000	89.147	-7.7930
560.000000	89.106	-7.0374
570.000000	89.079	-6.0485
580.000000	89.054	-5.0676
590.000000	89.015	-4.1395
600.000000	88.974	-3.1813
608.000000	88.945	-2.4088
615.000000	88.918	-1.7113
622.000000	88.891	-1.0104
630.000000	88.857	-0.2695
640.000000	88.809	0.5861
650.000000	88.770	1.4845
660.000000	88.738	2.4469
670.000000	88.710	3.4238
680.000000	88.673	4.3736
690.000000	88.625	5.3212
700.000000	88.583	6.2043
710.000000	88.546	7.1398
720.000000	88.513	8.1336
730.000000	88.485	9.0824
740.000000	88.457	9.9754
750.000000	88.422	10.8763
762.000000	88.390	12.0283
775.000000	88.362	13.2262
788.000000	88.334	14.3578
800.000000	88.309	15.4876
812.000000	88.284	16.4997
825.000000	88.266	17.5489
838.000000	88.249	18.6650
850.000000	88.230	19.6828
862.000000	88.223	20.6558
875.000000	88.225	21.6713
885.000000	88.219	22.4846
900.000000	88.203	23.7450
912.000000	88.198	24.7920
925.000000	88.212	25.8759
938.000000	88.241	26.9214
950.000000	88.267	27.8539
962.000000	88.294	28.7539
975.000000	88.335	29.7044
988.000000	88.398	30.5787
1000.000000	88.462	31.3653
1015.000000	88.514	32.4647
1030.000000	88.567	33.4833
1044.000000	88.635	34.3526
1060.000000	88.726	35.2830
1075.000000	88.810	36.1007
1090.000000	88.892	36.9056
1106.000000	88.988	37.7698
1120.000000	89.076	38.4696
1138.000000	89.191	39.2722
1150.000000	89.269	39.7574
1172.000000	89.409	40.6819
1180.000000	89.459	41.0374
1206.000000	89.626	42.0973
1220.000000	89.715	42.6217
1241.000000	89.848	43.3952
1250.000000	89.903	43.7306
1265.000000	89.993	44.3005
1280.000000	90.087	44.8505
1315.000000	90.292	46.0312
1320.000000	90.318	46.1973
1340.000000	90.421	46.8657
1360.000000	90.522	47.5812
1380.000000	90.620	48.3070
1400.000000	90.722	49.0218
1430.000000	90.866	50.0434
1450.000000	90.959	50.6960
1475.000000	91.069	51.5600
1500.000000	91.176	52.4736
1525.000000	91.275	53.3440
1550.000000	91.372	54.1727
1575.000000	91.460	55.0241
1600.000000	91.539	55.8961
1625.000000	91.608	56.7441
1650.000000	91.666	57.5686
1675.000000	91.717	58.3712
1700.000000	91.756	59.1851
1725.000000	91.788	60.0088
1750.000000	91.815	60.8069
1775.000000	91.834	61.5777
1800.000000	91.841	62.3253
1825.000000	91.844	63.0413
1850.000000	91.841	63.7347
1875.000000	91.834	64.3998
1900.000000	91.821	65.0618
1925.000000	91.804	65.6985
1950.000000	91.787	66.3044
1975.000000	91.763	66.8576
2000.000000	91.733	67.3712
2030.000000	91.700	67.9496
2060.000000	91.672	68.4556
2090.000000	91.645	68.9241
2120.000000	91.624	69.3530
2140.000000	91.614	69.5787
2180.000000	91.602	69.8997
2200.000000	91.605	70.0130
2240.000000	91.631	70.0655
2270.000000	91.661	70.0134
2300.000000	91.700	69.8676
2330.000000	91.759	69.6259
2360.000000	91.833	69.2651
2400.000000	91.955	68.5887
2430.000000	92.072	67.9116
2470.000000	92.272	66.8044
2500.000000	92.454	65.8321
2540.000000	92.737	64.3209
2580.000000	93.059	62.5520
2620.000000	93.406	60.5197
2650.000000	93.670	58.8233
2690.000000	94.014	56.3655
2720.000000	94.255	54.4150
2760.000000	94.536	51.6784
2800.000000	94.756	48.8263
2850.000000	94.937	45.2124
2900.000000	94.993	41.6495
2950.000000	94.928	38.2683
3000.000000	94.759	35.1626
3040.000000	94.559	32.8917
3070.000000	94.375	31.3282
3110.000000	94.090	29.4597
3150.000000	93.765	27.8473
3200.000000	93.317	26.1197
3250.000000	92.838	24.7414
3300.000000	92.335	23.6578
3350.000000	91.811	22.8519
3400.000000	91.277	22.3137
3450.000000	90.739	22.0455
3500.000000	90.204	21.9906
3550.000000	89.694	22.0666
3600.000000	89.206	22.2427
3650.000000	88.727	22.5294
3700.000000	88.259	22.9497
3750.000000	87.801	23.4640
3820.000000	87.186	24.2605
3870.000000	86.762	24.9256
3950.000000	86.116	25.9927
4000.000000	85.739	26.5881
4060.000000	85.348	27.2554
4120.000000	85.060	27.9281
4180.000000	84.897	28.6016
4250.000000	84.913	29.2314
4310.000000	85.123	29.6290
4370.000000	85.488	29.8491
4440.000000	86.082	29.9222
4500.000000	86.688	29.8549
4550.000000	87.236	29.6060
4620.000000	88.049	28.8712
4680.000000	88.771	27.9154
4750.000000	89.611	26.3369
4820.000000	90.436	24.1990
4870.000000	91.010	22.3021
4940.000000	91.773	19.0722
5000.000000	92.385	15.8055
5080.000000	93.100	10.8223
5150.000000	93.584	6.0353
5220.000000	93.907	1.0783
5300.000000	94.073	-4.5369
5380.000000	94.040	-9.7230
5450.000000	93.873	-13.6372
5520.000000	93.616	-16.8865
5600.000000	93.250	-19.8154
5700.000000	92.722	-22.3578
5800.000000	92.133	-23.7956
5900.000000	91.472	-24.3942
6000.000000	90.746	-24.3443
6080.000000	90.141	-23.8877
6150.000000	89.615	-23.2764
6220.000000	89.110	-22.5015
6300.000000	88.568	-21.4295
6400.000000	87.956	-19.7639
6500.000000	87.428	-17.8477
6600.000000	86.996	-15.9946
6700.000000	86.749	-14.1858
6800.000000	86.892	-12.1793
6900.000000	87.585	-10.2688
7000.000000	88.687	-8.6310
7100.000000	89.968	-7.1509
7200.000000	91.266	-5.8307
7300.000000	92.503	-4.7226
7400.000000	93.616	-3.9148
7500.000000	94.607	-3.6386
7620.000000	95.683	-4.4511
7750.000000	96.662	-6.6862
7880.000000	97.324	-10.4633
8000.000000	97.593	-16.0456
8120.000000	97.398	-23.4517
8250.000000	96.752	-32.2520
8380.000000	95.691	-40.5866
8500.000000	94.364	-46.8658
8620.000000	92.831	-51.3327
8750.000000	91.119	-54.4774
8850.000000	89.789	-55.5287
9000.000000	87.812	-55.2222
9120.000000	86.253	-54.4295
9250.000000	84.585	-52.8016
9380.000000	82.931	-50.4252
9500.000000	81.431	-47.6873
9620.000000	80.017	-44.3574
9750.000000	78.638	-40.1747
9880.000000	77.394	-35.8780
10000.000000	76.390	-32.3244
10150.000000	75.323	-27.8513
10300.000000	74.454	-22.8872
10440.000000	73.896	-17.9935
10600.000000	73.516	-12.6774
10750.000000	73.281	-7.8974
10900.000000	73.075	-3.0538
11060.000000	72.986	2.0898
11200.000000	73.132	6.7520
11380.000000	73.775	12.9063
11500.000000	74.377	17.0530
11720.000000	75.351	24.3356
11800.000000	75.618	26.8640
12060.000000	76.302	34.5189
12200.000000	76.725	38.4152
12410.000000	77.582	43.6915
12500.000000	78.004	45.8394
12650.000000	78.651	49.3285
12800.000000	79.088	52.9690
13150.000000	79.825	59.1094
13200.000000	79.964	59.7263
13400.000000	80.525	60.8693
13600.000000	81.322	58.4750
13800.000000	82.042	50.6598
14000.000000	82.298	39.3138
14300.000000	81.001	17.7043
14500.000000	78.778	4.3391
14750.000000	74.916	-3.1868
15000.000000	69.849	-4.8459
15250.000000	64.131	-4.0257
15500.000000	63.343	-0.4527
15750.000000	66.302	4.1747
16000.000000	67.983	9.3838
16250.000000	68.317	15.3935
16500.000000	68.112	21.6264
16750.000000	67.701	26.8278
17000.000000	67.112	31.1533
17250.000000	66.468	33.7415
17500.000000	65.901	33.2130
17750.000000	65.603	30.2266
18000.000000	65.375	22.8958
18250.000000	64.766	11.3663
18500.000000	63.555	-2.4508
18750.000000	61.907	-36.6428
19000.000000	60.012	151.1790
19250.000000	58.185	-39.5252
19500.000000	56.798	94.5117
19750.000000	55.770	53.6294
20000.000000	55.039	-10.8162
