* Measurement data measured by REW V5.20.9
* Source: Mic in at rear panel (Pink)(Realtek(R) Audio), MICROPHONE (마스), L, volume: 0.500
* Format: 256k Log Swept Sine, 1 sweep at -12.0 dBFS with no timing reference
* Dated: 2022. 9. 24 오후 12:46:50
* REW Settings:
*  C-weighting compensation: Off
*  Target level: 75.0 dB
* Note: 
* Measurement: R
* Smoothing: 1/24 octave
* Frequency Step: 1/48 octave
* Start Frequency: 20.300 Hz
*
* Freq(Hz)	SPL(dB)	Phase(degrees)
20.299999	70.431	-134.2472
20.600000	70.392	-135.3714
20.900000	70.275	-137.0041
21.200001	70.093	-137.4967
21.400000	69.992	-137.1576
21.799999	69.949	-135.6042
22.000000	70.036	-134.8383
22.400000	70.375	-134.2465
22.700001	70.656	-134.9303
23.000000	70.860	-136.3957
23.299999	70.961	-138.1110
23.600000	70.980	-139.6383
24.000000	70.959	-140.9789
24.299999	70.983	-141.5440
24.700001	71.114	-142.2169
25.000000	71.263	-143.0318
25.400000	71.455	-144.6970
25.799999	71.579	-146.7300
26.200001	71.632	-148.6854
26.500000	71.650	-149.9819
26.900000	71.667	-151.5621
27.200001	71.673	-152.7429
27.600000	71.652	-154.3421
28.000000	71.582	-155.7900
28.500000	71.456	-157.0766
29.000000	71.358	-157.8923
29.500000	71.287	-158.6315
30.000000	71.192	-159.1705
30.400000	71.125	-159.0642
30.700001	71.134	-158.6393
31.100000	71.282	-158.0936
31.500000	71.557	-158.3050
32.000000	71.885	-160.3094
32.500000	71.978	-163.5551
33.000000	71.789	-166.2176
33.500000	71.488	-167.1057
34.000000	71.310	-166.5822
34.500000	71.323	-165.9629
35.000000	71.418	-165.9966
35.500000	71.484	-166.5285
36.000000	71.509	-167.1831
36.500000	71.508	-167.8789
37.000000	71.477	-168.5829
37.500000	71.423	-169.1069
38.200001	71.409	-169.5145
38.700001	71.479	-170.1126
39.500000	71.557	-172.3116
40.000000	71.501	-173.7876
40.599998	71.403	-174.8715
41.200001	71.396	-175.5279
41.799999	71.447	-176.4672
42.500000	71.454	-177.6785
43.099998	71.453	-178.1787
43.700001	71.525	-178.6251
44.400002	71.585	-179.8785
45.000000	71.481	179.0358
45.500000	71.337	178.8957
46.200001	71.256	179.4874
46.799999	71.316	179.4091
47.500000	71.321	178.2451
48.200001	71.206	177.1525
48.700001	71.134	176.6662
49.400002	71.093	175.8232
50.000000	71.043	174.9206
50.799999	70.977	174.3207
51.500000	71.054	174.0394
52.200001	71.171	172.9861
53.000000	71.132	171.6033
53.799999	71.027	171.5916
54.500000	71.062	171.9576
55.200001	71.122	171.5828
56.000000	71.065	170.7425
57.000000	70.914	170.1122
58.000000	70.779	169.1246
59.000000	70.565	168.0106
60.000000	70.419	167.6395
60.799999	70.455	167.0956
61.500000	70.502	166.0557
62.200001	70.500	165.0036
63.000000	70.494	164.2113
64.000000	70.511	163.2901
65.000000	70.451	162.5121
66.000000	70.370	162.3072
67.000000	70.319	162.0766
68.000000	70.240	161.5880
69.000000	70.137	161.1864
70.000000	70.085	160.8503
71.000000	70.077	160.0852
72.000000	70.017	159.0882
73.000000	69.916	158.5759
74.000000	69.872	158.5143
75.000000	69.876	158.1743
76.199997	69.809	157.4715
77.500000	69.706	156.8934
78.800003	69.582	156.0404
80.000000	69.466	155.5797
81.199997	69.464	154.9662
82.500000	69.454	153.6420
83.800003	69.364	152.6639
85.000000	69.296	152.3607
86.199997	69.260	152.1354
87.500000	69.188	151.7950
88.500000	69.120	151.6459
90.000000	69.049	151.0100
91.199997	68.936	150.2216
92.500000	68.835	149.7325
93.800003	68.814	148.9192
95.000000	68.745	147.9463
96.199997	68.640	147.5121
97.500000	68.582	147.4750
98.800003	68.551	147.2108
100.000000	68.471	146.8624
101.500000	68.358	146.6866
103.000000	68.299	146.2395
104.400002	68.221	145.4360
106.000000	68.112	144.8863
107.500000	68.059	144.6319
109.000000	67.999	144.4390
110.599998	67.919	144.4960
112.000000	67.870	144.4341
113.800003	67.766	143.8439
115.000000	67.675	143.5204
117.199997	67.584	142.8690
118.000000	67.550	142.5134
120.599998	67.383	141.7595
122.000000	67.308	141.5298
124.099998	67.186	141.0873
125.000000	67.132	141.0024
126.500000	67.074	140.9150
128.000000	67.025	140.6852
131.500000	66.863	140.4432
132.000000	66.849	140.4044
134.000000	66.786	139.9691
136.000000	66.681	139.5070
138.000000	66.607	139.2650
140.000000	66.554	138.8637
143.000000	66.434	138.6686
145.000000	66.355	138.5637
147.500000	66.208	138.3170
150.000000	66.093	138.1033
152.500000	66.011	137.7705
155.000000	65.921	137.5896
157.500000	65.831	137.2787
160.000000	65.718	136.7960
162.500000	65.607	136.6453
165.000000	65.521	136.6012
167.500000	65.417	136.3683
170.000000	65.304	136.1569
172.500000	65.220	136.0350
175.000000	65.137	135.8488
177.500000	65.022	135.6618
180.000000	64.931	135.6507
182.500000	64.879	135.4393
185.000000	64.785	135.0899
187.500000	64.667	135.0338
190.000000	64.600	135.1317
192.500000	64.555	134.9711
195.000000	64.461	134.6865
197.500000	64.338	134.6074
200.000000	64.247	134.7053
203.000000	64.192	134.6868
206.000000	64.118	134.3720
209.000000	63.994	134.2308
212.000000	63.889	134.4710
214.000000	63.853	134.6125
218.000000	63.792	134.2103
220.000000	63.723	133.8641
224.000000	63.541	133.8158
227.000000	63.452	134.2084
230.000000	63.418	134.3867
233.000000	63.390	134.2272
236.000000	63.332	133.9219
240.000000	63.191	133.7290
243.000000	63.067	133.9169
247.000000	62.943	134.3525
250.000000	62.895	134.5193
254.000000	62.850	134.3945
258.000000	62.777	134.1072
262.000000	62.654	133.9621
265.000000	62.543	133.9520
269.000000	62.406	134.0587
272.000000	62.325	134.2348
276.000000	62.233	134.5260
280.000000	62.151	134.7833
285.000000	62.064	135.0150
290.000000	61.983	135.1996
295.000000	61.898	135.2991
300.000000	61.816	135.3862
304.000000	61.745	135.5090
307.000000	61.689	135.6295
311.000000	61.615	135.8045
315.000000	61.539	135.8964
320.000000	61.439	135.9432
325.000000	61.335	136.0672
330.000000	61.226	136.1700
335.000000	61.135	136.1808
340.000000	61.056	136.1926
345.000000	60.986	136.2438
350.000000	60.933	136.3849
355.000000	60.876	136.6808
360.000000	60.794	137.0063
365.000000	60.698	137.2623
370.000000	60.608	137.3989
375.000000	60.534	137.4849
382.000000	60.443	137.8211
387.000000	60.372	138.1602
395.000000	60.246	138.5116
400.000000	60.172	138.6653
406.000000	60.079	138.9694
412.000000	59.990	139.2618
418.000000	59.927	139.5209
425.000000	59.843	139.8733
431.000000	59.760	140.1320
437.000000	59.692	140.4463
444.000000	59.614	140.7717
450.000000	59.555	141.0725
455.000000	59.503	141.3591
462.000000	59.428	141.7050
468.000000	59.367	142.0395
475.000000	59.293	142.4572
482.000000	59.230	142.8023
487.000000	59.191	143.0159
494.000000	59.126	143.3580
500.000000	59.072	143.7166
508.000000	59.007	144.2421
515.000000	58.942	144.6544
522.000000	58.882	145.0003
530.000000	58.823	145.4878
538.000000	58.757	146.0085
545.000000	58.691	146.4251
552.000000	58.634	146.8076
560.000000	58.574	147.2466
570.000000	58.505	147.8078
580.000000	58.440	148.3182
590.000000	58.373	148.9239
600.000000	58.317	149.5624
608.000000	58.278	150.0620
615.000000	58.241	150.4992
622.000000	58.200	150.9182
630.000000	58.156	151.3583
640.000000	58.111	151.9866
650.000000	58.080	152.7112
660.000000	58.050	153.3495
670.000000	58.007	153.9099
680.000000	57.969	154.5293
690.000000	57.950	155.2417
700.000000	57.943	155.9253
710.000000	57.929	156.5225
720.000000	57.908	157.0782
730.000000	57.895	157.7046
740.000000	57.889	158.2603
750.000000	57.879	158.7111
762.000000	57.844	159.4531
775.000000	57.832	160.4432
788.000000	57.867	161.2499
800.000000	57.910	161.8936
812.000000	57.962	162.4457
825.000000	58.039	162.7964
838.000000	58.154	162.7312
850.000000	58.258	161.7068
862.000000	58.195	159.3467
875.000000	57.626	157.2613
885.000000	56.936	158.9988
900.000000	56.534	165.5221
912.000000	56.776	169.3550
925.000000	57.078	171.4366
938.000000	57.302	172.5478
950.000000	57.467	173.3090
962.000000	57.606	173.9575
975.000000	57.744	174.6099
988.000000	57.876	175.2591
1000.000000	57.985	175.7867
1015.000000	58.093	176.3149
1030.000000	58.201	176.8402
1044.000000	58.305	177.2870
1060.000000	58.429	177.7577
1075.000000	58.548	178.2323
1090.000000	58.661	178.6145
1106.000000	58.784	178.9010
1120.000000	58.891	179.1152
1138.000000	59.032	179.3970
1150.000000	59.122	179.5946
1172.000000	59.286	179.8432
1180.000000	59.346	179.9089
1206.000000	59.517	-179.8968
1220.000000	59.603	-179.8212
1241.000000	59.729	-179.7043
1250.000000	59.779	-179.6438
1265.000000	59.863	-179.5366
1280.000000	59.949	-179.4722
1315.000000	60.132	-179.3631
1320.000000	60.157	-179.3432
1340.000000	60.251	-179.2678
1360.000000	60.339	-179.2172
1380.000000	60.424	-179.1469
1400.000000	60.516	-179.0446
1430.000000	60.659	-178.9174
1450.000000	60.751	-178.8057
1475.000000	60.867	-178.6443
1500.000000	60.987	-178.4989
1525.000000	61.104	-178.3304
1550.000000	61.216	-178.1388
1575.000000	61.332	-177.9253
1600.000000	61.440	-177.6941
1625.000000	61.557	-177.4709
1650.000000	61.684	-177.2198
1675.000000	61.817	-176.9863
1700.000000	61.954	-176.7406
1725.000000	62.088	-176.4613
1750.000000	62.221	-176.1651
1775.000000	62.367	-175.8829
1800.000000	62.527	-175.6150
1825.000000	62.694	-175.3924
1850.000000	62.871	-175.2188
1875.000000	63.056	-175.0973
1900.000000	63.245	-175.0011
1925.000000	63.441	-174.9439
1950.000000	63.641	-174.9608
1975.000000	63.846	-175.0651
2000.000000	64.056	-175.2670
2030.000000	64.308	-175.5929
2060.000000	64.558	-175.9761
2090.000000	64.806	-176.4472
2120.000000	65.053	-177.0394
2140.000000	65.217	-177.4791
2180.000000	65.540	-178.4273
2200.000000	65.701	-178.9451
2240.000000	66.019	179.8916
2270.000000	66.249	178.9213
2300.000000	66.474	177.8657
2330.000000	66.697	176.6991
2360.000000	66.918	175.4352
2400.000000	67.202	173.6163
2430.000000	67.406	172.1391
2470.000000	67.661	169.9903
2500.000000	67.836	168.2502
2540.000000	68.052	165.7728
2580.000000	68.236	163.1244
2620.000000	68.380	160.3283
2650.000000	68.463	158.1602
2690.000000	68.538	155.2266
2720.000000	68.565	152.9897
2760.000000	68.561	149.9910
2800.000000	68.512	147.0486
2850.000000	68.389	143.5049
2900.000000	68.209	140.1714
2950.000000	67.979	137.1028
3000.000000	67.704	134.3117
3040.000000	67.462	132.3097
3070.000000	67.269	130.9445
3110.000000	67.003	129.3021
3150.000000	66.727	127.8607
3200.000000	66.375	126.3272
3250.000000	66.021	125.0776
3300.000000	65.671	124.0613
3350.000000	65.322	123.2542
3400.000000	64.981	122.6879
3450.000000	64.655	122.3182
3500.000000	64.344	122.0874
3550.000000	64.042	121.9949
3600.000000	63.752	122.0385
3650.000000	63.474	122.2102
3700.000000	63.206	122.5065
3750.000000	62.946	122.9076
3820.000000	62.603	123.5894
3870.000000	62.370	124.1723
3950.000000	62.004	125.2763
4000.000000	61.786	126.0316
4060.000000	61.538	126.9922
4120.000000	61.309	128.0266
4180.000000	61.092	129.1714
4250.000000	60.848	130.5864
4310.000000	60.643	131.8398
4370.000000	60.442	133.1631
4440.000000	60.219	134.7601
4500.000000	60.042	136.1704
4550.000000	59.903	137.3370
4620.000000	59.720	138.9680
4680.000000	59.573	140.4580
4750.000000	59.416	142.3079
4820.000000	59.275	144.1498
4870.000000	59.178	145.4826
4940.000000	59.055	147.3964
5000.000000	58.962	149.0413
5080.000000	58.851	151.2557
5150.000000	58.773	153.2373
5220.000000	58.708	155.2602
5300.000000	58.647	157.6135
5380.000000	58.606	159.9622
5450.000000	58.584	162.0587
5520.000000	58.572	164.2039
5600.000000	58.581	166.6245
5700.000000	58.625	169.6216
5800.000000	58.705	172.6447
5900.000000	58.809	175.6675
6000.000000	58.944	178.6821
6080.000000	59.081	-178.9018
6150.000000	59.221	-176.7717
6220.000000	59.381	-174.6700
6300.000000	59.593	-172.3299
6400.000000	59.894	-169.4952
6500.000000	60.232	-166.7410
6600.000000	60.620	-164.0436
6700.000000	61.059	-161.4670
6800.000000	61.558	-159.0645
6900.000000	62.136	-156.9050
7000.000000	62.794	-155.0111
7100.000000	63.532	-153.4855
7200.000000	64.346	-152.4661
7300.000000	65.234	-152.1142
7400.000000	66.184	-152.6643
7500.000000	67.177	-154.3661
7620.000000	68.371	-158.3360
7750.000000	69.506	-165.4213
7880.000000	70.210	-175.2193
8000.000000	70.354	174.4612
8120.000000	70.005	164.5418
8250.000000	69.177	155.7840
8380.000000	68.068	149.7917
8500.000000	66.951	146.6243
8620.000000	65.843	145.3027
8750.000000	64.714	145.4669
8850.000000	63.918	146.4392
9000.000000	62.860	148.8277
9120.000000	62.129	151.3375
9250.000000	61.440	154.5082
9380.000000	60.847	158.0287
9500.000000	60.375	161.4919
9620.000000	59.977	165.0660
9750.000000	59.634	169.0519
9880.000000	59.382	173.1019
10000.000000	59.222	176.8594
10150.000000	59.109	-178.4119
10300.000000	59.087	-173.7210
10440.000000	59.156	-169.4904
10600.000000	59.344	-164.8925
10750.000000	59.637	-160.9075
10900.000000	60.041	-157.3834
11060.000000	60.605	-154.3696
11200.000000	61.225	-152.6158
11380.000000	62.165	-152.1618
11500.000000	62.831	-153.4088
11720.000000	63.912	-159.9977
11800.000000	64.172	-163.8800
12060.000000	64.099	-179.8263
12200.000000	63.393	171.9289
12410.000000	61.635	163.4265
12500.000000	60.730	161.4785
12650.000000	59.163	160.2485
12800.000000	57.632	160.9897
13150.000000	54.479	167.4609
13200.000000	54.080	168.7399
13400.000000	52.598	174.4044
13600.000000	51.262	-179.2180
13800.000000	50.069	-172.2655
14000.000000	49.022	-164.9083
14300.000000	47.675	-153.3842
14500.000000	46.906	-145.6243
14750.000000	46.064	-135.6798
15000.000000	45.310	-125.7002
15250.000000	44.658	-115.6979
15500.000000	44.198	-105.4280
15750.000000	43.902	-95.0294
16000.000000	43.720	-85.1635
16250.000000	43.619	-75.2960
16500.000000	43.612	-65.2070
16750.000000	43.722	-54.9850
17000.000000	43.986	-45.1482
17250.000000	44.400	-35.9511
17500.000000	44.983	-27.1405
17750.000000	45.729	-18.8253
18000.000000	46.682	-11.6385
18250.000000	47.848	-6.4324
18500.000000	49.108	-4.4431
18750.000000	50.208	-6.9354
19000.000000	50.734	-14.1217
19250.000000	50.351	-23.4202
19500.000000	49.022	-30.2996
19750.000000	47.021	-31.7490
20000.000000	44.709	-27.7247
