* Measurement data measured by REW V5.20.9
* Source: Mic in at rear panel (Pink)(Realtek(R) Audio), MICROPHONE (마스), L, volume: 0.500
* Format: 256k Log Swept Sine, 1 sweep at -12.0 dBFS with no timing reference
* Dated: 2022. 9. 24 오후 12:53:13
* REW Settings:
*  C-weighting compensation: Off
*  Target level: 75.0 dB
* Note: 
* Measurement: R_Final
* Smoothing: 1/24 octave
* Frequency Step: 1/48 octave
* Start Frequency: 20.300 Hz
*
* Freq(Hz)	SPL(dB)	Phase(degrees)
20.299999	70.522	-133.9027
20.600000	70.549	-134.4155
20.900000	70.602	-135.3077
21.200001	70.648	-136.0965
21.400000	70.677	-136.5792
21.799999	70.736	-137.5374
22.000000	70.767	-138.0468
22.400000	70.825	-139.1394
22.700001	70.861	-140.0069
23.000000	70.889	-140.8887
23.299999	70.910	-141.7516
23.600000	70.929	-142.5763
24.000000	70.957	-143.6081
24.299999	70.984	-144.3468
24.700001	71.031	-145.3210
25.000000	71.071	-146.0670
25.400000	71.126	-147.0939
25.799999	71.174	-148.1409
26.200001	71.213	-149.1698
26.500000	71.236	-149.9068
26.900000	71.259	-150.8286
27.200001	71.275	-151.4770
27.600000	71.295	-152.3023
28.000000	71.315	-153.1097
28.500000	71.339	-154.1203
29.000000	71.354	-155.1263
29.500000	71.362	-156.1017
30.000000	71.367	-157.0357
30.400000	71.374	-157.7653
30.700001	71.380	-158.3123
31.100000	71.390	-159.0517
31.500000	71.400	-159.8062
32.000000	71.409	-160.7654
32.500000	71.414	-161.7227
33.000000	71.415	-162.6461
33.500000	71.418	-163.5104
34.000000	71.426	-164.3196
34.500000	71.440	-165.1130
35.000000	71.456	-165.9271
35.500000	71.465	-166.7569
36.000000	71.465	-167.5574
36.500000	71.461	-168.2950
37.000000	71.459	-168.9866
37.500000	71.461	-169.6820
38.200001	71.457	-170.7129
38.700001	71.445	-171.4643
39.500000	71.414	-172.6099
40.000000	71.395	-173.2931
40.599998	71.374	-174.1096
41.200001	71.353	-174.9335
41.799999	71.331	-175.7510
42.500000	71.304	-176.6738
43.099998	71.280	-177.4225
43.700001	71.259	-178.1200
44.400002	71.240	-178.8760
45.000000	71.231	-179.5170
45.500000	71.227	179.9146
46.200001	71.213	179.0599
46.799999	71.187	178.3320
47.500000	71.148	177.5716
48.200001	71.116	176.8891
48.700001	71.098	176.4051
49.400002	71.075	175.7076
50.000000	71.054	175.1078
50.799999	71.026	174.3184
51.500000	71.001	173.6373
52.200001	70.974	172.9776
53.000000	70.944	172.2351
53.799999	70.905	171.4932
54.500000	70.864	170.8867
55.200001	70.824	170.3160
56.000000	70.777	169.6432
57.000000	70.705	168.8515
58.000000	70.645	168.1874
59.000000	70.605	167.4180
60.000000	70.555	166.5630
60.799999	70.512	165.9049
61.500000	70.475	165.3431
62.200001	70.436	164.8124
63.000000	70.394	164.2688
64.000000	70.350	163.6278
65.000000	70.307	162.9487
66.000000	70.251	162.2863
67.000000	70.192	161.6864
68.000000	70.132	161.1027
69.000000	70.073	160.5300
70.000000	70.016	159.9499
71.000000	69.958	159.3542
72.000000	69.899	158.7770
73.000000	69.839	158.2304
74.000000	69.779	157.7162
75.000000	69.721	157.2279
76.199997	69.652	156.6504
77.500000	69.573	156.0237
78.800003	69.493	155.3961
80.000000	69.418	154.8245
81.199997	69.345	154.2647
82.500000	69.269	153.6730
83.800003	69.199	153.1052
85.000000	69.133	152.5787
86.199997	69.064	152.1176
87.500000	68.996	151.6730
88.500000	68.945	151.3143
90.000000	68.863	150.7740
91.199997	68.795	150.3494
92.500000	68.720	149.8849
93.800003	68.644	149.4598
95.000000	68.582	149.0756
96.199997	68.521	148.6624
97.500000	68.449	148.2368
98.800003	68.376	147.8524
100.000000	68.309	147.5202
101.500000	68.226	147.1150
103.000000	68.144	146.7176
104.400002	68.074	146.3392
106.000000	67.996	145.8850
107.500000	67.922	145.4818
109.000000	67.846	145.1176
110.599998	67.764	144.7827
112.000000	67.691	144.5106
113.800003	67.598	144.1463
115.000000	67.533	143.8883
117.199997	67.414	143.3887
118.000000	67.370	143.2006
120.599998	67.230	142.6987
122.000000	67.170	142.4925
124.099998	67.089	142.1450
125.000000	67.053	141.9930
126.500000	66.988	141.7487
128.000000	66.921	141.5096
131.500000	66.762	140.9266
132.000000	66.738	140.8485
134.000000	66.647	140.5783
136.000000	66.562	140.3351
138.000000	66.477	140.0875
140.000000	66.392	139.8495
143.000000	66.263	139.4853
145.000000	66.176	139.2567
147.500000	66.066	138.9691
150.000000	65.954	138.7165
152.500000	65.847	138.4935
155.000000	65.745	138.2792
157.500000	65.651	138.0769
160.000000	65.556	137.8691
162.500000	65.459	137.6902
165.000000	65.364	137.5173
167.500000	65.268	137.3458
170.000000	65.170	137.1859
172.500000	65.076	137.0531
175.000000	64.991	136.9487
177.500000	64.912	136.8759
180.000000	64.824	136.7654
182.500000	64.720	136.6292
185.000000	64.622	136.5253
187.500000	64.540	136.4189
190.000000	64.457	136.3033
192.500000	64.367	136.2018
195.000000	64.278	136.1456
197.500000	64.198	136.1405
200.000000	64.128	136.1291
203.000000	64.036	136.0325
206.000000	63.932	135.9330
209.000000	63.834	135.8605
212.000000	63.741	135.8113
214.000000	63.680	135.8074
218.000000	63.563	135.8658
220.000000	63.507	135.8962
224.000000	63.390	135.8957
227.000000	63.298	135.8488
230.000000	63.207	135.8512
233.000000	63.116	135.9414
236.000000	63.029	136.0228
240.000000	62.919	136.0214
243.000000	62.832	136.0520
247.000000	62.720	136.1219
250.000000	62.633	136.1633
254.000000	62.508	136.3019
258.000000	62.389	136.4703
262.000000	62.277	136.7121
265.000000	62.185	136.9219
269.000000	62.054	137.2546
272.000000	61.968	137.6378
276.000000	61.875	138.2370
280.000000	61.791	138.8236
285.000000	61.739	139.6438
290.000000	61.752	140.2470
295.000000	61.792	140.4592
300.000000	61.807	140.3709
304.000000	61.787	140.2059
307.000000	61.758	140.0482
311.000000	61.702	139.8160
315.000000	61.631	139.6472
320.000000	61.540	139.6518
325.000000	61.450	139.8159
330.000000	61.361	139.9136
335.000000	61.275	139.9149
340.000000	61.191	139.9695
345.000000	61.116	140.1018
350.000000	61.042	140.2337
355.000000	60.961	140.3811
360.000000	60.874	140.5298
365.000000	60.784	140.6685
370.000000	60.700	140.8459
375.000000	60.619	141.0226
382.000000	60.503	141.2478
387.000000	60.422	141.4814
395.000000	60.303	141.8492
400.000000	60.231	142.0797
406.000000	60.140	142.4100
412.000000	60.044	142.7190
418.000000	59.953	142.9648
425.000000	59.867	143.2930
431.000000	59.794	143.6933
437.000000	59.716	144.0924
444.000000	59.640	144.4957
450.000000	59.577	144.8163
455.000000	59.519	145.0794
462.000000	59.444	145.4289
468.000000	59.385	145.7473
475.000000	59.319	146.1489
482.000000	59.250	146.6152
487.000000	59.197	146.9594
494.000000	59.121	147.4254
500.000000	59.064	147.8197
508.000000	58.995	148.3641
515.000000	58.935	148.8402
522.000000	58.875	149.2639
530.000000	58.802	149.6985
538.000000	58.738	150.1644
545.000000	58.690	150.7207
552.000000	58.644	151.2754
560.000000	58.595	151.7874
570.000000	58.526	152.4170
580.000000	58.455	153.0232
590.000000	58.391	153.6420
600.000000	58.337	154.3561
608.000000	58.295	154.9216
615.000000	58.257	155.3845
622.000000	58.223	155.8510
630.000000	58.185	156.4257
640.000000	58.138	157.2173
650.000000	58.091	157.9421
660.000000	58.047	158.5944
670.000000	58.009	159.2379
680.000000	57.978	160.0003
690.000000	57.950	160.7435
700.000000	57.917	161.4150
710.000000	57.893	162.1038
720.000000	57.883	162.8372
730.000000	57.870	163.5477
740.000000	57.849	164.2272
750.000000	57.827	165.0161
762.000000	57.835	166.0345
775.000000	57.866	166.8818
788.000000	57.890	167.6365
800.000000	57.933	168.3381
812.000000	58.002	168.9540
825.000000	58.110	169.2872
838.000000	58.240	169.0257
850.000000	58.316	167.6569
862.000000	58.105	165.2100
875.000000	57.347	164.8615
885.000000	56.782	168.2333
900.000000	56.741	174.3792
912.000000	57.029	177.2128
925.000000	57.287	178.8672
938.000000	57.463	179.9680
950.000000	57.599	-179.2038
962.000000	57.722	-178.4290
975.000000	57.840	-177.6769
988.000000	57.940	-177.0155
1000.000000	58.029	-176.4206
1015.000000	58.167	-175.6712
1030.000000	58.301	-174.9683
1044.000000	58.421	-174.3877
1060.000000	58.547	-173.7533
1075.000000	58.654	-173.1914
1090.000000	58.768	-172.7384
1106.000000	58.903	-172.3427
1120.000000	59.022	-171.9690
1138.000000	59.164	-171.5562
1150.000000	59.255	-171.3154
1172.000000	59.415	-170.9180
1180.000000	59.470	-170.7703
1206.000000	59.653	-170.3869
1220.000000	59.751	-170.2089
1241.000000	59.900	-169.9254
1250.000000	59.960	-169.8061
1265.000000	60.052	-169.6237
1280.000000	60.134	-169.4612
1315.000000	60.322	-168.9950
1320.000000	60.349	-168.9303
1340.000000	60.452	-168.7169
1360.000000	60.552	-168.5237
1380.000000	60.652	-168.3315
1400.000000	60.754	-168.0965
1430.000000	60.910	-167.7034
1450.000000	61.000	-167.4344
1475.000000	61.115	-167.0691
1500.000000	61.240	-166.7024
1525.000000	61.363	-166.3830
1550.000000	61.493	-166.0292
1575.000000	61.624	-165.6302
1600.000000	61.752	-165.2114
1625.000000	61.878	-164.7701
1650.000000	62.016	-164.3390
1675.000000	62.163	-163.9366
1700.000000	62.313	-163.5308
1725.000000	62.460	-163.0702
1750.000000	62.613	-162.6114
1775.000000	62.774	-162.1838
1800.000000	62.941	-161.7758
1825.000000	63.118	-161.3912
1850.000000	63.305	-161.0624
1875.000000	63.502	-160.7749
1900.000000	63.706	-160.5270
1925.000000	63.914	-160.3439
1950.000000	64.125	-160.2315
1975.000000	64.346	-160.1996
2000.000000	64.574	-160.2409
2030.000000	64.846	-160.3895
2060.000000	65.113	-160.6393
2090.000000	65.378	-160.9900
2120.000000	65.638	-161.4199
2140.000000	65.810	-161.7512
2180.000000	66.147	-162.5472
2200.000000	66.312	-163.0096
2240.000000	66.636	-164.0471
2270.000000	66.878	-164.9183
2300.000000	67.114	-165.8782
2330.000000	67.340	-166.9283
2360.000000	67.559	-168.0726
2400.000000	67.840	-169.7569
2430.000000	68.036	-171.1186
2470.000000	68.273	-173.0483
2500.000000	68.433	-174.5725
2540.000000	68.622	-176.6736
2580.000000	68.781	-178.7999
2620.000000	68.922	179.1004
2650.000000	69.023	177.5185
2690.000000	69.154	175.3165
2720.000000	69.244	173.5267
2760.000000	69.334	170.8918
2800.000000	69.366	168.0602
2850.000000	69.312	164.5214
2900.000000	69.165	161.2381
2950.000000	68.951	158.3089
3000.000000	68.697	155.7684
3040.000000	68.472	154.0125
3070.000000	68.294	152.8535
3110.000000	68.046	151.5223
3150.000000	67.796	150.4058
3200.000000	67.485	149.2613
3250.000000	67.176	148.3469
3300.000000	66.869	147.6732
3350.000000	66.571	147.2318
3400.000000	66.288	146.9712
3450.000000	66.022	146.8900
3500.000000	65.774	146.9494
3550.000000	65.543	147.0839
3600.000000	65.324	147.3110
3650.000000	65.119	147.6010
3700.000000	64.925	147.9352
3750.000000	64.738	148.2906
3820.000000	64.486	148.8312
3870.000000	64.300	149.2063
3950.000000	63.976	149.7572
4000.000000	63.741	150.1472
4060.000000	63.415	150.8473
4120.000000	63.057	152.0799
4180.000000	62.719	153.9842
4250.000000	62.410	156.8243
4310.000000	62.236	159.4651
4370.000000	62.130	162.0751
4440.000000	62.061	164.9180
4500.000000	62.033	167.0998
4550.000000	62.027	168.8047
4620.000000	62.030	171.1128
4680.000000	62.043	173.0354
4750.000000	62.076	175.2325
4820.000000	62.125	177.3751
4870.000000	62.172	178.8861
4940.000000	62.256	-179.0119
5000.000000	62.344	-177.2393
5080.000000	62.490	-174.9752
5150.000000	62.638	-173.0963
5220.000000	62.805	-171.3217
5300.000000	63.024	-169.4194
5380.000000	63.260	-167.6452
5450.000000	63.474	-166.1665
5520.000000	63.701	-164.7302
5600.000000	63.988	-163.1297
5700.000000	64.410	-161.1729
5800.000000	64.924	-159.3864
5900.000000	65.563	-158.0341
6000.000000	66.321	-157.4674
6080.000000	67.001	-157.8571
6150.000000	67.633	-159.0003
6220.000000	68.274	-161.0508
6300.000000	68.972	-164.6891
6400.000000	69.680	-171.3167
6500.000000	70.058	-179.9166
6600.000000	69.991	170.6104
6700.000000	69.472	161.7672
6800.000000	68.602	154.7470
6900.000000	67.541	149.9825
7000.000000	66.433	147.3052
7100.000000	65.360	146.3354
7200.000000	64.362	146.6321
7300.000000	63.450	147.7841
7400.000000	62.614	149.5368
7500.000000	61.849	151.7626
7620.000000	61.041	155.0080
7750.000000	60.292	159.0590
7880.000000	59.587	163.4603
8000.000000	58.981	167.8081
8120.000000	58.436	172.3259
8250.000000	57.920	177.3541
8380.000000	57.491	-177.4534
8500.000000	57.155	-172.5347
8620.000000	56.863	-167.5182
8750.000000	56.598	-161.9702
8850.000000	56.439	-157.6806
9000.000000	56.284	-151.2401
9120.000000	56.233	-146.0987
9250.000000	56.243	-140.5712
9380.000000	56.323	-135.1067
9500.000000	56.476	-130.0996
9620.000000	56.723	-125.1649
9750.000000	57.092	-120.0510
9880.000000	57.575	-115.2568
10000.000000	58.129	-111.1546
10150.000000	59.000	-106.6586
10300.000000	60.122	-103.2865
10440.000000	61.423	-101.9372
10600.000000	63.137	-104.0792
10750.000000	64.653	-111.7109
10900.000000	65.530	-125.7586
11060.000000	65.254	-144.1168
11200.000000	63.975	-157.3120
11380.000000	61.475	-166.1852
11500.000000	59.665	-167.7423
11720.000000	56.617	-165.1364
11800.000000	55.642	-163.1219
12060.000000	52.908	-154.4752
12200.000000	51.667	-148.9114
12410.000000	50.014	-139.9909
12500.000000	49.355	-136.0456
12650.000000	48.326	-129.2058
12800.000000	47.416	-122.0802
13150.000000	45.655	-105.1204
13200.000000	45.433	-102.7197
13400.000000	44.591	-93.2028
13600.000000	43.819	-83.6520
13800.000000	43.164	-73.8554
14000.000000	42.595	-63.7787
14300.000000	41.874	-48.7733
14500.000000	41.476	-39.0444
14750.000000	41.070	-27.0002
15000.000000	40.777	-14.7470
15250.000000	40.543	-2.5079
15500.000000	40.434	9.7513
15750.000000	40.498	22.0459
16000.000000	40.663	34.0954
16250.000000	40.976	45.9293
16500.000000	41.356	57.3534
16750.000000	41.864	68.8331
17000.000000	42.537	80.1299
17250.000000	43.341	90.9058
17500.000000	44.366	100.6886
17750.000000	45.574	109.0597
18000.000000	46.934	115.8021
18250.000000	48.397	120.0989
18500.000000	49.776	120.8847
18750.000000	50.775	117.8459
19000.000000	51.169	112.2668
19250.000000	50.873	107.0004
19500.000000	50.020	104.4419
19750.000000	48.899	105.1421
20000.000000	47.737	108.3140
