* Measurement data measured by REW V5.20.13
* Source: EXCL: Mic in at rear panel (Pink)(Realtek(R) Audio), MICROPHONE (마스), L, volume: 1.000
* Format: 256k Log Swept Sine, 1 sweep at -12.0 dBFS with no timing reference
* Dated: 2022. 12. 27 오후 8:12:53
* REW Settings:
*  C-weighting compensation: Off
*  Target level: 75.0 dB
* Note: 
* Measurement: R_MX
* Smoothing: 1/24 octave
* Frequency Step: 1/48 octave
* Start Frequency: 20.300 Hz
*
* Freq(Hz)	SPL(dB)	Phase(degrees)
20.299999	82.183	49.1757
20.600000	82.244	48.9523
20.900000	82.368	48.5641
21.200001	82.488	48.2109
21.400000	82.567	47.9599
21.799999	82.722	47.3359
22.000000	82.793	46.9426
22.400000	82.910	46.0306
22.700001	82.968	45.3286
23.000000	83.007	44.7087
23.299999	83.037	44.2195
23.600000	83.072	43.8513
24.000000	83.142	43.4652
24.299999	83.214	43.1599
24.700001	83.323	42.6473
25.000000	83.402	42.1848
25.400000	83.496	41.5308
25.799999	83.581	40.9258
26.200001	83.669	40.3961
26.500000	83.741	40.0161
26.900000	83.844	39.4751
27.200001	83.920	39.0188
27.600000	84.011	38.3490
28.000000	84.089	37.6555
28.500000	84.168	36.8303
29.000000	84.239	36.0816
29.500000	84.306	35.3864
30.000000	84.371	34.7211
30.400000	84.422	34.2094
30.700001	84.462	33.8366
31.100000	84.518	33.3413
31.500000	84.577	32.8255
32.000000	84.653	32.1205
32.500000	84.723	31.3509
33.000000	84.785	30.5667
33.500000	84.843	29.8185
34.000000	84.900	29.1182
34.500000	84.960	28.4432
35.000000	85.021	27.7748
35.500000	85.080	27.1173
36.000000	85.137	26.4832
36.500000	85.194	25.8680
37.000000	85.250	25.2526
37.500000	85.301	24.6343
38.200001	85.361	23.8069
38.700001	85.401	23.2537
39.500000	85.465	22.3455
40.000000	85.498	21.7475
40.599998	85.530	21.0607
41.200001	85.566	20.4251
41.799999	85.612	19.7446
42.500000	85.659	18.8270
43.099998	85.683	18.0587
43.700001	85.707	17.4065
44.400002	85.752	16.7048
45.000000	85.796	16.0698
45.500000	85.830	15.5514
46.200001	85.881	14.8874
46.799999	85.935	14.3024
47.500000	85.991	13.5276
48.200001	86.029	12.7663
48.700001	86.053	12.2792
49.400002	86.091	11.6041
50.000000	86.118	10.9768
50.799999	86.134	10.1608
51.500000	86.146	9.5374
52.200001	86.166	8.9310
53.000000	86.192	8.1920
53.799999	86.214	7.4428
54.500000	86.231	6.8027
55.200001	86.250	6.1691
56.000000	86.273	5.4480
57.000000	86.302	4.5492
58.000000	86.325	3.6633
59.000000	86.342	2.8317
60.000000	86.363	2.0376
60.799999	86.381	1.3671
61.500000	86.394	0.7616
62.200001	86.404	0.1622
63.000000	86.413	-0.5204
64.000000	86.419	-1.3560
65.000000	86.427	-2.1294
66.000000	86.443	-2.9148
67.000000	86.450	-3.7130
68.000000	86.456	-4.4550
69.000000	86.466	-5.2081
70.000000	86.471	-6.0049
71.000000	86.465	-6.7963
72.000000	86.453	-7.5308
73.000000	86.445	-8.2024
74.000000	86.443	-8.8746
75.000000	86.440	-9.5651
76.199997	86.436	-10.3865
77.500000	86.432	-11.2645
78.800003	86.429	-12.1316
80.000000	86.424	-12.9381
81.199997	86.413	-13.7275
82.500000	86.399	-14.5271
83.800003	86.388	-15.3214
85.000000	86.373	-16.0646
86.199997	86.357	-16.7763
87.500000	86.344	-17.5327
88.500000	86.336	-18.1217
90.000000	86.319	-19.0243
91.199997	86.299	-19.7216
92.500000	86.278	-20.4537
93.800003	86.258	-21.1858
95.000000	86.239	-21.8578
96.199997	86.218	-22.5153
97.500000	86.194	-23.1846
98.800003	86.172	-23.8297
100.000000	86.151	-24.4294
101.500000	86.121	-25.1703
103.000000	86.094	-25.8902
104.400002	86.078	-26.6048
106.000000	86.059	-27.4950
107.500000	86.027	-28.3079
109.000000	85.992	-28.9645
110.599998	85.968	-29.5993
112.000000	85.948	-30.2021
113.800003	85.915	-31.0538
115.000000	85.888	-31.6316
117.199997	85.842	-32.6587
118.000000	85.827	-33.0284
120.599998	85.771	-34.1876
122.000000	85.737	-34.7597
124.099998	85.686	-35.6312
125.000000	85.666	-36.0152
126.500000	85.632	-36.6645
128.000000	85.599	-37.2534
131.500000	85.548	-38.4887
132.000000	85.539	-38.6832
134.000000	85.492	-39.4880
136.000000	85.438	-40.3062
138.000000	85.383	-41.0857
140.000000	85.336	-41.7753
143.000000	85.254	-42.7486
145.000000	85.187	-43.3866
147.500000	85.100	-44.2219
150.000000	85.010	-45.0089
152.500000	84.923	-45.6932
155.000000	84.830	-46.2997
157.500000	84.732	-46.7536
160.000000	84.651	-47.0197
162.500000	84.597	-47.1148
165.000000	84.581	-47.0962
167.500000	84.613	-47.1358
170.000000	84.684	-47.4490
172.500000	84.765	-48.1091
175.000000	84.827	-49.0391
177.500000	84.852	-50.1156
180.000000	84.849	-51.2093
182.500000	84.830	-52.2464
185.000000	84.798	-53.1997
187.500000	84.756	-54.1010
190.000000	84.717	-55.0253
192.500000	84.682	-55.9229
195.000000	84.644	-56.6808
197.500000	84.601	-57.3570
200.000000	84.549	-58.0712
203.000000	84.492	-58.9406
206.000000	84.446	-59.7570
209.000000	84.393	-60.5371
212.000000	84.339	-61.2886
214.000000	84.310	-61.7989
218.000000	84.251	-62.7977
220.000000	84.218	-63.2699
224.000000	84.154	-64.2260
227.000000	84.114	-64.9385
230.000000	84.075	-65.6262
233.000000	84.031	-66.3004
236.000000	83.984	-66.9744
240.000000	83.924	-67.8208
243.000000	83.884	-68.4117
247.000000	83.828	-69.1969
250.000000	83.789	-69.7942
254.000000	83.745	-70.5802
258.000000	83.708	-71.3774
262.000000	83.668	-72.1799
265.000000	83.634	-72.7769
269.000000	83.599	-73.5386
272.000000	83.585	-74.1016
276.000000	83.567	-74.8941
280.000000	83.545	-75.7307
285.000000	83.516	-76.7417
290.000000	83.481	-77.7112
295.000000	83.436	-78.7658
300.000000	83.401	-79.8318
304.000000	83.380	-80.6318
307.000000	83.360	-81.2193
311.000000	83.334	-81.9710
315.000000	83.319	-82.6928
320.000000	83.300	-83.6051
325.000000	83.272	-84.5247
330.000000	83.242	-85.4606
335.000000	83.220	-86.3449
340.000000	83.203	-87.1810
345.000000	83.181	-88.0049
350.000000	83.165	-88.7761
355.000000	83.163	-89.5415
360.000000	83.170	-90.3825
365.000000	83.175	-91.2663
370.000000	83.177	-92.1539
375.000000	83.177	-93.0825
382.000000	83.174	-94.4487
387.000000	83.175	-95.4123
395.000000	83.175	-96.9532
400.000000	83.172	-97.9536
406.000000	83.165	-99.1198
412.000000	83.156	-100.2571
418.000000	83.149	-101.3821
425.000000	83.144	-102.6688
431.000000	83.147	-103.7753
437.000000	83.154	-104.9589
444.000000	83.158	-106.3259
450.000000	83.160	-107.4265
455.000000	83.162	-108.3413
462.000000	83.166	-109.6721
468.000000	83.172	-110.8100
475.000000	83.182	-112.1062
482.000000	83.193	-113.3991
487.000000	83.203	-114.3523
494.000000	83.217	-115.6958
500.000000	83.226	-116.8451
508.000000	83.237	-118.3851
515.000000	83.243	-119.7045
522.000000	83.253	-121.0090
530.000000	83.265	-122.4924
538.000000	83.277	-124.0089
545.000000	83.286	-125.3202
552.000000	83.293	-126.5993
560.000000	83.295	-128.0793
570.000000	83.292	-129.9549
580.000000	83.291	-131.8102
590.000000	83.291	-133.6474
600.000000	83.292	-135.4847
608.000000	83.290	-136.9079
615.000000	83.284	-138.1307
622.000000	83.276	-139.3448
630.000000	83.266	-140.7242
640.000000	83.255	-142.4407
650.000000	83.243	-144.1196
660.000000	83.225	-145.7749
670.000000	83.206	-147.4165
680.000000	83.185	-149.0062
690.000000	83.163	-150.5450
700.000000	83.136	-152.0359
710.000000	83.107	-153.4912
720.000000	83.078	-154.9349
730.000000	83.049	-156.3384
740.000000	83.019	-157.6695
750.000000	82.993	-158.9662
762.000000	82.960	-160.5203
775.000000	82.927	-162.1443
788.000000	82.897	-163.6758
800.000000	82.868	-165.0111
812.000000	82.844	-166.2854
825.000000	82.826	-167.6301
838.000000	82.810	-168.9077
850.000000	82.797	-170.0614
862.000000	82.788	-171.1816
875.000000	82.785	-172.3426
885.000000	82.786	-173.2000
900.000000	82.787	-174.4403
912.000000	82.792	-175.4028
925.000000	82.807	-176.4142
938.000000	82.829	-177.3943
950.000000	82.856	-178.2920
962.000000	82.886	-179.1902
975.000000	82.922	179.8523
988.000000	82.964	178.8803
1000.000000	83.006	177.9626
1015.000000	83.053	176.9133
1030.000000	83.103	175.8667
1044.000000	83.155	174.8600
1060.000000	83.219	173.7315
1075.000000	83.273	172.6699
1090.000000	83.328	171.6186
1106.000000	83.398	170.5389
1120.000000	83.466	169.5836
1138.000000	83.554	168.3297
1150.000000	83.606	167.5035
1172.000000	83.693	166.0513
1180.000000	83.724	165.5548
1206.000000	83.835	163.9638
1220.000000	83.893	163.1010
1241.000000	83.975	161.8520
1250.000000	84.009	161.3439
1265.000000	84.066	160.5135
1280.000000	84.124	159.6993
1315.000000	84.255	157.9387
1320.000000	84.273	157.7070
1340.000000	84.346	156.8080
1360.000000	84.418	155.9466
1380.000000	84.492	155.1401
1400.000000	84.572	154.3754
1430.000000	84.694	153.2992
1450.000000	84.781	152.6570
1475.000000	84.899	151.8963
1500.000000	85.024	151.1916
1525.000000	85.150	150.5177
1550.000000	85.287	149.8770
1575.000000	85.428	149.2773
1600.000000	85.576	148.6997
1625.000000	85.733	148.1400
1650.000000	85.897	147.5962
1675.000000	86.071	147.0509
1700.000000	86.249	146.4864
1725.000000	86.435	145.8937
1750.000000	86.630	145.2713
1775.000000	86.832	144.6092
1800.000000	87.039	143.9034
1825.000000	87.250	143.1434
1850.000000	87.466	142.3116
1875.000000	87.689	141.4033
1900.000000	87.911	140.3946
1925.000000	88.132	139.2744
1950.000000	88.351	138.0605
1975.000000	88.565	136.7375
2000.000000	88.772	135.2879
2030.000000	89.005	133.3894
2060.000000	89.217	131.3245
2090.000000	89.403	129.0961
2120.000000	89.556	126.7304
2140.000000	89.637	125.0942
2180.000000	89.746	121.7136
2200.000000	89.770	119.9890
2240.000000	89.756	116.5621
2270.000000	89.692	114.0755
2300.000000	89.584	111.6993
2330.000000	89.434	109.4678
2360.000000	89.246	107.4134
2400.000000	88.946	105.0105
2430.000000	88.687	103.5014
2470.000000	88.304	101.9014
2500.000000	87.999	101.0242
2540.000000	87.577	100.3448
2580.000000	87.154	100.2507
2620.000000	86.753	100.7065
2650.000000	86.480	101.3489
2690.000000	86.164	102.4781
2720.000000	85.965	103.4445
2760.000000	85.743	104.7880
2800.000000	85.560	106.1417
2850.000000	85.369	107.8309
2900.000000	85.208	109.5532
2950.000000	85.072	111.3273
3000.000000	84.965	113.1895
3040.000000	84.897	114.7518
3070.000000	84.857	115.9765
3110.000000	84.818	117.6531
3150.000000	84.801	119.3619
3200.000000	84.809	121.5657
3250.000000	84.853	123.8478
3300.000000	84.937	126.1321
3350.000000	85.062	128.4147
3400.000000	85.229	130.6873
3450.000000	85.448	132.8888
3500.000000	85.722	134.9531
3550.000000	86.044	136.8316
3600.000000	86.409	138.4376
3650.000000	86.809	139.6948
3700.000000	87.235	140.5486
3750.000000	87.673	140.9400
3820.000000	88.271	140.6734
3870.000000	88.658	139.9147
3950.000000	89.163	137.9261
4000.000000	89.395	136.3820
4060.000000	89.587	134.4482
4120.000000	89.694	132.6174
4180.000000	89.739	131.0182
4250.000000	89.743	129.5233
4310.000000	89.726	128.5507
4370.000000	89.704	127.8068
4440.000000	89.689	127.0888
4500.000000	89.697	126.4907
4550.000000	89.719	125.9297
4620.000000	89.765	124.9244
4680.000000	89.804	123.7599
4750.000000	89.819	121.9563
4820.000000	89.761	119.6861
4870.000000	89.649	117.8645
4940.000000	89.364	115.3198
5000.000000	88.996	113.5238
5080.000000	88.377	112.2696
5150.000000	87.804	112.4643
5220.000000	87.292	113.6173
5300.000000	86.830	115.5350
5380.000000	86.477	117.6422
5450.000000	86.225	119.5078
5520.000000	86.007	121.3893
5600.000000	85.786	123.5622
5700.000000	85.540	126.2950
5800.000000	85.271	129.0561
5900.000000	84.949	132.9907
6000.000000	84.876	138.1743
6080.000000	85.005	141.8998
6150.000000	85.185	144.7848
6220.000000	85.418	147.3583
6300.000000	85.735	149.8763
6400.000000	86.190	152.4145
6500.000000	86.702	154.2055
6600.000000	87.252	155.0699
6700.000000	87.796	154.8085
6800.000000	88.272	153.3127
6900.000000	88.616	150.7133
7000.000000	88.765	147.4621
7100.000000	88.686	144.1964
7200.000000	88.391	141.4901
7300.000000	87.920	139.8127
7400.000000	87.351	139.5057
7500.000000	86.791	140.4948
7620.000000	86.225	142.6478
7750.000000	85.700	145.4749
7880.000000	85.148	148.8709
8000.000000	84.641	152.5490
8120.000000	84.179	156.6168
8250.000000	83.739	161.2028
8380.000000	83.336	165.6696
8500.000000	82.923	169.8427
8620.000000	82.490	174.4504
8750.000000	82.019	179.5030
8850.000000	81.603	-176.5103
9000.000000	80.883	-169.7289
9120.000000	80.277	-163.2134
9250.000000	79.672	-154.9231
9380.000000	79.198	-145.5437
9500.000000	78.945	-136.2657
9620.000000	78.905	-126.8300
9750.000000	79.099	-117.0117
9880.000000	79.501	-108.1941
10000.000000	79.990	-101.3564
10150.000000	80.632	-95.0379
10300.000000	81.127	-91.2636
10440.000000	81.299	-89.5019
10600.000000	81.038	-88.1285
10750.000000	80.360	-85.7785
10900.000000	79.386	-81.2628
11060.000000	78.201	-73.7551
11200.000000	77.169	-65.1555
11380.000000	75.965	-51.8548
11500.000000	75.274	-41.8778
11720.000000	74.285	-21.9510
11800.000000	74.021	-14.3057
12060.000000	73.550	11.6593
12200.000000	73.552	26.0488
12410.000000	73.857	47.5005
12500.000000	74.099	56.5681
12650.000000	74.670	71.4295
12800.000000	75.465	85.8177
13150.000000	78.221	115.9189
13200.000000	78.713	119.5727
13400.000000	80.830	131.5971
13600.000000	82.887	138.1994
13800.000000	84.391	139.0171
14000.000000	85.007	136.9796
14300.000000	84.549	138.5387
14500.000000	83.987	144.9825
14750.000000	83.675	156.7599
15000.000000	84.047	169.0676
15250.000000	84.927	177.8717
15500.000000	85.607	-179.1566
15750.000000	85.497	-178.2835
16000.000000	84.925	-175.2181
16250.000000	84.216	-171.8947
16500.000000	83.030	-168.1578
16750.000000	81.314	-160.6290
17000.000000	79.438	-148.1175
17250.000000	77.864	-131.2377
17500.000000	77.140	-112.3724
17750.000000	77.393	-95.9992
18000.000000	78.036	-85.9047
18250.000000	78.264	-83.0545
18500.000000	77.482	-83.6839
18750.000000	75.581	-81.0987
19000.000000	72.938	-71.5956
19250.000000	70.103	-55.9192
19500.000000	67.470	-36.4721
19750.000000	65.280	-16.3478
20000.000000	63.898	-2.2404
