* Measurement data measured by REW V5.20.13
* Source: EXCL: Mic in at rear panel (Pink)(Realtek(R) Audio), MICROPHONE (마스), L, volume: 1.000
* Format: 256k Log Swept Sine, 1 sweep at -12.0 dBFS with no timing reference
* Dated: 2022. 12. 27 오후 8:15:09
* REW Settings:
*  C-weighting compensation: Off
*  Target level: 75.0 dB
* Note: 
* Measurement: L_MX
* Smoothing: 1/24 octave
* Frequency Step: 1/48 octave
* Start Frequency: 20.300 Hz
*
* Freq(Hz)	SPL(dB)	Phase(degrees)
20.299999	82.947	49.1079
20.600000	83.006	48.7564
20.900000	83.117	48.1566
21.200001	83.208	47.6651
21.400000	83.262	47.3996
21.799999	83.371	46.9372
22.000000	83.430	46.6980
22.400000	83.556	46.1312
22.700001	83.647	45.5967
23.000000	83.726	44.9769
23.299999	83.787	44.3305
23.600000	83.832	43.7226
24.000000	83.879	43.0580
24.299999	83.918	42.6876
24.700001	83.991	42.3057
25.000000	84.063	42.0213
25.400000	84.176	41.5452
25.799999	84.289	40.9222
26.200001	84.388	40.2142
26.500000	84.449	39.6954
26.900000	84.522	39.0827
27.200001	84.577	38.6849
27.600000	84.659	38.1837
28.000000	84.750	37.6247
28.500000	84.858	36.7800
29.000000	84.939	35.8755
29.500000	84.994	35.0910
30.000000	85.052	34.4878
30.400000	85.114	34.0510
30.700001	85.169	33.6890
31.100000	85.242	33.1214
31.500000	85.305	32.4823
32.000000	85.362	31.6945
32.500000	85.408	31.0206
33.000000	85.463	30.4404
33.500000	85.532	29.8527
34.000000	85.602	29.2033
34.500000	85.661	28.5387
35.000000	85.715	27.9145
35.500000	85.774	27.3049
36.000000	85.836	26.6323
36.500000	85.888	25.8769
37.000000	85.921	25.1179
37.500000	85.940	24.4521
38.200001	85.972	23.6998
38.700001	86.010	23.2013
39.500000	86.086	22.3329
40.000000	86.136	21.7580
40.599998	86.199	21.0471
41.200001	86.264	20.2841
41.799999	86.323	19.4645
42.500000	86.377	18.4954
43.099998	86.415	17.6976
43.700001	86.446	16.9268
44.400002	86.474	16.0531
45.000000	86.487	15.3499
45.500000	86.493	14.8271
46.200001	86.508	14.2111
46.799999	86.540	13.7296
47.500000	86.604	13.0468
48.200001	86.669	12.1426
48.700001	86.702	11.4245
49.400002	86.731	10.4637
50.000000	86.752	9.7146
50.799999	86.778	8.7498
51.500000	86.789	7.9597
52.200001	86.789	7.3456
53.000000	86.806	6.8714
53.799999	86.853	6.4112
54.500000	86.899	5.8764
55.200001	86.931	5.2551
56.000000	86.951	4.5424
57.000000	86.969	3.7004
58.000000	86.991	2.8398
59.000000	87.007	1.8958
60.000000	87.012	1.0070
60.799999	87.025	0.3533
61.500000	87.043	-0.2450
62.200001	87.058	-0.8639
63.000000	87.069	-1.5491
64.000000	87.080	-2.3871
65.000000	87.083	-3.2287
66.000000	87.079	-4.0176
67.000000	87.075	-4.7643
68.000000	87.071	-5.5055
69.000000	87.071	-6.2247
70.000000	87.078	-6.9667
71.000000	87.083	-7.7573
72.000000	87.080	-8.5525
73.000000	87.070	-9.3336
74.000000	87.053	-10.0594
75.000000	87.041	-10.7401
76.199997	87.033	-11.5992
77.500000	87.016	-12.5574
78.800003	86.995	-13.3879
80.000000	86.995	-14.1061
81.199997	86.996	-14.9326
82.500000	86.976	-15.8230
83.800003	86.945	-16.5932
85.000000	86.921	-17.2644
86.199997	86.898	-17.9825
87.500000	86.865	-18.7584
88.500000	86.840	-19.3349
90.000000	86.800	-20.1744
91.199997	86.770	-20.7623
92.500000	86.757	-21.3825
93.800003	86.751	-22.0846
95.000000	86.740	-22.7610
96.199997	86.725	-23.4268
97.500000	86.709	-24.1519
98.800003	86.685	-24.9291
100.000000	86.648	-25.6017
101.500000	86.603	-26.3255
103.000000	86.566	-27.0341
104.400002	86.529	-27.6661
106.000000	86.492	-28.3193
107.500000	86.469	-28.9082
109.000000	86.452	-29.5278
110.599998	86.435	-30.2226
112.000000	86.416	-30.8442
113.800003	86.391	-31.6531
115.000000	86.370	-32.2081
117.199997	86.332	-33.1949
118.000000	86.321	-33.5527
120.599998	86.286	-34.7869
122.000000	86.256	-35.4469
124.099998	86.212	-36.3506
125.000000	86.195	-36.7389
126.500000	86.166	-37.3836
128.000000	86.137	-37.9938
131.500000	86.073	-39.3721
132.000000	86.061	-39.5782
134.000000	86.003	-40.3747
136.000000	85.945	-41.1015
138.000000	85.898	-41.8447
140.000000	85.847	-42.5744
143.000000	85.770	-43.6244
145.000000	85.714	-44.3474
147.500000	85.647	-45.1948
150.000000	85.596	-45.9816
152.500000	85.542	-46.7934
155.000000	85.488	-47.6034
157.500000	85.436	-48.4053
160.000000	85.382	-49.1348
162.500000	85.322	-49.8297
165.000000	85.260	-50.5705
167.500000	85.205	-51.3294
170.000000	85.157	-52.0558
172.500000	85.103	-52.7359
175.000000	85.039	-53.3772
177.500000	84.974	-53.9837
180.000000	84.918	-54.5833
182.500000	84.865	-55.2089
185.000000	84.816	-55.8107
187.500000	84.776	-56.3780
190.000000	84.739	-56.9185
192.500000	84.708	-57.4739
195.000000	84.679	-58.1613
197.500000	84.640	-58.9389
200.000000	84.593	-59.6917
203.000000	84.533	-60.5300
206.000000	84.466	-61.3055
209.000000	84.398	-62.0432
212.000000	84.328	-62.7509
214.000000	84.283	-63.1936
218.000000	84.189	-63.9939
220.000000	84.142	-64.3376
224.000000	84.058	-64.9466
227.000000	83.998	-65.3804
230.000000	83.940	-65.7638
233.000000	83.905	-66.0454
236.000000	83.900	-66.2857
240.000000	83.909	-66.7606
243.000000	83.915	-67.2803
247.000000	83.927	-68.1754
250.000000	83.928	-68.9818
254.000000	83.915	-70.1620
258.000000	83.882	-71.3063
262.000000	83.836	-72.3348
265.000000	83.804	-73.0537
269.000000	83.758	-73.9452
272.000000	83.716	-74.5867
276.000000	83.658	-75.4478
280.000000	83.607	-76.2836
285.000000	83.541	-77.2836
290.000000	83.482	-78.2526
295.000000	83.430	-79.2249
300.000000	83.378	-80.1472
304.000000	83.340	-80.9244
307.000000	83.316	-81.5260
311.000000	83.287	-82.2942
315.000000	83.256	-83.0211
320.000000	83.210	-83.8834
325.000000	83.175	-84.7445
330.000000	83.145	-85.6759
335.000000	83.108	-86.5815
340.000000	83.072	-87.4516
345.000000	83.042	-88.2701
350.000000	83.012	-89.0945
355.000000	82.982	-89.9362
360.000000	82.953	-90.8126
365.000000	82.924	-91.6700
370.000000	82.898	-92.4948
375.000000	82.872	-93.3376
382.000000	82.840	-94.5306
387.000000	82.821	-95.3753
395.000000	82.790	-96.7089
400.000000	82.768	-97.5695
406.000000	82.749	-98.5904
412.000000	82.732	-99.6244
418.000000	82.717	-100.6950
425.000000	82.704	-101.9076
431.000000	82.692	-102.9237
437.000000	82.681	-103.9727
444.000000	82.672	-105.2044
450.000000	82.669	-106.2466
455.000000	82.667	-107.0972
462.000000	82.666	-108.2863
468.000000	82.659	-109.3322
475.000000	82.651	-110.5862
482.000000	82.656	-111.8473
487.000000	82.658	-112.7377
494.000000	82.652	-113.9769
500.000000	82.651	-115.0445
508.000000	82.655	-116.4444
515.000000	82.653	-117.6448
522.000000	82.652	-118.8829
530.000000	82.657	-120.3159
538.000000	82.661	-121.7360
545.000000	82.662	-122.9783
552.000000	82.659	-124.2247
560.000000	82.655	-125.6371
570.000000	82.650	-127.4562
580.000000	82.642	-129.2308
590.000000	82.636	-130.9653
600.000000	82.630	-132.7018
608.000000	82.624	-134.0981
615.000000	82.618	-135.2916
622.000000	82.608	-136.4833
630.000000	82.596	-137.8478
640.000000	82.584	-139.5245
650.000000	82.567	-141.1791
660.000000	82.547	-142.8146
670.000000	82.521	-144.4163
680.000000	82.494	-145.9487
690.000000	82.471	-147.4292
700.000000	82.444	-148.8913
710.000000	82.417	-150.3598
720.000000	82.388	-151.8201
730.000000	82.357	-153.2141
740.000000	82.327	-154.5661
750.000000	82.300	-155.8881
762.000000	82.278	-157.4214
775.000000	82.243	-159.0356
788.000000	82.206	-160.5990
800.000000	82.180	-161.9705
812.000000	82.159	-163.2826
825.000000	82.135	-164.6666
838.000000	82.114	-166.0099
850.000000	82.099	-167.1928
862.000000	82.091	-168.3565
875.000000	82.086	-169.5371
885.000000	82.083	-170.3842
900.000000	82.083	-171.6746
912.000000	82.086	-172.7084
925.000000	82.100	-173.7879
938.000000	82.121	-174.8323
950.000000	82.144	-175.7611
962.000000	82.170	-176.6646
975.000000	82.202	-177.6504
988.000000	82.240	-178.7039
1000.000000	82.278	-179.6782
1015.000000	82.325	179.2431
1030.000000	82.378	178.1973
1044.000000	82.429	177.1725
1060.000000	82.489	176.0030
1075.000000	82.547	174.9328
1090.000000	82.606	173.8420
1106.000000	82.670	172.6822
1120.000000	82.729	171.7016
1138.000000	82.806	170.4495
1150.000000	82.859	169.6313
1172.000000	82.955	168.1382
1180.000000	82.988	167.6049
1206.000000	83.091	165.9429
1220.000000	83.146	165.0863
1241.000000	83.230	163.8326
1250.000000	83.266	163.3124
1265.000000	83.326	162.4813
1280.000000	83.384	161.6865
1315.000000	83.514	159.9267
1320.000000	83.533	159.6863
1340.000000	83.606	158.7485
1360.000000	83.678	157.8714
1380.000000	83.755	157.0492
1400.000000	83.839	156.2787
1430.000000	83.969	155.2098
1450.000000	84.059	154.5304
1475.000000	84.181	153.7678
1500.000000	84.311	153.0393
1525.000000	84.447	152.3412
1550.000000	84.591	151.6815
1575.000000	84.739	151.0681
1600.000000	84.895	150.4772
1625.000000	85.060	149.8898
1650.000000	85.231	149.3232
1675.000000	85.411	148.7425
1700.000000	85.600	148.1229
1725.000000	85.795	147.4573
1750.000000	85.995	146.7916
1775.000000	86.204	146.0945
1800.000000	86.421	145.3189
1825.000000	86.641	144.4769
1850.000000	86.863	143.5469
1875.000000	87.084	142.5219
1900.000000	87.305	141.4081
1925.000000	87.529	140.1984
1950.000000	87.749	138.8826
1975.000000	87.960	137.4550
2000.000000	88.161	135.9052
2030.000000	88.386	133.8838
2060.000000	88.586	131.7073
2090.000000	88.756	129.3888
2120.000000	88.891	126.9470
2140.000000	88.960	125.2614
2180.000000	89.041	121.8186
2200.000000	89.050	120.0958
2240.000000	89.006	116.7078
2270.000000	88.923	114.2597
2300.000000	88.798	111.9418
2330.000000	88.636	109.7822
2360.000000	88.442	107.8104
2400.000000	88.137	105.5134
2430.000000	87.876	104.0450
2470.000000	87.498	102.4439
2500.000000	87.194	101.5285
2540.000000	86.770	100.7272
2580.000000	86.332	100.4399
2620.000000	85.896	100.6840
2650.000000	85.580	101.2208
2690.000000	85.198	102.3839
2720.000000	84.950	103.5146
2760.000000	84.677	105.2308
2800.000000	84.471	107.0457
2850.000000	84.287	109.2383
2900.000000	84.156	111.3209
2950.000000	84.059	113.3212
3000.000000	83.986	115.3077
3040.000000	83.943	116.9290
3070.000000	83.921	118.1471
3110.000000	83.906	119.7817
3150.000000	83.908	121.4331
3200.000000	83.934	123.5519
3250.000000	83.990	125.7667
3300.000000	84.076	127.9854
3350.000000	84.198	130.1834
3400.000000	84.366	132.3470
3450.000000	84.578	134.4037
3500.000000	84.829	136.3382
3550.000000	85.115	138.1263
3600.000000	85.435	139.7121
3650.000000	85.790	141.0472
3700.000000	86.172	142.0673
3750.000000	86.574	142.7104
3820.000000	87.143	142.8811
3870.000000	87.525	142.4517
3950.000000	88.038	140.9454
4000.000000	88.284	139.6320
4060.000000	88.490	137.9003
4120.000000	88.608	136.2365
4180.000000	88.659	134.8090
4250.000000	88.666	133.5519
4310.000000	88.649	132.8250
4370.000000	88.630	132.3491
4440.000000	88.627	131.9852
4500.000000	88.656	131.7151
4550.000000	88.704	131.4352
4620.000000	88.795	130.8230
4680.000000	88.883	129.9804
4750.000000	88.973	128.5078
4820.000000	89.004	126.4760
4870.000000	88.964	124.7347
4940.000000	88.789	122.1221
5000.000000	88.513	120.0566
5080.000000	87.990	118.1473
5150.000000	87.454	117.6362
5220.000000	86.933	118.1999
5300.000000	86.426	119.7531
5380.000000	86.030	121.7562
5450.000000	85.755	123.6025
5520.000000	85.521	125.4796
5600.000000	85.282	127.7040
5700.000000	85.013	130.6161
5800.000000	84.744	133.8019
5900.000000	84.466	137.8849
6000.000000	84.360	143.2208
6080.000000	84.514	147.4643
6150.000000	84.753	150.5900
6220.000000	85.030	153.2689
6300.000000	85.386	155.9234
6400.000000	85.902	158.6010
6500.000000	86.484	160.4070
6600.000000	87.102	161.1398
6700.000000	87.706	160.6024
6800.000000	88.220	158.6838
6900.000000	88.565	155.5930
7000.000000	88.679	151.8972
7100.000000	88.538	148.3504
7200.000000	88.171	145.6472
7300.000000	87.648	144.2225
7400.000000	87.055	144.1447
7500.000000	86.468	145.1893
7620.000000	85.834	147.5660
7750.000000	85.257	151.0871
7880.000000	84.720	155.1855
8000.000000	84.259	159.3140
8120.000000	83.858	163.6594
8250.000000	83.498	168.3820
8380.000000	83.186	172.8405
8500.000000	82.900	176.5585
8620.000000	82.562	179.9362
8750.000000	82.080	-176.5943
8850.000000	81.600	-173.8257
9000.000000	80.681	-168.8745
9120.000000	79.798	-163.5683
9250.000000	78.787	-155.9461
9380.000000	77.854	-146.4188
9500.000000	77.143	-136.2457
9620.000000	76.652	-125.0725
9750.000000	76.448	-112.5265
9880.000000	76.580	-100.4602
10000.000000	76.933	-90.3231
10150.000000	77.569	-79.5182
10300.000000	78.261	-71.2569
10440.000000	78.785	-65.9192
10600.000000	79.061	-61.8994
10750.000000	78.907	-58.7340
10900.000000	78.374	-54.6270
11060.000000	77.524	-48.0627
11200.000000	76.686	-40.2474
11380.000000	75.638	-27.7497
11500.000000	75.020	-18.2069
11720.000000	74.125	1.2548
11800.000000	73.888	8.8483
12060.000000	73.512	34.8704
12200.000000	73.579	49.2242
12410.000000	73.992	70.6231
12500.000000	74.288	79.6818
12650.000000	74.953	94.5071
12800.000000	75.843	108.8304
13150.000000	78.830	138.5027
13200.000000	79.356	142.0673
13400.000000	81.611	153.6213
13600.000000	83.790	159.4782
13800.000000	85.366	159.1834
14000.000000	85.986	155.9655
14300.000000	85.501	156.4155
14500.000000	84.983	162.3532
14750.000000	84.841	172.9982
15000.000000	85.444	-177.2265
15250.000000	86.427	-173.2126
15500.000000	86.828	-177.5833
15750.000000	85.757	175.7647
16000.000000	83.264	177.3965
16250.000000	80.255	-169.7540
16500.000000	77.837	-149.8172
16750.000000	76.540	-128.7156
17000.000000	75.951	-108.9852
17250.000000	75.771	-90.3374
17500.000000	76.021	-73.1583
17750.000000	76.651	-58.7644
18000.000000	77.422	-48.9817
18250.000000	77.874	-45.1467
18500.000000	77.481	-45.5078
18750.000000	76.006	-44.5763
19000.000000	73.665	-37.6444
19250.000000	70.944	-24.1531
19500.000000	68.314	-6.1963
19750.000000	66.103	12.7101
20000.000000	64.667	25.9761
