* Measurement data measured by REW V5.20.13
* Source: EXCL: Mic in at rear panel (Pink)(Realtek(R) Audio), MICROPHONE (마스), L, volume: 1.000
* Format: 256k Log Swept Sine, 1 sweep at -12.0 dBFS with no timing reference
* Dated: 2022. 12. 27 오후 8:21:37
* REW Settings:
*  C-weighting compensation: Off
*  Target level: 75.0 dB
* Note: 
* Measurement: R_long
* Smoothing: 1/24 octave
* Frequency Step: 1/48 octave
* Start Frequency: 20.300 Hz
*
* Freq(Hz)	SPL(dB)	Phase(degrees)
20.299999	93.858	6.1819
20.600000	93.882	5.9361
20.900000	93.930	5.4851
21.200001	93.975	5.0175
21.400000	94.002	4.6836
21.799999	94.043	3.9456
22.000000	94.056	3.5482
22.400000	94.066	2.7499
22.700001	94.066	2.1861
23.000000	94.065	1.6626
23.299999	94.068	1.1566
23.600000	94.079	0.6362
24.000000	94.101	-0.1254
24.299999	94.117	-0.7587
24.700001	94.130	-1.6567
25.000000	94.131	-2.3285
25.400000	94.122	-3.1691
25.799999	94.112	-3.9219
26.200001	94.107	-4.6085
26.500000	94.108	-5.1066
26.900000	94.110	-5.7712
27.200001	94.109	-6.2717
27.600000	94.104	-6.9297
28.000000	94.095	-7.5604
28.500000	94.087	-8.3100
29.000000	94.083	-9.0583
29.500000	94.080	-9.8540
30.000000	94.068	-10.6986
30.400000	94.048	-11.3720
30.700001	94.029	-11.8529
31.100000	94.002	-12.4489
31.500000	93.978	-13.0043
32.000000	93.954	-13.6861
32.500000	93.936	-14.3927
33.000000	93.918	-15.1181
33.500000	93.900	-15.8309
34.000000	93.882	-16.5152
34.500000	93.866	-17.1779
35.000000	93.850	-17.8295
35.500000	93.835	-18.4754
36.000000	93.819	-19.1175
36.500000	93.801	-19.7534
37.000000	93.779	-20.3736
37.500000	93.754	-20.9697
38.200001	93.720	-21.7757
38.700001	93.696	-22.3547
39.500000	93.653	-23.3001
40.000000	93.624	-23.8821
40.599998	93.589	-24.5638
41.200001	93.557	-25.2512
41.799999	93.525	-25.9577
42.500000	93.482	-26.7796
43.099998	93.445	-27.4566
43.700001	93.408	-28.1094
44.400002	93.364	-28.8383
45.000000	93.327	-29.4276
45.500000	93.299	-29.9066
46.200001	93.261	-30.5906
46.799999	93.225	-31.1858
47.500000	93.179	-31.8497
48.200001	93.139	-32.4918
48.700001	93.113	-32.9720
49.400002	93.073	-33.6818
50.000000	93.032	-34.2791
50.799999	92.975	-35.0228
51.500000	92.930	-35.6619
52.200001	92.884	-36.3040
53.000000	92.831	-37.0041
53.799999	92.780	-37.6722
54.500000	92.736	-38.2576
55.200001	92.690	-38.8344
56.000000	92.638	-39.4659
57.000000	92.575	-40.2420
58.000000	92.504	-40.9978
59.000000	92.433	-41.7013
60.000000	92.362	-42.4218
60.799999	92.300	-43.0038
61.500000	92.249	-43.5059
62.200001	92.199	-44.0493
63.000000	92.129	-44.6952
64.000000	92.031	-45.3168
65.000000	91.974	-45.8384
66.000000	91.932	-46.5736
67.000000	91.864	-47.3308
68.000000	91.794	-47.9564
69.000000	91.731	-48.5636
70.000000	91.665	-49.1841
71.000000	91.594	-49.7962
72.000000	91.522	-50.3868
73.000000	91.454	-50.9697
74.000000	91.388	-51.5746
75.000000	91.319	-52.1863
76.199997	91.234	-52.8860
77.500000	91.144	-53.6154
78.800003	91.048	-54.3093
80.000000	90.965	-54.8677
81.199997	90.895	-55.5141
82.500000	90.806	-56.2859
83.800003	90.709	-56.9401
85.000000	90.631	-57.4432
86.199997	90.567	-57.9382
87.500000	90.499	-58.5132
88.500000	90.438	-58.9667
90.000000	90.335	-59.6113
91.199997	90.247	-60.0930
92.500000	90.160	-60.5535
93.800003	90.096	-61.0859
95.000000	90.034	-61.6952
96.199997	89.962	-62.2617
97.500000	89.887	-62.8089
98.800003	89.813	-63.3398
100.000000	89.744	-63.8124
101.500000	89.657	-64.3909
103.000000	89.570	-64.9757
104.400002	89.488	-65.5168
106.000000	89.396	-66.1277
107.500000	89.309	-66.6695
109.000000	89.227	-67.1824
110.599998	89.143	-67.7290
112.000000	89.071	-68.1954
113.800003	88.980	-68.7707
115.000000	88.919	-69.1494
117.199997	88.804	-69.8374
118.000000	88.760	-70.0705
120.599998	88.630	-70.7928
122.000000	88.564	-71.2077
124.099998	88.463	-71.8556
125.000000	88.417	-72.1491
126.500000	88.336	-72.6392
128.000000	88.254	-73.0897
131.500000	88.090	-74.0449
132.000000	88.069	-74.1781
134.000000	87.976	-74.6807
136.000000	87.873	-75.0761
138.000000	87.773	-75.3834
140.000000	87.686	-75.6036
143.000000	87.582	-75.8391
145.000000	87.528	-75.9295
147.500000	87.502	-76.2339
150.000000	87.493	-76.9337
152.500000	87.483	-77.7512
155.000000	87.456	-78.6339
157.500000	87.387	-79.5641
160.000000	87.294	-80.4814
162.500000	87.198	-81.3365
165.000000	87.109	-82.0893
167.500000	87.027	-82.7909
170.000000	86.946	-83.4894
172.500000	86.860	-84.1470
175.000000	86.766	-84.7697
177.500000	86.667	-85.3799
180.000000	86.573	-85.9671
182.500000	86.493	-86.5028
185.000000	86.416	-87.0096
187.500000	86.338	-87.5334
190.000000	86.261	-88.1124
192.500000	86.188	-88.6834
195.000000	86.122	-89.1922
197.500000	86.056	-89.6774
200.000000	85.990	-90.1737
203.000000	85.916	-90.7862
206.000000	85.845	-91.3921
209.000000	85.772	-91.9811
212.000000	85.697	-92.5914
214.000000	85.647	-92.9937
218.000000	85.553	-93.7369
220.000000	85.510	-94.1025
224.000000	85.423	-94.8606
227.000000	85.361	-95.4150
230.000000	85.305	-95.9732
233.000000	85.246	-96.5258
236.000000	85.190	-97.0439
240.000000	85.124	-97.7702
243.000000	85.068	-98.3360
247.000000	84.992	-99.0447
250.000000	84.938	-99.5659
254.000000	84.864	-100.2271
258.000000	84.792	-100.8978
262.000000	84.726	-101.5900
265.000000	84.685	-102.1163
269.000000	84.639	-102.7937
272.000000	84.607	-103.2634
276.000000	84.566	-103.8884
280.000000	84.528	-104.5443
285.000000	84.486	-105.3776
290.000000	84.455	-106.2408
295.000000	84.429	-107.1282
300.000000	84.401	-108.0688
304.000000	84.378	-108.8805
307.000000	84.362	-109.4779
311.000000	84.339	-110.2224
315.000000	84.316	-110.9552
320.000000	84.289	-111.9318
325.000000	84.259	-112.9109
330.000000	84.230	-113.8705
335.000000	84.207	-114.8346
340.000000	84.182	-115.7833
345.000000	84.153	-116.7182
350.000000	84.123	-117.6468
355.000000	84.101	-118.5788
360.000000	84.087	-119.5359
365.000000	84.073	-120.4971
370.000000	84.059	-121.4517
375.000000	84.047	-122.3930
382.000000	84.036	-123.6982
387.000000	84.026	-124.6424
395.000000	84.003	-126.1839
400.000000	83.993	-127.1845
406.000000	83.985	-128.3819
412.000000	83.984	-129.5699
418.000000	83.980	-130.7341
425.000000	83.974	-132.0901
431.000000	83.978	-133.2925
437.000000	83.987	-134.5035
444.000000	83.994	-135.8997
450.000000	83.999	-137.1054
455.000000	84.002	-138.1363
462.000000	84.012	-139.5880
468.000000	84.026	-140.8412
475.000000	84.042	-142.3180
482.000000	84.056	-143.7944
487.000000	84.066	-144.8503
494.000000	84.078	-146.2970
500.000000	84.087	-147.5221
508.000000	84.103	-149.1921
515.000000	84.119	-150.6973
522.000000	84.134	-152.2021
530.000000	84.151	-153.9348
538.000000	84.167	-155.6519
545.000000	84.180	-157.1237
552.000000	84.192	-158.6006
560.000000	84.205	-160.3044
570.000000	84.220	-162.4675
580.000000	84.231	-164.6294
590.000000	84.241	-166.7550
600.000000	84.249	-168.8551
608.000000	84.251	-170.5159
615.000000	84.250	-171.9624
622.000000	84.250	-173.4127
630.000000	84.252	-175.0596
640.000000	84.249	-177.0996
650.000000	84.244	-179.1237
660.000000	84.238	178.9102
670.000000	84.231	176.9628
680.000000	84.223	175.0302
690.000000	84.209	173.1345
700.000000	84.194	171.2672
710.000000	84.176	169.4123
720.000000	84.158	167.6069
730.000000	84.142	165.8967
740.000000	84.127	164.2242
750.000000	84.109	162.5477
762.000000	84.091	160.5627
775.000000	84.067	158.4714
788.000000	84.051	156.4387
800.000000	84.040	154.6645
812.000000	84.029	152.9183
825.000000	84.019	151.0455
838.000000	84.014	149.2484
850.000000	84.017	147.6464
862.000000	84.025	146.0689
875.000000	84.037	144.3729
885.000000	84.049	143.1018
900.000000	84.073	141.2149
912.000000	84.095	139.7337
925.000000	84.123	138.1659
938.000000	84.158	136.6323
950.000000	84.196	135.2363
962.000000	84.237	133.8387
975.000000	84.286	132.3176
988.000000	84.340	130.7739
1000.000000	84.393	129.3641
1015.000000	84.462	127.6733
1030.000000	84.534	125.9581
1044.000000	84.598	124.3449
1060.000000	84.672	122.5089
1075.000000	84.746	120.7924
1090.000000	84.824	119.0781
1106.000000	84.912	117.2431
1120.000000	84.992	115.6201
1138.000000	85.093	113.5352
1150.000000	85.158	112.1727
1172.000000	85.280	109.7133
1180.000000	85.323	108.8254
1206.000000	85.457	105.9614
1220.000000	85.525	104.4474
1241.000000	85.628	102.2010
1250.000000	85.672	101.2572
1265.000000	85.743	99.7106
1280.000000	85.812	98.1807
1315.000000	85.975	94.7273
1320.000000	85.999	94.2493
1340.000000	86.095	92.3624
1360.000000	86.183	90.5173
1380.000000	86.272	88.7260
1400.000000	86.367	86.9669
1430.000000	86.516	84.4091
1450.000000	86.621	82.7508
1475.000000	86.757	80.7117
1500.000000	86.899	78.7416
1525.000000	87.048	76.8142
1550.000000	87.202	74.8908
1575.000000	87.362	73.0048
1600.000000	87.532	71.1633
1625.000000	87.709	69.3311
1650.000000	87.891	67.4664
1675.000000	88.081	65.5762
1700.000000	88.281	63.6898
1725.000000	88.488	61.7866
1750.000000	88.700	59.8532
1775.000000	88.915	57.8688
1800.000000	89.137	55.8220
1825.000000	89.363	53.7087
1850.000000	89.594	51.5111
1875.000000	89.828	49.2222
1900.000000	90.062	46.8423
1925.000000	90.295	44.3587
1950.000000	90.524	41.7666
1975.000000	90.746	39.0508
2000.000000	90.958	36.2101
2030.000000	91.196	32.6383
2060.000000	91.411	28.8891
2090.000000	91.596	24.9884
2120.000000	91.746	20.9670
2140.000000	91.824	18.2305
2180.000000	91.923	12.6678
2200.000000	91.943	9.8676
2240.000000	91.922	4.3162
2270.000000	91.854	0.2608
2300.000000	91.744	-3.6764
2330.000000	91.593	-7.4779
2360.000000	91.407	-11.0975
2400.000000	91.109	-15.5934
2430.000000	90.856	-18.7026
2470.000000	90.487	-22.4514
2500.000000	90.191	-24.9411
2540.000000	89.786	-27.8253
2580.000000	89.381	-30.1945
2620.000000	88.995	-32.0588
2650.000000	88.732	-33.1810
2690.000000	88.424	-34.4290
2720.000000	88.226	-35.2551
2760.000000	88.000	-36.3038
2800.000000	87.808	-37.3571
2850.000000	87.603	-38.7062
2900.000000	87.421	-40.0594
2950.000000	87.255	-41.3750
3000.000000	87.106	-42.6351
3040.000000	86.997	-43.5710
3070.000000	86.920	-44.2378
3110.000000	86.827	-45.0925
3150.000000	86.748	-45.9161
3200.000000	86.665	-46.8843
3250.000000	86.601	-47.7657
3300.000000	86.556	-48.5883
3350.000000	86.535	-49.3715
3400.000000	86.540	-50.1141
3450.000000	86.578	-50.8216
3500.000000	86.652	-51.5405
3550.000000	86.758	-52.2972
3600.000000	86.898	-53.1337
3650.000000	87.068	-54.1090
3700.000000	87.265	-55.2892
3750.000000	87.481	-56.7216
3820.000000	87.792	-59.1937
3870.000000	87.998	-61.2927
3950.000000	88.278	-65.0893
4000.000000	88.413	-67.6436
4060.000000	88.536	-70.7722
4120.000000	88.625	-73.8616
4180.000000	88.691	-76.8224
4250.000000	88.756	-80.0984
4310.000000	88.817	-82.7704
4370.000000	88.893	-85.4009
4440.000000	89.012	-88.5405
4500.000000	89.143	-91.4210
4550.000000	89.269	-94.0510
4620.000000	89.454	-98.1942
4680.000000	89.598	-102.2598
4750.000000	89.710	-107.6537
4820.000000	89.709	-113.6493
4870.000000	89.610	-118.1354
4940.000000	89.310	-124.2954
5000.000000	88.914	-129.0311
5080.000000	88.262	-133.9599
5150.000000	87.679	-136.8557
5220.000000	87.175	-138.7861
5300.000000	86.736	-140.4613
5380.000000	86.413	-142.0485
5450.000000	86.189	-143.5007
5520.000000	85.992	-145.0090
5600.000000	85.788	-146.7561
5700.000000	85.548	-149.0131
5800.000000	85.258	-151.2767
5900.000000	84.894	-152.2177
6000.000000	84.796	-151.9468
6080.000000	84.893	-152.3326
6150.000000	85.019	-153.0864
6220.000000	85.174	-154.0920
6300.000000	85.379	-155.5209
6400.000000	85.670	-157.7325
6500.000000	86.000	-160.4849
6600.000000	86.352	-163.8806
6700.000000	86.694	-168.0532
6800.000000	86.983	-173.0847
6900.000000	87.171	-178.8564
7000.000000	87.215	174.9913
7100.000000	87.086	168.9020
7200.000000	86.783	163.3484
7300.000000	86.336	158.8073
7400.000000	85.817	155.6409
7500.000000	85.345	153.7925
7620.000000	84.957	152.3707
7750.000000	84.676	150.8146
7880.000000	84.359	149.3470
8000.000000	84.028	148.3353
8120.000000	83.695	147.8057
8250.000000	83.370	147.8524
8380.000000	83.115	148.3907
8500.000000	82.918	149.2168
8620.000000	82.776	150.7426
8750.000000	82.785	152.8412
8850.000000	82.898	154.3473
9000.000000	83.213	156.1028
9120.000000	83.563	156.9030
9250.000000	83.997	157.0139
9380.000000	84.428	156.3385
9500.000000	84.793	155.2047
9620.000000	85.126	153.8419
9750.000000	85.491	152.2988
9880.000000	85.922	150.5884
10000.000000	86.402	148.4478
10150.000000	87.066	144.1542
10300.000000	87.632	137.2547
10440.000000	87.850	128.4858
10600.000000	87.515	117.2862
10750.000000	86.598	108.1113
10900.000000	85.255	102.0302
11060.000000	83.617	99.3499
11200.000000	82.194	99.7186
11380.000000	80.532	102.9344
11500.000000	79.570	106.3640
11720.000000	78.135	114.5515
11800.000000	77.724	117.9817
12060.000000	76.816	130.2328
12200.000000	76.601	137.1702
12410.000000	76.619	147.3802
12500.000000	76.748	151.5555
12650.000000	77.125	158.0843
12800.000000	77.710	163.8088
13150.000000	79.746	171.5855
13200.000000	80.071	171.7693
13400.000000	81.252	169.5706
13600.000000	81.940	163.2123
13800.000000	81.899	155.4207
14000.000000	81.211	149.7146
14300.000000	79.650	148.1709
14500.000000	78.682	150.8724
14750.000000	77.793	156.4050
15000.000000	77.291	162.8935
15250.000000	77.098	169.0145
15500.000000	77.034	174.3558
15750.000000	76.997	-179.6274
16000.000000	77.203	-171.8276
16250.000000	77.935	-163.6236
16500.000000	79.115	-157.4158
16750.000000	80.439	-154.0518
17000.000000	81.788	-152.7383
17250.000000	83.354	-152.4970
17500.000000	85.353	-154.7232
17750.000000	87.422	-162.8826
18000.000000	88.974	-178.5192
18250.000000	89.607	159.7070
18500.000000	89.068	135.3127
18750.000000	87.255	113.8882
19000.000000	84.355	100.4156
19250.000000	80.825	95.8605
19500.000000	77.181	98.1107
19750.000000	73.862	104.2015
20000.000000	71.540	109.6926
