* Measurement data measured by REW V5.20.13
* Source: Input device not selected, no input selected, R, volume: no control. Timing signal peak level -59.4 dBFS, measurement signal peak level -22.5 dBFS
* Format: 128k Log Swept Sine, 1 sweep at -12.0 dBFS using an acoustic timing reference
* Dated: 2022. 10. 25 ¿ÀÀü 7:11:59
* REW Settings:
*  C-weighting compensation: Off
*  Target level: 75.0 dB
* Note: Delay -0.0458 ms (-16 mm, -0.62 in) using estimated IR delay relative to Acoustic reference played from  R with no timing offset Clock adjustment: -0.1 ppm
* Measurement: VX400 L -¼Ø
* Smoothing: 1/24 octave
* Frequency Step: 1/48 octave
* Start Frequency: 20.300 Hz
*
* Freq(Hz)	SPL(dB)	Phase(degrees)
20.299999	56.483	-67.7778
20.600000	56.930	-69.3787
20.900000	57.778	-72.6645
21.200001	58.507	-76.9366
21.400000	58.883	-80.2740
21.799999	59.324	-87.6002
22.000000	59.376	-91.1999
22.400000	59.155	-97.2900
22.700001	58.770	-100.2279
23.000000	58.308	-101.4125
23.299999	57.902	-101.0966
23.600000	57.643	-99.9062
24.000000	57.559	-98.1247
24.299999	57.625	-97.2594
24.700001	57.781	-96.7558
25.000000	57.948	-96.6146
25.400000	58.311	-96.7626
25.799999	58.862	-98.1730
26.200001	59.436	-101.9174
26.500000	59.718	-106.3151
26.900000	59.721	-113.2694
27.200001	59.381	-117.7109
27.600000	58.544	-119.9565
28.000000	57.762	-116.2268
28.500000	58.116	-106.8843
29.000000	59.729	-101.7873
29.500000	61.156	-104.1936
30.000000	61.944	-109.3865
30.400000	62.327	-112.5533
30.700001	62.624	-114.1821
31.100000	63.108	-116.3718
31.500000	63.589	-119.5782
32.000000	63.936	-125.0228
32.500000	63.912	-130.0387
33.000000	63.777	-132.8527
33.500000	63.871	-134.4339
34.000000	64.144	-137.1127
34.500000	64.242	-140.9826
35.000000	64.076	-143.5477
35.500000	64.048	-143.1305
36.000000	64.587	-141.8205
36.500000	65.447	-142.9665
37.000000	66.083	-147.0544
37.500000	66.327	-151.5154
38.200001	66.457	-154.5433
38.700001	66.760	-155.3222
39.500000	67.351	-158.1814
40.000000	67.559	-160.1949
40.599998	67.814	-161.4925
41.200001	68.256	-162.8874
41.799999	68.655	-165.9321
42.500000	68.740	-170.1141
43.099998	68.600	-171.9622
43.700001	68.528	-172.2122
44.400002	68.611	-171.6134
45.000000	68.857	-170.5490
45.500000	69.263	-169.8442
46.200001	69.983	-171.0808
46.799999	70.374	-174.6264
47.500000	70.341	-178.9010
48.200001	70.025	179.5837
48.700001	69.883	-179.7416
49.400002	70.028	-177.8633
50.000000	70.464	-176.8638
50.799999	71.194	-178.3149
51.500000	71.562	177.9526
52.200001	71.553	174.6894
53.000000	71.536	173.7702
53.799999	71.914	172.8806
54.500000	72.209	169.8520
55.200001	72.200	166.4562
56.000000	72.063	164.3028
57.000000	72.064	162.4573
58.000000	72.078	161.3116
59.000000	72.455	161.2745
60.000000	72.939	158.8629
60.799999	73.086	156.9557
61.500000	73.234	156.2783
62.200001	73.432	155.4377
63.000000	73.527	154.2806
64.000000	73.593	154.4207
65.000000	73.965	154.4501
66.000000	74.309	151.8552
67.000000	74.360	148.6104
68.000000	74.372	146.4795
69.000000	74.503	144.7155
70.000000	74.720	143.2292
71.000000	75.036	141.6541
72.000000	75.274	139.6396
73.000000	75.380	138.1400
74.000000	75.441	137.4066
75.000000	75.529	137.1462
76.199997	75.702	136.5551
77.500000	75.899	135.2864
78.800003	76.093	133.2136
80.000000	76.177	131.4538
81.199997	76.361	130.1749
82.500000	76.519	128.2289
83.800003	76.604	127.3182
85.000000	76.837	126.7455
86.199997	77.057	125.0696
87.500000	77.127	123.1365
88.500000	77.159	122.0469
90.000000	77.234	120.6345
91.199997	77.322	119.6042
92.500000	77.440	118.4796
93.800003	77.541	117.1684
95.000000	77.579	115.9904
96.199997	77.577	114.9575
97.500000	77.572	114.1915
98.800003	77.666	113.4266
100.000000	77.819	112.1924
101.500000	78.005	109.9878
103.000000	78.070	108.0268
104.400002	78.132	107.4360
106.000000	78.323	107.0717
107.500000	78.457	106.0920
109.000000	78.474	105.2791
110.599998	78.539	104.7192
112.000000	78.624	103.7905
113.800003	78.644	102.4967
115.000000	78.645	101.9937
117.199997	78.723	101.0950
118.000000	78.768	100.5788
120.599998	78.855	98.4030
122.000000	78.903	97.5620
124.099998	79.052	96.3696
125.000000	79.110	95.8490
126.500000	79.179	95.1566
128.000000	79.241	94.8328
131.500000	79.383	93.1802
132.000000	79.376	92.8806
134.000000	79.369	91.8441
136.000000	79.413	90.8064
138.000000	79.514	90.0725
140.000000	79.626	89.2747
143.000000	79.702	88.1893
145.000000	79.729	87.3147
147.500000	79.707	86.2464
150.000000	79.618	85.6265
152.500000	79.629	85.1996
155.000000	79.776	84.0891
157.500000	79.961	83.1456
160.000000	80.144	82.5370
162.500000	80.231	81.9628
165.000000	80.266	81.4188
167.500000	80.284	80.7528
170.000000	80.282	80.2000
172.500000	80.335	79.7498
175.000000	80.436	78.9585
177.500000	80.512	77.9975
180.000000	80.544	77.2417
182.500000	80.542	76.8534
185.000000	80.563	76.7006
187.500000	80.637	76.1570
190.000000	80.677	75.3198
192.500000	80.700	74.9523
195.000000	80.739	74.6365
197.500000	80.754	74.0141
200.000000	80.779	73.4483
203.000000	80.858	73.0228
206.000000	80.915	72.7502
209.000000	80.948	72.1732
212.000000	80.988	71.4311
214.000000	81.021	71.1055
218.000000	81.054	70.7172
220.000000	81.055	70.4462
224.000000	81.076	69.8396
227.000000	81.117	69.4658
230.000000	81.147	68.9608
233.000000	81.151	68.4199
236.000000	81.157	68.1819
240.000000	81.204	68.2084
243.000000	81.257	68.1583
247.000000	81.328	67.9271
250.000000	81.359	67.7590
254.000000	81.392	67.5547
258.000000	81.423	67.3553
262.000000	81.469	67.2909
265.000000	81.554	67.4034
269.000000	81.720	67.5602
272.000000	81.855	67.2835
276.000000	82.005	66.2079
280.000000	82.058	64.8082
285.000000	82.040	63.4705
290.000000	82.031	62.8006
295.000000	81.995	62.2459
300.000000	81.958	61.7450
304.000000	81.914	61.5651
307.000000	81.879	61.5434
311.000000	81.833	61.4374
315.000000	81.785	61.1989
320.000000	81.735	61.0671
325.000000	81.674	61.2349
330.000000	81.609	61.7801
335.000000	81.562	62.4906
340.000000	81.551	63.2159
345.000000	81.598	64.1002
350.000000	81.701	64.8850
355.000000	81.846	65.4200
360.000000	81.984	65.8327
365.000000	82.104	66.1736
370.000000	82.213	66.4716
375.000000	82.313	66.7225
382.000000	82.483	66.7737
387.000000	82.611	66.7762
395.000000	82.781	66.7985
400.000000	82.883	66.6580
406.000000	83.012	66.4241
412.000000	83.115	66.1704
418.000000	83.194	66.0031
425.000000	83.290	65.8063
431.000000	83.364	65.5840
437.000000	83.441	65.4081
444.000000	83.537	65.2714
450.000000	83.621	65.0962
455.000000	83.679	64.9831
462.000000	83.756	64.9349
468.000000	83.819	64.8491
475.000000	83.894	64.6798
482.000000	83.971	64.5668
487.000000	84.020	64.5130
494.000000	84.079	64.4617
500.000000	84.119	64.4330
508.000000	84.190	64.4550
515.000000	84.273	64.4814
522.000000	84.350	64.3659
530.000000	84.432	64.2056
538.000000	84.507	64.1367
545.000000	84.572	64.1223
552.000000	84.641	64.1067
560.000000	84.715	64.1362
570.000000	84.816	64.1586
580.000000	84.919	64.0869
590.000000	85.028	63.9062
600.000000	85.113	63.7281
608.000000	85.167	63.6303
615.000000	85.214	63.5524
622.000000	85.266	63.4456
630.000000	85.327	63.3253
640.000000	85.385	63.2113
650.000000	85.430	63.1388
660.000000	85.479	63.1521
670.000000	85.527	63.2530
680.000000	85.584	63.3621
690.000000	85.647	63.4249
700.000000	85.707	63.5513
710.000000	85.773	63.7341
720.000000	85.840	63.8996
730.000000	85.909	64.0493
740.000000	85.981	64.2255
750.000000	86.049	64.4045
762.000000	86.139	64.5959
775.000000	86.249	64.7624
788.000000	86.351	64.7968
800.000000	86.440	64.7953
812.000000	86.525	64.8632
825.000000	86.613	64.9541
838.000000	86.699	65.0007
850.000000	86.773	65.0176
862.000000	86.835	65.0655
875.000000	86.906	65.1450
885.000000	86.962	65.2338
900.000000	87.043	65.4391
912.000000	87.112	65.6539
925.000000	87.190	65.8871
938.000000	87.271	66.0583
950.000000	87.348	66.2036
962.000000	87.424	66.3582
975.000000	87.506	66.4988
988.000000	87.587	66.6020
1000.000000	87.653	66.6875
1015.000000	87.725	66.8313
1030.000000	87.793	67.0546
1044.000000	87.858	67.3180
1060.000000	87.934	67.6927
1075.000000	88.007	68.0731
1090.000000	88.086	68.4678
1106.000000	88.179	68.9169
1120.000000	88.270	69.3011
1138.000000	88.390	69.8106
1150.000000	88.471	70.1766
1172.000000	88.635	70.8344
1180.000000	88.702	71.0556
1206.000000	88.938	71.6700
1220.000000	89.065	71.9329
1241.000000	89.242	72.2463
1250.000000	89.315	72.3574
1265.000000	89.437	72.5189
1280.000000	89.556	72.6797
1315.000000	89.818	73.1674
1320.000000	89.855	73.2534
1340.000000	90.009	73.6068
1360.000000	90.170	73.9875
1380.000000	90.338	74.3864
1400.000000	90.514	74.7451
1430.000000	90.787	75.2277
1450.000000	90.974	75.5588
1475.000000	91.228	76.0179
1500.000000	91.509	76.4057
1525.000000	91.812	76.5992
1550.000000	92.114	76.5832
1575.000000	92.414	76.4894
1600.000000	92.727	76.3095
1625.000000	93.046	75.9307
1650.000000	93.359	75.3553
1675.000000	93.664	74.6464
1700.000000	93.965	73.7866
1725.000000	94.261	72.7341
1750.000000	94.536	71.4750
1775.000000	94.786	70.0810
1800.000000	95.013	68.5931
1825.000000	95.220	66.9912
1850.000000	95.398	65.2797
1875.000000	95.541	63.5104
1900.000000	95.651	61.7510
1925.000000	95.737	60.0135
1950.000000	95.795	58.3026
1975.000000	95.824	56.6550
2000.000000	95.830	55.0927
2030.000000	95.809	53.3535
2060.000000	95.765	51.7850
2090.000000	95.705	50.3792
2120.000000	95.631	49.1556
2140.000000	95.576	48.4393
2180.000000	95.460	47.2273
2200.000000	95.402	46.7122
2240.000000	95.282	45.8782
2270.000000	95.199	45.4193
2300.000000	95.118	45.0551
2330.000000	95.042	44.8217
2360.000000	94.976	44.7086
2400.000000	94.910	44.6949
2430.000000	94.880	44.7223
2470.000000	94.856	44.8038
2500.000000	94.857	44.8909
2540.000000	94.870	44.9437
2580.000000	94.893	45.0292
2620.000000	94.944	45.0808
2650.000000	94.989	45.0241
2690.000000	95.050	44.8700
2720.000000	95.096	44.6964
2760.000000	95.151	44.3851
2800.000000	95.201	44.0774
2850.000000	95.270	43.6539
2900.000000	95.338	43.0985
2950.000000	95.393	42.4474
3000.000000	95.432	41.7006
3040.000000	95.448	41.0891
3070.000000	95.451	40.6261
3110.000000	95.442	40.0331
3150.000000	95.427	39.4873
3200.000000	95.403	38.8075
3250.000000	95.356	38.1548
3300.000000	95.297	37.6300
3350.000000	95.237	37.1763
3400.000000	95.169	36.7540
3450.000000	95.089	36.3959
3500.000000	95.000	36.1653
3550.000000	94.911	36.0305
3600.000000	94.818	35.9554
3650.000000	94.718	36.0081
3700.000000	94.615	36.2532
3750.000000	94.531	36.7067
3820.000000	94.470	37.3810
3870.000000	94.441	37.7356
3950.000000	94.374	38.2779
4000.000000	94.333	38.7450
4060.000000	94.298	39.3807
4120.000000	94.274	40.0543
4180.000000	94.255	40.7791
4250.000000	94.245	41.8127
4310.000000	94.277	42.7820
4370.000000	94.338	43.6391
4440.000000	94.404	44.4776
4500.000000	94.442	45.3482
4550.000000	94.495	46.3208
4620.000000	94.645	47.8412
4680.000000	94.851	48.9995
4750.000000	95.136	49.8512
4820.000000	95.414	50.3653
4870.000000	95.621	50.6635
4940.000000	95.928	50.9307
5000.000000	96.215	51.0533
5080.000000	96.666	50.8750
5150.000000	97.084	50.0155
5220.000000	97.473	48.5884
5300.000000	97.881	46.4862
5380.000000	98.241	43.8034
5450.000000	98.495	41.1142
5520.000000	98.709	38.2180
5600.000000	98.895	34.4637
5700.000000	98.971	29.2828
5800.000000	98.881	23.9855
5900.000000	98.598	18.8265
6000.000000	98.161	14.3204
6080.000000	97.712	11.2428
6150.000000	97.259	9.1565
6220.000000	96.780	7.6650
6300.000000	96.229	6.6837
6400.000000	95.593	6.4395
6500.000000	95.079	6.7135
6600.000000	94.640	6.8384
6700.000000	94.178	7.0179
6800.000000	93.697	7.6881
6900.000000	93.224	8.9429
7000.000000	92.789	10.9783
7100.000000	92.462	13.7496
7200.000000	92.292	16.9232
7300.000000	92.294	20.0977
7400.000000	92.461	23.0553
7500.000000	92.819	25.4616
7620.000000	93.426	26.5957
7750.000000	94.032	25.2975
7880.000000	94.435	22.7085
8000.000000	94.704	20.1060
8120.000000	94.939	17.3335
8250.000000	95.228	14.0282
8380.000000	95.582	9.2787
8500.000000	95.758	2.8961
8620.000000	95.627	-4.4188
8750.000000	95.189	-12.1062
8850.000000	94.686	-17.8251
9000.000000	93.581	-25.1776
9120.000000	92.508	-28.9590
9250.000000	91.359	-31.3914
9380.000000	90.290	-32.8756
9500.000000	89.356	-33.8159
9620.000000	88.442	-34.3228
9750.000000	87.486	-34.4358
9880.000000	86.567	-34.3171
10000.000000	85.726	-34.0540
10150.000000	84.661	-33.3348
10300.000000	83.609	-32.1296
10440.000000	82.661	-30.9050
10600.000000	81.588	-30.2800
10750.000000	80.452	-32.7964
10900.000000	78.737	-45.4363
11060.000000	76.054	-94.6511
11200.000000	76.287	-179.0679
11380.000000	80.674	95.5218
11500.000000	82.892	71.0255
11720.000000	85.516	50.4385
11800.000000	86.242	45.1349
12060.000000	88.229	27.4933
12200.000000	88.999	15.7232
12410.000000	89.417	-5.5987
12500.000000	89.244	-15.4107
12650.000000	88.453	-31.0984
12800.000000	87.097	-44.3533
13150.000000	82.694	-62.0690
13200.000000	82.027	-63.3546
13400.000000	79.384	-66.4279
13600.000000	76.694	-65.4487
13800.000000	74.062	-58.8240
14000.000000	72.054	-46.7690
14300.000000	71.729	-27.9624
14500.000000	72.745	-22.6862
14750.000000	73.869	-25.3490
15000.000000	74.423	-33.5347
15250.000000	74.504	-43.8262
15500.000000	74.352	-55.7778
15750.000000	73.934	-70.8104
16000.000000	72.969	-89.3436
16250.000000	71.160	-109.4875
16500.000000	68.412	-127.5315
16750.000000	65.065	-144.1351
17000.000000	61.350	-164.6396
17250.000000	57.864	164.2532
17500.000000	58.066	114.8105
17750.000000	60.814	54.5880
18000.000000	62.690	2.6918
18250.000000	63.237	-38.7997
18500.000000	62.461	-73.9673
18750.000000	60.426	-102.4652
19000.000000	57.487	-122.8350
19250.000000	54.409	-139.4506
19500.000000	51.710	-159.6464
19750.000000	48.972	178.5994
20000.000000	46.675	165.7262
