* Measurement data measured by REW V5.20.13
* Source: Input device not selected, no input selected, R, volume: no control. Timing signal peak level -60.2 dBFS, measurement signal peak level -24.5 dBFS
* Format: 128k Log Swept Sine, 1 sweep at -12.0 dBFS using an acoustic timing reference
* Dated: 2022. 10. 25 ¿ÀÀü 7:09:56
* REW Settings:
*  C-weighting compensation: Off
*  Target level: 75.0 dB
* Note: Delay -0.0307 ms (-11 mm, -0.41 in) using estimated IR delay relative to Acoustic reference played from  R with no timing offset Clock adjustment: -0.1 ppm
* Measurement: VX400 L +¼Ø
* Smoothing: 1/24 octave
* Frequency Step: 1/48 octave
* Start Frequency: 20.300 Hz
*
* Freq(Hz)	SPL(dB)	Phase(degrees)
20.299999	71.013	-115.4994
20.600000	71.484	-116.1592
20.900000	72.331	-117.8324
21.200001	72.986	-120.6720
21.400000	73.318	-122.9984
21.799999	73.767	-128.0292
22.000000	73.907	-130.4366
22.400000	74.072	-134.6831
22.700001	74.147	-137.3768
23.000000	74.214	-139.7867
23.299999	74.275	-142.0527
23.600000	74.323	-144.1965
24.000000	74.361	-146.7496
24.299999	74.390	-148.2904
24.700001	74.481	-149.8034
25.000000	74.624	-150.7027
25.400000	74.927	-151.9775
25.799999	75.312	-153.7085
26.200001	75.713	-155.9586
26.500000	76.004	-157.8757
26.900000	76.370	-160.5948
27.200001	76.628	-162.7140
27.600000	76.944	-165.6411
28.000000	77.205	-168.6198
28.500000	77.443	-172.1026
29.000000	77.624	-174.9300
29.500000	77.826	-177.1472
30.000000	78.076	-179.2607
30.400000	78.275	178.8693
30.700001	78.400	177.3900
31.100000	78.528	175.4951
31.500000	78.630	173.8439
32.000000	78.762	172.1516
32.500000	78.931	170.6670
33.000000	79.135	169.1724
33.500000	79.369	167.5646
34.000000	79.624	165.7028
34.500000	79.866	163.4335
35.000000	80.044	160.8206
35.500000	80.124	158.2434
36.000000	80.129	156.1424
36.500000	80.116	154.7180
37.000000	80.145	153.8659
37.500000	80.254	153.2888
38.200001	80.531	152.2133
38.700001	80.755	150.8738
39.500000	80.990	148.0706
40.000000	81.055	146.5632
40.599998	81.141	145.3044
41.200001	81.296	144.1782
41.799999	81.476	142.7177
42.500000	81.636	140.7191
43.099998	81.730	139.0835
43.700001	81.801	137.6154
44.400002	81.877	136.1793
45.000000	81.970	135.1082
45.500000	82.069	134.0679
46.200001	82.165	132.2634
46.799999	82.165	130.9260
47.500000	82.186	130.2434
48.200001	82.374	129.7361
48.700001	82.563	128.7703
49.400002	82.744	126.5840
50.000000	82.771	124.7909
50.799999	82.757	123.4954
51.500000	82.844	123.0851
52.200001	83.043	122.5356
53.000000	83.303	121.1892
53.799999	83.477	119.2707
54.500000	83.529	117.7333
55.200001	83.551	116.8072
56.000000	83.666	116.2175
57.000000	83.919	114.7053
58.000000	84.042	112.4049
59.000000	84.079	110.9087
60.000000	84.223	109.8054
60.799999	84.359	108.5757
61.500000	84.445	107.4253
62.200001	84.513	106.4419
63.000000	84.601	105.4472
64.000000	84.701	104.0887
65.000000	84.756	102.9503
66.000000	84.847	102.0218
67.000000	84.935	100.7780
68.000000	84.983	99.6709
69.000000	85.061	98.6736
70.000000	85.144	97.5945
71.000000	85.246	96.5536
72.000000	85.357	95.3138
73.000000	85.435	94.0572
74.000000	85.502	92.9624
75.000000	85.564	91.9587
76.199997	85.632	90.8926
77.500000	85.706	89.7952
78.800003	85.766	88.6875
80.000000	85.823	87.7930
81.199997	85.916	86.8548
82.500000	86.013	85.6071
83.800003	86.095	84.4713
85.000000	86.180	83.4204
86.199997	86.234	82.3287
87.500000	86.260	81.3347
88.500000	86.275	80.7278
90.000000	86.326	80.0101
91.199997	86.405	79.3358
92.500000	86.488	78.3790
93.800003	86.545	77.4030
95.000000	86.582	76.5836
96.199997	86.611	75.8396
97.500000	86.639	75.0429
98.800003	86.666	74.2314
100.000000	86.692	73.4797
101.500000	86.740	72.6003
103.000000	86.802	71.7054
104.400002	86.844	70.9694
106.000000	86.892	70.3773
107.500000	86.955	69.8260
109.000000	87.016	69.0650
110.599998	87.058	68.0855
112.000000	87.075	67.2321
113.800003	87.103	66.4122
115.000000	87.152	65.9019
117.199997	87.221	64.7488
118.000000	87.234	64.3921
120.599998	87.279	63.4614
122.000000	87.310	63.0610
124.099998	87.360	62.3637
125.000000	87.372	62.0307
126.500000	87.387	61.4514
128.000000	87.399	60.8154
131.500000	87.415	59.4141
132.000000	87.418	59.2685
134.000000	87.441	58.8201
136.000000	87.474	58.3865
138.000000	87.504	57.8968
140.000000	87.545	57.2694
143.000000	87.597	56.3307
145.000000	87.642	55.8549
147.500000	87.687	55.2484
150.000000	87.713	54.7026
152.500000	87.738	54.0097
155.000000	87.759	53.3512
157.500000	87.808	52.8434
160.000000	87.857	52.3041
162.500000	87.876	51.7568
165.000000	87.896	51.2332
167.500000	87.923	50.7693
170.000000	87.946	50.3929
172.500000	87.967	49.9878
175.000000	87.995	49.4280
177.500000	88.026	48.9083
180.000000	88.061	48.5691
182.500000	88.087	48.2205
185.000000	88.097	47.8123
187.500000	88.122	47.4060
190.000000	88.152	47.0049
192.500000	88.173	46.6529
195.000000	88.192	46.2748
197.500000	88.218	45.8583
200.000000	88.257	45.5195
203.000000	88.314	45.1758
206.000000	88.345	44.7642
209.000000	88.358	44.3596
212.000000	88.378	44.0210
214.000000	88.390	43.8023
218.000000	88.391	43.3584
220.000000	88.389	43.1684
224.000000	88.405	42.8830
227.000000	88.418	42.6221
230.000000	88.430	42.2816
233.000000	88.459	41.9741
236.000000	88.494	41.7634
240.000000	88.522	41.5923
243.000000	88.546	41.4426
247.000000	88.590	41.2115
250.000000	88.619	41.0893
254.000000	88.640	40.9998
258.000000	88.668	40.9613
262.000000	88.730	40.9429
265.000000	88.801	40.9091
269.000000	88.934	40.7458
272.000000	89.043	40.3401
276.000000	89.157	39.2975
280.000000	89.203	38.0682
285.000000	89.164	36.9391
290.000000	89.087	36.3025
295.000000	89.025	35.8632
300.000000	88.984	35.4892
304.000000	88.939	35.2356
307.000000	88.897	35.0963
311.000000	88.856	34.9654
315.000000	88.834	34.8204
320.000000	88.789	34.7019
325.000000	88.717	34.7607
330.000000	88.637	34.9212
335.000000	88.567	35.2763
340.000000	88.527	35.9281
345.000000	88.518	36.8429
350.000000	88.541	37.8273
355.000000	88.608	38.6563
360.000000	88.713	39.2959
365.000000	88.846	39.8184
370.000000	88.998	40.2656
375.000000	89.154	40.5137
382.000000	89.354	40.4797
387.000000	89.485	40.2704
395.000000	89.674	39.8692
400.000000	89.773	39.6269
406.000000	89.876	39.2558
412.000000	89.970	38.8120
418.000000	90.056	38.4040
425.000000	90.143	37.9897
431.000000	90.206	37.6506
437.000000	90.265	37.3067
444.000000	90.332	36.9220
450.000000	90.387	36.6317
455.000000	90.430	36.4186
462.000000	90.488	36.1543
468.000000	90.544	35.9538
475.000000	90.613	35.6776
482.000000	90.685	35.3537
487.000000	90.738	35.1027
494.000000	90.811	34.7138
500.000000	90.866	34.3534
508.000000	90.920	33.8949
515.000000	90.952	33.5685
522.000000	90.981	33.2583
530.000000	91.019	32.9626
538.000000	91.064	32.7347
545.000000	91.105	32.5666
552.000000	91.149	32.4542
560.000000	91.208	32.3336
570.000000	91.291	32.1258
580.000000	91.383	31.8426
590.000000	91.484	31.4985
600.000000	91.582	31.0514
608.000000	91.659	30.6238
615.000000	91.722	30.2079
622.000000	91.781	29.7429
630.000000	91.840	29.1692
640.000000	91.900	28.3651
650.000000	91.936	27.5386
660.000000	91.945	26.7894
670.000000	91.931	26.0931
680.000000	91.904	25.4856
690.000000	91.867	25.0616
700.000000	91.824	24.8076
710.000000	91.793	24.7112
720.000000	91.781	24.7389
730.000000	91.789	24.8035
740.000000	91.815	24.8412
750.000000	91.853	24.8320
762.000000	91.912	24.7347
775.000000	91.975	24.4746
788.000000	92.025	24.0864
800.000000	92.059	23.7339
812.000000	92.086	23.4286
825.000000	92.113	23.1698
838.000000	92.146	22.9536
850.000000	92.182	22.7283
862.000000	92.222	22.4539
875.000000	92.261	22.1301
885.000000	92.288	21.8672
900.000000	92.329	21.4335
912.000000	92.356	21.0801
925.000000	92.376	20.7089
938.000000	92.391	20.3352
950.000000	92.401	20.0101
962.000000	92.410	19.6997
975.000000	92.413	19.3484
988.000000	92.407	19.0145
1000.000000	92.397	18.7380
1015.000000	92.379	18.4286
1030.000000	92.353	18.2057
1044.000000	92.324	18.0945
1060.000000	92.293	18.0975
1075.000000	92.275	18.2123
1090.000000	92.275	18.4296
1106.000000	92.300	18.7374
1120.000000	92.345	18.9830
1138.000000	92.429	19.1320
1150.000000	92.491	19.1167
1172.000000	92.609	18.9246
1180.000000	92.652	18.7971
1206.000000	92.780	18.1995
1220.000000	92.835	17.7836
1241.000000	92.888	17.0535
1250.000000	92.902	16.7273
1265.000000	92.912	16.1978
1280.000000	92.907	15.7180
1315.000000	92.855	14.8695
1320.000000	92.845	14.7842
1340.000000	92.797	14.5691
1360.000000	92.752	14.5768
1380.000000	92.725	14.8025
1400.000000	92.734	15.1677
1430.000000	92.828	15.6731
1450.000000	92.930	15.7806
1475.000000	93.068	15.6082
1500.000000	93.193	15.1777
1525.000000	93.302	14.5656
1550.000000	93.397	13.8196
1575.000000	93.468	12.9635
1600.000000	93.519	12.0612
1625.000000	93.550	11.1011
1650.000000	93.559	10.1388
1675.000000	93.546	9.2056
1700.000000	93.511	8.3082
1725.000000	93.459	7.4915
1750.000000	93.397	6.7701
1775.000000	93.326	6.1289
1800.000000	93.247	5.5750
1825.000000	93.161	5.1068
1850.000000	93.075	4.7111
1875.000000	92.984	4.3746
1900.000000	92.887	4.1370
1925.000000	92.788	4.0199
1950.000000	92.695	3.9950
1975.000000	92.609	4.0511
2000.000000	92.530	4.1653
2030.000000	92.439	4.3772
2060.000000	92.360	4.6961
2090.000000	92.299	5.0703
2120.000000	92.250	5.4435
2140.000000	92.222	5.7083
2180.000000	92.182	6.2838
2200.000000	92.171	6.5428
2240.000000	92.152	7.0517
2270.000000	92.145	7.4952
2300.000000	92.151	7.9416
2330.000000	92.166	8.3536
2360.000000	92.188	8.7605
2400.000000	92.239	9.2723
2430.000000	92.285	9.5861
2470.000000	92.350	9.9902
2500.000000	92.411	10.2466
2540.000000	92.498	10.4643
2580.000000	92.586	10.5965
2620.000000	92.676	10.6153
2650.000000	92.740	10.5600
2690.000000	92.819	10.4343
2720.000000	92.875	10.3004
2760.000000	92.941	10.0780
2800.000000	92.997	9.8529
2850.000000	93.063	9.5685
2900.000000	93.123	9.2960
2950.000000	93.182	8.9820
3000.000000	93.231	8.6031
3040.000000	93.260	8.3142
3070.000000	93.278	8.1208
3110.000000	93.300	7.8969
3150.000000	93.325	7.6909
3200.000000	93.358	7.4079
3250.000000	93.382	7.1276
3300.000000	93.403	6.9268
3350.000000	93.432	6.7310
3400.000000	93.457	6.5002
3450.000000	93.473	6.3109
3500.000000	93.491	6.2114
3550.000000	93.520	6.1385
3600.000000	93.553	6.0757
3650.000000	93.591	6.0442
3700.000000	93.638	6.0359
3750.000000	93.699	6.0380
3820.000000	93.813	5.9243
3870.000000	93.894	5.7009
3950.000000	94.014	5.2675
4000.000000	94.090	4.9334
4060.000000	94.164	4.4615
4120.000000	94.220	4.0806
4180.000000	94.281	3.8341
4250.000000	94.375	3.6787
4310.000000	94.489	3.5477
4370.000000	94.627	3.2592
4440.000000	94.777	2.7344
4500.000000	94.900	2.4081
4550.000000	95.034	2.2337
4620.000000	95.290	1.8032
4680.000000	95.543	0.9782
4750.000000	95.815	-0.4983
4820.000000	96.054	-2.1644
4870.000000	96.226	-3.4844
4940.000000	96.452	-5.5964
5000.000000	96.632	-7.6493
5080.000000	96.839	-10.7677
5150.000000	96.964	-13.8435
5220.000000	97.024	-17.0668
5300.000000	97.025	-20.8525
5380.000000	96.931	-24.6597
5450.000000	96.784	-27.7233
5520.000000	96.615	-30.5538
5600.000000	96.385	-33.6976
5700.000000	96.021	-37.1591
5800.000000	95.653	-40.0410
5900.000000	95.291	-42.6323
6000.000000	94.942	-44.9857
6080.000000	94.671	-46.8199
6150.000000	94.431	-48.4090
6220.000000	94.188	-49.9601
6300.000000	93.912	-51.6764
6400.000000	93.573	-53.8680
6500.000000	93.228	-56.2023
6600.000000	92.859	-58.8528
6700.000000	92.401	-61.7989
6800.000000	91.808	-64.5934
6900.000000	91.088	-66.7582
7000.000000	90.272	-67.9102
7100.000000	89.407	-67.7301
7200.000000	88.591	-65.9646
7300.000000	87.959	-63.2008
7400.000000	87.501	-59.9727
7500.000000	87.278	-56.2302
7620.000000	87.419	-52.7595
7750.000000	87.737	-51.9031
7880.000000	87.896	-53.0750
8000.000000	87.914	-54.4187
8120.000000	87.948	-55.9918
8250.000000	87.981	-58.8235
8380.000000	87.838	-63.0165
8500.000000	87.444	-66.8765
8620.000000	86.904	-69.8129
8750.000000	86.280	-72.2463
8850.000000	85.768	-73.8752
9000.000000	84.907	-75.3523
9120.000000	84.246	-75.5768
9250.000000	83.601	-75.5457
9380.000000	82.985	-75.3472
9500.000000	82.432	-74.9274
9620.000000	81.890	-74.1823
9750.000000	81.353	-72.9107
9880.000000	80.916	-71.4658
10000.000000	80.581	-70.2139
10150.000000	80.241	-68.9310
10300.000000	79.971	-68.1993
10440.000000	79.750	-68.4516
10600.000000	79.378	-70.4156
10750.000000	78.623	-73.3200
10900.000000	77.102	-72.0723
11060.000000	75.529	-55.3961
11200.000000	77.049	-34.5881
11380.000000	80.423	-27.4752
11500.000000	81.937	-33.9849
11720.000000	83.296	-52.2197
11800.000000	83.452	-59.0514
12060.000000	83.087	-79.6956
12200.000000	82.464	-89.4808
12410.000000	81.072	-101.9276
12500.000000	80.329	-106.1974
12650.000000	78.949	-111.6019
12800.000000	77.482	-114.7127
13150.000000	74.471	-115.0781
13200.000000	74.133	-114.8556
13400.000000	72.890	-113.8842
13600.000000	71.741	-111.8545
13800.000000	70.870	-108.6414
14000.000000	70.450	-105.3059
14300.000000	70.613	-104.0323
14500.000000	70.864	-107.4645
14750.000000	70.875	-115.9270
15000.000000	70.282	-127.0702
15250.000000	68.962	-137.8192
15500.000000	67.067	-144.9916
15750.000000	64.978	-147.5078
16000.000000	63.065	-145.6600
16250.000000	61.786	-140.7226
16500.000000	61.513	-137.0230
16750.000000	61.628	-138.2289
17000.000000	61.467	-142.8755
17250.000000	61.053	-146.8338
17500.000000	61.160	-149.8307
17750.000000	61.787	-159.5190
18000.000000	61.780	-177.2998
18250.000000	60.747	162.5958
18500.000000	58.731	145.3794
18750.000000	56.040	134.8088
19000.000000	53.704	127.7762
19250.000000	52.550	113.5526
19500.000000	51.429	87.9967
19750.000000	49.260	59.9205
20000.000000	47.006	43.3334
