* Measurement data measured by REW V5.20.5
* Source: C:\Users\jerry\Desktop\zencan xbass.csv
* Format: Comma/Tab/Space delimited data
* Dated: 13-Jul-2022 14:30:31
* REW Settings:
*  C-weighting compensation: Off
*  Target level: 0.2 dB
* Note: Measurement imported from C:\Users\jerry\Desktop\zencan xbass.csv Format: Comma/Tab/Space delimited data 5001 values loaded, 11 Hz to 98,313 Hz log spaced
* Measurement: zencan xbass
* Smoothing: 1/24 octave
* Frequency Step: 1/48 octave
* Start Frequency: 20.000 Hz
*
* Freq(Hz)	SPL(dB)
20.000000	11.931
20.299999	11.911
20.600000	11.891
20.900000	11.871
21.200001	11.850
21.400000	11.836
21.799999	11.808
22.000000	11.794
22.400000	11.764
22.700001	11.741
23.000000	11.718
23.299999	11.695
23.600000	11.671
24.000000	11.638
24.299999	11.613
24.700001	11.578
25.000000	11.552
25.400000	11.515
25.799999	11.477
26.200001	11.437
26.500000	11.407
26.900000	11.364
27.200001	11.331
27.600000	11.285
28.000000	11.238
28.500000	11.176
29.000000	11.111
29.500000	11.044
30.000000	10.975
30.400000	10.918
30.700001	10.875
31.100000	10.818
31.500000	10.759
32.000000	10.685
32.500000	10.608
33.000000	10.528
33.500000	10.442
34.000000	10.349
34.500000	10.244
35.000000	10.120
35.500000	9.973
36.000000	9.809
36.500000	9.645
37.000000	9.491
37.500000	9.346
38.200001	9.143
38.700001	8.990
39.500000	8.714
40.000000	8.514
40.599998	8.237
41.200001	7.916
41.799999	7.571
42.500000	7.222
43.099998	7.001
43.700001	6.807
44.400002	6.540
45.000000	6.231
45.500000	5.945
46.200001	5.651
46.799999	5.474
47.500000	5.355
48.200001	5.284
48.700001	5.240
49.400002	5.179
50.000000	5.126
50.799999	5.055
51.500000	4.994
52.200001	4.933
53.000000	4.863
53.799999	4.795
54.500000	4.736
55.200001	4.677
56.000000	4.610
57.000000	4.527
58.000000	4.445
59.000000	4.365
60.000000	4.285
60.799999	4.223
61.500000	4.169
62.200001	4.116
63.000000	4.056
64.000000	3.983
65.000000	3.912
66.000000	3.842
67.000000	3.774
68.000000	3.708
69.000000	3.643
70.000000	3.579
71.000000	3.517
72.000000	3.456
73.000000	3.397
74.000000	3.339
75.000000	3.283
76.199997	3.217
77.500000	3.148
78.800003	3.082
80.000000	3.022
81.199997	2.965
82.500000	2.905
83.800003	2.847
85.000000	2.796
86.199997	2.746
87.500000	2.693
88.500000	2.653
90.000000	2.595
91.199997	2.549
92.500000	2.500
93.800003	2.451
95.000000	2.407
96.199997	2.363
97.500000	2.315
98.800003	2.268
100.000000	2.225
101.500000	2.173
103.000000	2.121
104.400002	2.075
106.000000	2.024
107.500000	1.978
109.000000	1.935
110.599998	1.891
112.000000	1.854
113.800003	1.810
115.000000	1.782
117.199997	1.735
118.000000	1.718
120.599998	1.667
122.000000	1.642
124.099998	1.605
125.000000	1.589
126.500000	1.564
128.000000	1.540
131.500000	1.486
132.000000	1.478
134.000000	1.449
136.000000	1.420
138.000000	1.392
140.000000	1.364
143.000000	1.322
145.000000	1.295
147.500000	1.262
150.000000	1.228
152.500000	1.195
155.000000	1.163
157.500000	1.131
160.000000	1.100
162.500000	1.070
165.000000	1.040
167.500000	1.012
170.000000	0.984
172.500000	0.958
175.000000	0.932
177.500000	0.908
180.000000	0.884
182.500000	0.862
185.000000	0.840
187.500000	0.819
190.000000	0.800
192.500000	0.781
195.000000	0.762
197.500000	0.745
200.000000	0.728
203.000000	0.708
206.000000	0.690
209.000000	0.672
212.000000	0.655
214.000000	0.644
218.000000	0.622
220.000000	0.612
224.000000	0.592
227.000000	0.578
230.000000	0.564
233.000000	0.551
236.000000	0.538
240.000000	0.522
243.000000	0.510
247.000000	0.495
250.000000	0.484
254.000000	0.469
258.000000	0.456
262.000000	0.443
265.000000	0.433
269.000000	0.421
272.000000	0.412
276.000000	0.401
280.000000	0.390
285.000000	0.377
290.000000	0.364
295.000000	0.352
300.000000	0.341
304.000000	0.332
307.000000	0.326
311.000000	0.318
315.000000	0.310
320.000000	0.300
325.000000	0.291
330.000000	0.282
335.000000	0.274
340.000000	0.266
345.000000	0.258
350.000000	0.251
355.000000	0.243
360.000000	0.237
365.000000	0.230
370.000000	0.224
375.000000	0.218
382.000000	0.209
387.000000	0.204
395.000000	0.195
400.000000	0.190
406.000000	0.185
412.000000	0.179
418.000000	0.174
425.000000	0.168
431.000000	0.163
437.000000	0.159
444.000000	0.154
450.000000	0.149
455.000000	0.146
462.000000	0.142
468.000000	0.138
475.000000	0.134
482.000000	0.130
487.000000	0.127
494.000000	0.124
500.000000	0.121
508.000000	0.117
515.000000	0.115
522.000000	0.112
530.000000	0.109
538.000000	0.106
545.000000	0.103
552.000000	0.101
560.000000	0.099
570.000000	0.096
580.000000	0.093
590.000000	0.091
600.000000	0.089
608.000000	0.087
615.000000	0.086
622.000000	0.084
630.000000	0.083
640.000000	0.081
650.000000	0.079
660.000000	0.078
670.000000	0.077
680.000000	0.075
690.000000	0.074
700.000000	0.073
710.000000	0.072
720.000000	0.070
730.000000	0.069
740.000000	0.068
750.000000	0.067
762.000000	0.066
775.000000	0.065
788.000000	0.064
800.000000	0.063
812.000000	0.062
825.000000	0.061
838.000000	0.060
850.000000	0.059
862.000000	0.058
875.000000	0.057
885.000000	0.056
900.000000	0.055
912.000000	0.054
925.000000	0.053
938.000000	0.052
950.000000	0.052
962.000000	0.051
975.000000	0.050
988.000000	0.049
1000.000000	0.048
1015.000000	0.047
1030.000000	0.045
1044.000000	0.044
1060.000000	0.043
1075.000000	0.042
1090.000000	0.041
1106.000000	0.039
1120.000000	0.038
1138.000000	0.037
1150.000000	0.036
1172.000000	0.034
1180.000000	0.034
1206.000000	0.032
1220.000000	0.031
1241.000000	0.030
1250.000000	0.029
1265.000000	0.029
1280.000000	0.028
1315.000000	0.026
1320.000000	0.026
1340.000000	0.025
1360.000000	0.024
1380.000000	0.024
1400.000000	0.023
1430.000000	0.022
1450.000000	0.022
1475.000000	0.022
1500.000000	0.022
1525.000000	0.022
1550.000000	0.022
1575.000000	0.022
1600.000000	0.022
1625.000000	0.022
1650.000000	0.022
1675.000000	0.022
1700.000000	0.023
1725.000000	0.023
1750.000000	0.023
1775.000000	0.023
1800.000000	0.023
1825.000000	0.023
1850.000000	0.024
1875.000000	0.024
1900.000000	0.024
1925.000000	0.024
1950.000000	0.023
1975.000000	0.023
2000.000000	0.023
2030.000000	0.023
2060.000000	0.022
2090.000000	0.022
2120.000000	0.021
2140.000000	0.021
2180.000000	0.020
2200.000000	0.019
2240.000000	0.018
2270.000000	0.017
2300.000000	0.016
2330.000000	0.015
2360.000000	0.014
2400.000000	0.013
2430.000000	0.012
2470.000000	0.010
2500.000000	0.009
2540.000000	0.008
2580.000000	0.006
2620.000000	0.005
2650.000000	0.004
2690.000000	0.003
2720.000000	0.002
2760.000000	0.001
2800.000000	0.000
2850.000000	-0.001
2900.000000	-0.002
2950.000000	-0.003
3000.000000	-0.004
3040.000000	-0.004
3070.000000	-0.004
3110.000000	-0.005
3150.000000	-0.005
3200.000000	-0.005
3250.000000	-0.006
3300.000000	-0.006
3350.000000	-0.006
3400.000000	-0.006
3450.000000	-0.006
3500.000000	-0.006
3550.000000	-0.006
3600.000000	-0.005
3650.000000	-0.005
3700.000000	-0.005
3750.000000	-0.005
3820.000000	-0.005
3870.000000	-0.004
3950.000000	-0.004
4000.000000	-0.004
4060.000000	-0.004
4120.000000	-0.003
4180.000000	-0.003
4250.000000	-0.003
4310.000000	-0.003
4370.000000	-0.003
4440.000000	-0.002
4500.000000	-0.002
4550.000000	-0.002
4620.000000	-0.002
4680.000000	-0.002
4750.000000	-0.002
4820.000000	-0.002
4870.000000	-0.002
4940.000000	-0.002
5000.000000	-0.002
5080.000000	-0.002
5150.000000	-0.002
5220.000000	-0.002
5300.000000	-0.002
5380.000000	-0.002
5450.000000	-0.002
5520.000000	-0.002
5600.000000	-0.003
5700.000000	-0.003
5800.000000	-0.003
5900.000000	-0.003
6000.000000	-0.003
6080.000000	-0.003
6150.000000	-0.003
6220.000000	-0.003
6300.000000	-0.003
6400.000000	-0.003
6500.000000	-0.003
6600.000000	-0.003
6700.000000	-0.003
6800.000000	-0.003
6900.000000	-0.003
7000.000000	-0.003
7100.000000	-0.003
7200.000000	-0.003
7300.000000	-0.003
7400.000000	-0.003
7500.000000	-0.003
7620.000000	-0.003
7750.000000	-0.003
7880.000000	-0.003
8000.000000	-0.003
8120.000000	-0.003
8250.000000	-0.003
8380.000000	-0.003
8500.000000	-0.003
8620.000000	-0.003
8750.000000	-0.003
8850.000000	-0.003
9000.000000	-0.003
9120.000000	-0.003
9250.000000	-0.003
9380.000000	-0.003
9500.000000	-0.003
9620.000000	-0.003
9750.000000	-0.003
9880.000000	-0.003
10000.000000	-0.003
10150.000000	-0.003
10300.000000	-0.003
10440.000000	-0.003
10600.000000	-0.003
10750.000000	-0.003
10900.000000	-0.003
11060.000000	-0.003
11200.000000	-0.003
11380.000000	-0.003
11500.000000	-0.003
11720.000000	-0.003
11800.000000	-0.003
12060.000000	-0.003
12200.000000	-0.003
12410.000000	-0.003
12500.000000	-0.003
12650.000000	-0.003
12800.000000	-0.002
13150.000000	-0.002
13200.000000	-0.002
13400.000000	-0.002
13600.000000	-0.002
13800.000000	-0.001
14000.000000	-0.001
14300.000000	-0.001
14500.000000	-0.001
14750.000000	-0.001
15000.000000	-0.001
15250.000000	-0.000
15500.000000	-0.000
15750.000000	-0.000
16000.000000	-0.000
16250.000000	-0.001
16500.000000	-0.001
16750.000000	-0.001
17000.000000	-0.001
17250.000000	-0.001
17500.000000	-0.002
17750.000000	-0.002
18000.000000	-0.003
18250.000000	-0.003
18500.000000	-0.004
18750.000000	-0.005
19000.000000	-0.005
19250.000000	-0.006
19500.000000	-0.007
19750.000000	-0.008
20000.000000	-0.009
