* Measurement data measured by REW V5.20.5
* Source: 마이크(7- USB Sound Device       , MICROPHONE (마스), L, volume: 0.560
* Format: 128k Log Swept Sine, 2 sweeps at -15.0 dBFS with no timing reference
* Dated: 2022. 4. 19 오후 9:25:25
* REW Settings:
*  C-weighting compensation: Off
*  Target level: 75.0 dB
* Note: 
* Measurement: L
* Smoothing: 1/24 octave
* Frequency Step: 1/48 octave
* Start Frequency: 20.300 Hz
*
* Freq(Hz)	SPL(dB)	Phase(degrees)
20.299999	121.176	142.3091
20.600000	121.144	141.9074
20.900000	121.078	141.1911
21.200001	121.011	140.5104
21.400000	120.966	140.0699
21.799999	120.874	139.1740
22.000000	120.826	138.7067
22.400000	120.728	137.7442
22.700001	120.654	137.0070
23.000000	120.581	136.2592
23.299999	120.510	135.5031
23.600000	120.443	134.7398
24.000000	120.357	133.7126
24.299999	120.296	132.9381
24.700001	120.219	131.9066
25.000000	120.165	131.1396
25.400000	120.095	130.1330
25.799999	120.030	129.1505
26.200001	119.968	128.1949
26.500000	119.924	127.4962
26.900000	119.868	126.5883
27.200001	119.827	125.9248
27.600000	119.774	125.0629
28.000000	119.723	124.2265
28.500000	119.660	123.2166
29.000000	119.598	122.2454
29.500000	119.536	121.3129
30.000000	119.475	120.4198
30.400000	119.425	119.7338
30.700001	119.388	119.2356
31.100000	119.338	118.5910
31.500000	119.287	117.9658
32.000000	119.222	117.2063
32.500000	119.154	116.4678
33.000000	119.081	115.7488
33.500000	119.006	115.0462
34.000000	118.929	114.3503
34.500000	118.850	113.6481
35.000000	118.769	112.9311
35.500000	118.688	112.1980
36.000000	118.606	111.4528
36.500000	118.527	110.6984
37.000000	118.452	109.9360
37.500000	118.380	109.1680
38.200001	118.288	108.0982
38.700001	118.227	107.3526
39.500000	118.136	106.2160
40.000000	118.083	105.5468
40.599998	118.021	104.7870
41.200001	117.957	104.0719
41.799999	117.891	103.3935
42.500000	117.810	102.6316
43.099998	117.735	101.9888
43.700001	117.657	101.3431
44.400002	117.563	100.5732
45.000000	117.484	99.8911
45.500000	117.419	99.3065
46.200001	117.332	98.4722
46.799999	117.262	97.7554
47.500000	117.187	96.9323
48.200001	117.118	96.1359
48.700001	117.072	95.5910
49.400002	117.008	94.8687
50.000000	116.953	94.2844
50.799999	116.878	93.5396
51.500000	116.808	92.9075
52.200001	116.734	92.2846
53.000000	116.649	91.5658
53.799999	116.563	90.8194
54.500000	116.490	90.1454
55.200001	116.421	89.4675
56.000000	116.347	88.7033
57.000000	116.262	87.7766
58.000000	116.182	86.9010
59.000000	116.102	86.0868
60.000000	116.019	85.3136
60.799999	115.951	84.6982
61.500000	115.889	84.1496
62.200001	115.827	83.5926
63.000000	115.758	82.9540
64.000000	115.676	82.1596
65.000000	115.602	81.3727
66.000000	115.532	80.6093
67.000000	115.463	79.8858
68.000000	115.393	79.1922
69.000000	115.322	78.5098
70.000000	115.250	77.8268
71.000000	115.179	77.1376
72.000000	115.110	76.4468
73.000000	115.045	75.7649
74.000000	114.984	75.1051
75.000000	114.925	74.4727
76.199997	114.854	73.7415
77.500000	114.776	72.9663
78.800003	114.698	72.1916
80.000000	114.628	71.4692
81.199997	114.562	70.7524
82.500000	114.493	70.0018
83.800003	114.428	69.2810
85.000000	114.368	68.6313
86.199997	114.307	67.9933
87.500000	114.242	67.3101
88.500000	114.194	66.7883
90.000000	114.125	66.0177
91.199997	114.071	65.4190
92.500000	114.015	64.7872
93.800003	113.959	64.1639
95.000000	113.908	63.5929
96.199997	113.859	63.0261
97.500000	113.808	62.4225
98.800003	113.758	61.8403
100.000000	113.713	61.3192
101.500000	113.658	60.6774
103.000000	113.602	60.0407
104.400002	113.551	59.4557
106.000000	113.497	58.7978
107.500000	113.448	58.1930
109.000000	113.399	57.6061
110.599998	113.348	56.9952
112.000000	113.304	56.4699
113.800003	113.251	55.8040
115.000000	113.217	55.3685
117.199997	113.156	54.5955
118.000000	113.134	54.3193
120.599998	113.062	53.4356
122.000000	113.025	52.9733
124.099998	112.971	52.2947
125.000000	112.949	52.0102
126.500000	112.913	51.5427
128.000000	112.878	51.0802
131.500000	112.800	50.0218
132.000000	112.790	49.8750
134.000000	112.747	49.2977
136.000000	112.707	48.7319
138.000000	112.669	48.1796
140.000000	112.631	47.6429
143.000000	112.575	46.8650
145.000000	112.540	46.3527
147.500000	112.496	45.7294
150.000000	112.456	45.1296
152.500000	112.417	44.5402
155.000000	112.379	43.9656
157.500000	112.342	43.4151
160.000000	112.307	42.8843
162.500000	112.273	42.3660
165.000000	112.241	41.8615
167.500000	112.208	41.3682
170.000000	112.175	40.8879
172.500000	112.145	40.4207
175.000000	112.115	39.9636
177.500000	112.087	39.5165
180.000000	112.060	39.0810
182.500000	112.034	38.6560
185.000000	112.008	38.2463
187.500000	111.983	37.8486
190.000000	111.959	37.4582
192.500000	111.937	37.0773
195.000000	111.914	36.7083
197.500000	111.891	36.3462
200.000000	111.869	35.9846
203.000000	111.844	35.5608
206.000000	111.820	35.1565
209.000000	111.796	34.7665
212.000000	111.772	34.3946
214.000000	111.757	34.1521
218.000000	111.728	33.6664
220.000000	111.714	33.4277
224.000000	111.688	32.9724
227.000000	111.670	32.6450
230.000000	111.651	32.3288
233.000000	111.632	32.0233
236.000000	111.614	31.7209
240.000000	111.590	31.3284
243.000000	111.574	31.0457
247.000000	111.554	30.6766
250.000000	111.539	30.4057
254.000000	111.518	30.0612
258.000000	111.498	29.7273
262.000000	111.479	29.4003
265.000000	111.465	29.1668
269.000000	111.447	28.8701
272.000000	111.434	28.6571
276.000000	111.418	28.3800
280.000000	111.402	28.1062
285.000000	111.382	27.7762
290.000000	111.362	27.4617
295.000000	111.342	27.1671
300.000000	111.324	26.8901
304.000000	111.309	26.6678
307.000000	111.298	26.5048
311.000000	111.283	26.2976
315.000000	111.270	26.1006
320.000000	111.254	25.8640
325.000000	111.237	25.6328
330.000000	111.220	25.4126
335.000000	111.204	25.2075
340.000000	111.189	25.0100
345.000000	111.174	24.8283
350.000000	111.159	24.6549
355.000000	111.145	24.4904
360.000000	111.131	24.3355
365.000000	111.117	24.1862
370.000000	111.103	24.0424
375.000000	111.090	23.9040
382.000000	111.072	23.7268
387.000000	111.058	23.6087
395.000000	111.037	23.4367
400.000000	111.025	23.3393
406.000000	111.011	23.2315
412.000000	110.997	23.1397
418.000000	110.984	23.0594
425.000000	110.967	22.9697
431.000000	110.955	22.9054
437.000000	110.944	22.8515
444.000000	110.930	22.7986
450.000000	110.918	22.7600
455.000000	110.909	22.7292
462.000000	110.896	22.6937
468.000000	110.885	22.6763
475.000000	110.875	22.6558
482.000000	110.866	22.6334
487.000000	110.858	22.6212
494.000000	110.847	22.6126
500.000000	110.838	22.6102
508.000000	110.826	22.6130
515.000000	110.816	22.6226
522.000000	110.805	22.6347
530.000000	110.791	22.6528
538.000000	110.778	22.6836
545.000000	110.765	22.7248
552.000000	110.750	22.7723
560.000000	110.734	22.8342
570.000000	110.714	22.9382
580.000000	110.692	23.0691
590.000000	110.672	23.2212
600.000000	110.653	23.3988
608.000000	110.637	23.5575
615.000000	110.625	23.7060
622.000000	110.613	23.8664
630.000000	110.601	24.0665
640.000000	110.587	24.3423
650.000000	110.576	24.6403
660.000000	110.570	24.9534
670.000000	110.566	25.2773
680.000000	110.563	25.6043
690.000000	110.564	25.9418
700.000000	110.569	26.2904
710.000000	110.576	26.6503
720.000000	110.585	27.0143
730.000000	110.596	27.3784
740.000000	110.610	27.7489
750.000000	110.626	28.1219
762.000000	110.648	28.5665
775.000000	110.675	29.0525
788.000000	110.706	29.5492
800.000000	110.737	30.0144
812.000000	110.771	30.4781
825.000000	110.813	30.9820
838.000000	110.859	31.4889
850.000000	110.904	31.9489
862.000000	110.954	32.4015
875.000000	111.012	32.8848
885.000000	111.058	33.2526
900.000000	111.133	33.7929
912.000000	111.196	34.2077
925.000000	111.269	34.6389
938.000000	111.345	35.0506
950.000000	111.418	35.4065
962.000000	111.494	35.7373
975.000000	111.579	36.0723
988.000000	111.666	36.3814
1000.000000	111.748	36.6434
1015.000000	111.851	36.9375
1030.000000	111.956	37.1878
1044.000000	112.054	37.3783
1060.000000	112.164	37.5536
1075.000000	112.267	37.6878
1090.000000	112.369	37.7946
1106.000000	112.476	37.8720
1120.000000	112.568	37.9094
1138.000000	112.682	37.9234
1150.000000	112.756	37.9127
1172.000000	112.886	37.8537
1180.000000	112.931	37.8238
1206.000000	113.073	37.7103
1220.000000	113.145	37.6345
1241.000000	113.249	37.5002
1250.000000	113.292	37.4378
1265.000000	113.362	37.3303
1280.000000	113.428	37.2189
1315.000000	113.573	36.9429
1320.000000	113.593	36.9030
1340.000000	113.668	36.7429
1360.000000	113.739	36.5805
1380.000000	113.807	36.4198
1400.000000	113.871	36.2662
1430.000000	113.961	36.0522
1450.000000	114.018	35.9250
1475.000000	114.087	35.7842
1500.000000	114.153	35.6641
1525.000000	114.217	35.5639
1550.000000	114.280	35.4800
1575.000000	114.343	35.4135
1600.000000	114.407	35.3586
1625.000000	114.471	35.3091
1650.000000	114.536	35.2642
1675.000000	114.603	35.2282
1700.000000	114.669	35.1963
1725.000000	114.738	35.1667
1750.000000	114.808	35.1328
1775.000000	114.878	35.0945
1800.000000	114.951	35.0546
1825.000000	115.025	35.0092
1850.000000	115.099	34.9523
1875.000000	115.174	34.8869
1900.000000	115.250	34.8211
1925.000000	115.328	34.7516
1950.000000	115.409	34.6688
1975.000000	115.490	34.5677
2000.000000	115.572	34.4516
2030.000000	115.670	34.2939
2060.000000	115.770	34.1122
2090.000000	115.870	33.9026
2120.000000	115.970	33.6654
2140.000000	116.037	33.4904
2180.000000	116.172	33.0936
2200.000000	116.239	32.8716
2240.000000	116.373	32.3753
2270.000000	116.471	31.9542
2300.000000	116.567	31.4965
2330.000000	116.659	31.0025
2360.000000	116.749	30.4733
2400.000000	116.863	29.7204
2430.000000	116.944	29.1184
2470.000000	117.045	28.2660
2500.000000	117.116	27.5928
2540.000000	117.204	26.6471
2580.000000	117.282	25.6504
2620.000000	117.350	24.6112
2650.000000	117.396	23.8069
2690.000000	117.447	22.7049
2720.000000	117.477	21.8614
2760.000000	117.507	20.7213
2800.000000	117.524	19.5731
2850.000000	117.530	18.1417
2900.000000	117.518	16.7296
2950.000000	117.490	15.3483
3000.000000	117.446	14.0093
3040.000000	117.402	12.9743
3070.000000	117.362	12.2217
3110.000000	117.302	11.2527
3150.000000	117.234	10.3248
3200.000000	117.139	9.2265
3250.000000	117.034	8.2041
3300.000000	116.920	7.2607
3350.000000	116.797	6.3994
3400.000000	116.666	5.6242
3450.000000	116.527	4.9363
3500.000000	116.379	4.3474
3550.000000	116.222	3.8797
3600.000000	116.058	3.5619
3650.000000	115.890	3.4203
3700.000000	115.728	3.4675
3750.000000	115.578	3.6859
3820.000000	115.397	4.1912
3870.000000	115.289	4.6411
3950.000000	115.152	5.4845
4000.000000	115.093	6.0402
4060.000000	115.045	6.6605
4120.000000	115.015	7.2022
4180.000000	114.996	7.6675
4250.000000	114.982	8.1258
4310.000000	114.974	8.4653
4370.000000	114.971	8.7649
4440.000000	114.972	9.0702
4500.000000	114.976	9.2941
4550.000000	114.982	9.4523
4620.000000	114.992	9.6297
4680.000000	115.002	9.7406
4750.000000	115.011	9.8215
4820.000000	115.017	9.8601
4870.000000	115.021	9.8706
4940.000000	115.023	9.8683
5000.000000	115.023	9.8507
5080.000000	115.018	9.8086
5150.000000	115.010	9.7561
5220.000000	114.997	9.6994
5300.000000	114.976	9.6393
5380.000000	114.949	9.5918
5450.000000	114.922	9.5713
5520.000000	114.891	9.5799
5600.000000	114.852	9.6324
5700.000000	114.801	9.7851
5800.000000	114.758	10.0517
5900.000000	114.733	10.3965
6000.000000	114.732	10.7277
6080.000000	114.750	10.8989
6150.000000	114.773	10.9141
6220.000000	114.792	10.7605
6300.000000	114.792	10.3771
6400.000000	114.728	9.7258
6500.000000	114.569	9.2442
6600.000000	114.338	9.3834
6700.000000	114.098	10.3929
6800.000000	113.921	12.1944
6900.000000	113.850	14.5150
7000.000000	113.903	17.0506
7100.000000	114.082	19.5501
7200.000000	114.383	21.8083
7300.000000	114.799	23.6403
7400.000000	115.319	24.8728
7500.000000	115.933	25.3165
7620.000000	116.772	24.4632
7750.000000	117.740	21.2382
7880.000000	118.625	14.9246
8000.000000	119.171	6.1623
8120.000000	119.271	-4.5444
8250.000000	118.792	-16.1156
8380.000000	117.798	-25.2459
8500.000000	116.620	-30.4293
8620.000000	115.425	-32.8289
8750.000000	114.252	-33.8294
8850.000000	113.391	-33.7772
9000.000000	112.198	-32.2490
9120.000000	111.376	-30.1581
9250.000000	110.624	-27.3991
9380.000000	110.003	-24.3335
9500.000000	109.537	-21.3592
9620.000000	109.166	-18.3382
9750.000000	108.863	-15.0925
9880.000000	108.660	-11.9596
10000.000000	108.554	-9.2489
10150.000000	108.521	-6.2237
10300.000000	108.584	-3.7322
10440.000000	108.712	-2.0042
10600.000000	108.913	-0.8913
10750.000000	109.114	-0.7877
10900.000000	109.281	-1.6384
11060.000000	109.368	-3.5086
11200.000000	109.323	-5.7293
11380.000000	109.065	-8.8628
11500.000000	108.766	-10.7816
11720.000000	108.017	-13.2625
11800.000000	107.703	-13.7578
12060.000000	106.622	-13.8468
12200.000000	106.043	-12.9909
12410.000000	105.235	-10.7416
12500.000000	104.922	-9.4984
12650.000000	104.452	-7.1503
12800.000000	104.052	-4.5620
13150.000000	103.403	1.8521
13200.000000	103.343	2.7647
13400.000000	103.191	6.2426
13600.000000	103.171	9.2326
13800.000000	103.264	11.4381
14000.000000	103.425	12.5750
14300.000000	103.648	11.8846
14500.000000	103.656	9.9692
14750.000000	103.398	6.9052
15000.000000	102.856	4.5477
15250.000000	102.199	3.9627
15500.000000	101.670	5.1008
15750.000000	101.512	6.8237
16000.000000	101.832	6.8351
16250.000000	102.370	2.0014
16500.000000	102.413	-8.9613
16750.000000	101.346	-21.1857
17000.000000	99.291	-27.4028
17250.000000	96.991	-26.1576
17500.000000	95.163	-20.5187
17750.000000	94.085	-13.5137
18000.000000	93.767	-7.4560
18250.000000	94.015	-4.9999
18500.000000	94.246	-7.9512
18750.000000	93.923	-14.0581
19000.000000	93.052	-19.2722
19250.000000	91.989	-22.4608
19500.000000	91.031	-24.8456
19750.000000	90.294	-27.4622
20000.000000	89.890	-29.3931
