* Measurement data measured by REW V5.20.9
* Source: Mic in at rear panel (Pink)(Realtek(R) Audio), MICROPHONE (마스), L, volume: 0.500
* Format: 256k Log Swept Sine, 1 sweep at -12.0 dBFS with no timing reference
* Dated: 2022. 9. 17 오후 11:47:49
* REW Settings:
*  C-weighting compensation: Off
*  Target level: 75.0 dB
* Note: 
* Measurement: R
* Smoothing: 1/24 octave
* Frequency Step: 1/48 octave
* Start Frequency: 20.300 Hz
*
* Freq(Hz)	SPL(dB)	Phase(degrees)
20.299999	72.750	161.6816
20.600000	72.741	161.3239
20.900000	72.721	160.6747
21.200001	72.700	160.0255
21.400000	72.685	159.5847
21.799999	72.648	158.6575
22.000000	72.624	158.1724
22.400000	72.568	157.1986
22.700001	72.523	156.4889
23.000000	72.479	155.7994
23.299999	72.441	155.1153
23.600000	72.407	154.4200
24.000000	72.369	153.4599
24.299999	72.340	152.7234
24.700001	72.299	151.7554
25.000000	72.267	151.0684
25.400000	72.227	150.2210
25.799999	72.194	149.4305
26.200001	72.168	148.6556
26.500000	72.147	148.0722
26.900000	72.114	147.3021
27.200001	72.084	146.7488
27.600000	72.040	146.0576
28.000000	71.998	145.4019
28.500000	71.950	144.5646
29.000000	71.897	143.6613
29.500000	71.829	142.7338
30.000000	71.751	141.8546
30.400000	71.690	141.1918
30.700001	71.648	140.7014
31.100000	71.595	140.0352
31.500000	71.543	139.3534
32.000000	71.480	138.5004
32.500000	71.422	137.6574
33.000000	71.371	136.8008
33.500000	71.323	135.9237
34.000000	71.271	135.0755
34.500000	71.218	134.3095
35.000000	71.173	133.6101
35.500000	71.137	132.9052
36.000000	71.100	132.1569
36.500000	71.054	131.3977
37.000000	70.999	130.6822
37.500000	70.939	130.0238
38.200001	70.853	129.1660
38.700001	70.792	128.5896
39.500000	70.706	127.6947
40.000000	70.662	127.0787
40.599998	70.608	126.2304
41.200001	70.536	125.3339
41.799999	70.449	124.5177
42.500000	70.354	123.7285
43.099998	70.293	123.1055
43.700001	70.246	122.4233
44.400002	70.189	121.5248
45.000000	70.126	120.7400
45.500000	70.068	120.1378
46.200001	69.990	119.3864
46.799999	69.935	118.7617
47.500000	69.878	117.9636
48.200001	69.815	117.1105
48.700001	69.765	116.5259
49.400002	69.695	115.7830
50.000000	69.644	115.1759
50.799999	69.581	114.3386
51.500000	69.522	113.6064
52.200001	69.459	112.9255
53.000000	69.391	112.2126
53.799999	69.329	111.5185
54.500000	69.278	110.8568
55.200001	69.217	110.1281
56.000000	69.129	109.3214
57.000000	69.015	108.4680
58.000000	68.920	107.6384
59.000000	68.828	106.7539
60.000000	68.735	105.8679
60.799999	68.664	105.1741
61.500000	68.606	104.5686
62.200001	68.547	103.9490
63.000000	68.474	103.2523
64.000000	68.379	102.4909
65.000000	68.301	101.7863
66.000000	68.230	101.0058
67.000000	68.153	100.2087
68.000000	68.077	99.4393
69.000000	68.006	98.6682
70.000000	67.937	97.8837
71.000000	67.860	97.1183
72.000000	67.781	96.4436
73.000000	67.708	95.8385
74.000000	67.641	95.2306
75.000000	67.575	94.5936
76.199997	67.491	93.8014
77.500000	67.399	92.9360
78.800003	67.313	92.0146
80.000000	67.227	91.1374
81.199997	67.136	90.3432
82.500000	67.049	89.5877
83.800003	66.974	88.8410
85.000000	66.909	88.1022
86.199997	66.837	87.3347
87.500000	66.753	86.5459
88.500000	66.692	85.9845
90.000000	66.610	85.1483
91.199997	66.545	84.4922
92.500000	66.478	83.8165
93.800003	66.412	83.1163
95.000000	66.346	82.4516
96.199997	66.275	81.8121
97.500000	66.201	81.1575
98.800003	66.132	80.5246
100.000000	66.073	79.9658
101.500000	66.007	79.2641
103.000000	65.938	78.5236
104.400002	65.863	77.8165
106.000000	65.775	77.0442
107.500000	65.703	76.3201
109.000000	65.641	75.5750
110.599998	65.580	74.7959
112.000000	65.525	74.1447
113.800003	65.447	73.3739
115.000000	65.393	72.8675
117.199997	65.296	71.9156
118.000000	65.263	71.5407
120.599998	65.149	70.4295
122.000000	65.106	69.9773
124.099998	65.057	69.2486
125.000000	65.033	68.8861
126.500000	64.980	68.2438
128.000000	64.918	67.6290
131.500000	64.798	66.3873
132.000000	64.785	66.2150
134.000000	64.726	65.5139
136.000000	64.659	64.8242
138.000000	64.594	64.1374
140.000000	64.537	63.4536
143.000000	64.454	62.3953
145.000000	64.386	61.7028
147.500000	64.311	60.9277
150.000000	64.261	60.0984
152.500000	64.201	59.2524
155.000000	64.131	58.4786
157.500000	64.059	57.7655
160.000000	63.999	57.1166
162.500000	63.957	56.4493
165.000000	63.914	55.7314
167.500000	63.861	55.0586
170.000000	63.807	54.4106
172.500000	63.746	53.7211
175.000000	63.685	53.0635
177.500000	63.633	52.4710
180.000000	63.582	51.8871
182.500000	63.530	51.2986
185.000000	63.481	50.7050
187.500000	63.433	50.1199
190.000000	63.383	49.5722
192.500000	63.338	49.0734
195.000000	63.298	48.6022
197.500000	63.260	48.1303
200.000000	63.220	47.6116
203.000000	63.167	46.9152
206.000000	63.110	46.2646
209.000000	63.049	45.7832
212.000000	62.983	45.4556
214.000000	62.943	45.2872
218.000000	62.892	45.0085
220.000000	62.878	44.9270
224.000000	62.867	44.8602
227.000000	62.893	44.7819
230.000000	62.950	44.6376
233.000000	63.028	44.3760
236.000000	63.104	43.7567
240.000000	63.147	42.3717
243.000000	63.137	41.2277
247.000000	63.089	39.9269
250.000000	63.041	39.1139
254.000000	62.986	38.1368
258.000000	62.944	37.3256
262.000000	62.900	36.6704
265.000000	62.859	36.2327
269.000000	62.799	35.6602
272.000000	62.758	35.1828
276.000000	62.719	34.5264
280.000000	62.699	33.9231
285.000000	62.671	33.3517
290.000000	62.630	32.8538
295.000000	62.585	32.2792
300.000000	62.549	31.6776
304.000000	62.526	31.2093
307.000000	62.512	30.8769
311.000000	62.493	30.4372
315.000000	62.465	29.9566
320.000000	62.443	29.4346
325.000000	62.429	29.0370
330.000000	62.411	28.5941
335.000000	62.394	28.1383
340.000000	62.366	27.6413
345.000000	62.342	27.1664
350.000000	62.318	26.7412
355.000000	62.293	26.4000
360.000000	62.263	26.0697
365.000000	62.235	25.7359
370.000000	62.216	25.4325
375.000000	62.193	25.1135
382.000000	62.157	24.6026
387.000000	62.142	24.2698
395.000000	62.124	23.8250
400.000000	62.111	23.5644
406.000000	62.101	23.3136
412.000000	62.099	23.0780
418.000000	62.099	22.7790
425.000000	62.098	22.3475
431.000000	62.099	21.9666
437.000000	62.098	21.5719
444.000000	62.096	21.0963
450.000000	62.088	20.6516
455.000000	62.076	20.2894
462.000000	62.058	19.8206
468.000000	62.043	19.4874
475.000000	62.018	19.1558
482.000000	61.987	18.8529
487.000000	61.972	18.6675
494.000000	61.955	18.4007
500.000000	61.936	18.1278
508.000000	61.906	17.7668
515.000000	61.879	17.5215
522.000000	61.853	17.3379
530.000000	61.825	17.1250
538.000000	61.802	16.8780
545.000000	61.784	16.6671
552.000000	61.759	16.4975
560.000000	61.728	16.3770
570.000000	61.700	16.2843
580.000000	61.676	16.1954
590.000000	61.653	16.2132
600.000000	61.640	16.2897
608.000000	61.626	16.3247
615.000000	61.611	16.3584
622.000000	61.597	16.3835
630.000000	61.585	16.3920
640.000000	61.584	16.4169
650.000000	61.595	16.5154
660.000000	61.606	16.6693
670.000000	61.614	16.7610
680.000000	61.621	16.7968
690.000000	61.631	16.8719
700.000000	61.643	16.9929
710.000000	61.655	17.1316
720.000000	61.667	17.2349
730.000000	61.683	17.3269
740.000000	61.704	17.4164
750.000000	61.726	17.5172
762.000000	61.751	17.6286
775.000000	61.780	17.7892
788.000000	61.806	17.9697
800.000000	61.833	18.1249
812.000000	61.868	18.3078
825.000000	61.911	18.5206
838.000000	61.956	18.7603
850.000000	62.003	18.9590
862.000000	62.052	19.1420
875.000000	62.107	19.3458
885.000000	62.149	19.5054
900.000000	62.220	19.6991
912.000000	62.284	19.8742
925.000000	62.357	20.0498
938.000000	62.430	20.1663
950.000000	62.497	20.2680
962.000000	62.565	20.3543
975.000000	62.641	20.4164
988.000000	62.721	20.4472
1000.000000	62.800	20.4955
1015.000000	62.905	20.5748
1030.000000	63.008	20.5689
1044.000000	63.108	20.5448
1060.000000	63.226	20.4800
1075.000000	63.333	20.3476
1090.000000	63.436	20.1629
1106.000000	63.546	19.9053
1120.000000	63.643	19.6576
1138.000000	63.771	19.3477
1150.000000	63.856	19.1259
1172.000000	64.007	18.6912
1180.000000	64.057	18.5246
1206.000000	64.207	17.9309
1220.000000	64.288	17.5936
1241.000000	64.407	17.1268
1250.000000	64.455	16.9344
1265.000000	64.530	16.5977
1280.000000	64.601	16.2423
1315.000000	64.758	15.4159
1320.000000	64.780	15.3026
1340.000000	64.868	14.8518
1360.000000	64.943	14.4265
1380.000000	65.015	14.0301
1400.000000	65.091	13.6275
1430.000000	65.200	13.0305
1450.000000	65.275	12.6691
1475.000000	65.364	12.2523
1500.000000	65.450	11.8394
1525.000000	65.537	11.4160
1550.000000	65.625	11.0283
1575.000000	65.712	10.6644
1600.000000	65.800	10.2997
1625.000000	65.885	9.9492
1650.000000	65.971	9.5976
1675.000000	66.060	9.2682
1700.000000	66.152	8.9483
1725.000000	66.241	8.6091
1750.000000	66.329	8.2772
1775.000000	66.421	7.9566
1800.000000	66.513	7.6470
1825.000000	66.605	7.3229
1850.000000	66.697	6.9789
1875.000000	66.791	6.6281
1900.000000	66.887	6.2629
1925.000000	66.985	5.8752
1950.000000	67.088	5.4872
1975.000000	67.191	5.0895
2000.000000	67.290	4.6635
2030.000000	67.410	4.1419
2060.000000	67.534	3.5785
2090.000000	67.658	2.9580
2120.000000	67.780	2.2971
2140.000000	67.860	1.8432
2180.000000	68.019	0.8909
2200.000000	68.097	0.3807
2240.000000	68.247	-0.7206
2270.000000	68.354	-1.5830
2300.000000	68.456	-2.4734
2330.000000	68.552	-3.4202
2360.000000	68.639	-4.4193
2400.000000	68.740	-5.7954
2430.000000	68.803	-6.8229
2470.000000	68.871	-8.1958
2500.000000	68.915	-9.2007
2540.000000	68.969	-10.4971
2580.000000	69.020	-11.7818
2620.000000	69.069	-13.0948
2650.000000	69.105	-14.1095
2690.000000	69.143	-15.5262
2720.000000	69.162	-16.6518
2760.000000	69.166	-18.2030
2800.000000	69.143	-19.7744
2850.000000	69.079	-21.6763
2900.000000	68.980	-23.4100
2950.000000	68.862	-24.9086
3000.000000	68.751	-26.2758
3040.000000	68.662	-27.4136
3070.000000	68.589	-28.3078
3110.000000	68.469	-29.5036
3150.000000	68.321	-30.6431
3200.000000	68.095	-31.9002
3250.000000	67.831	-32.8482
3300.000000	67.540	-33.3984
3350.000000	67.240	-33.5152
3400.000000	66.959	-33.1494
3450.000000	66.722	-32.3544
3500.000000	66.542	-31.2369
3550.000000	66.429	-29.8864
3600.000000	66.393	-28.4528
3650.000000	66.435	-27.1659
3700.000000	66.529	-26.1853
3750.000000	66.638	-25.5443
3820.000000	66.774	-25.0098
3870.000000	66.861	-24.6783
3950.000000	67.030	-24.0784
4000.000000	67.178	-23.8412
4060.000000	67.385	-23.9319
4120.000000	67.592	-24.4644
4180.000000	67.775	-25.3487
4250.000000	67.951	-26.7013
4310.000000	68.068	-28.0834
4370.000000	68.150	-29.6645
4440.000000	68.193	-31.8071
4500.000000	68.175	-33.8786
4550.000000	68.111	-35.7263
4620.000000	67.917	-38.4085
4680.000000	67.628	-40.4850
4750.000000	67.169	-42.0127
4820.000000	66.677	-42.2223
4870.000000	66.374	-41.7027
4940.000000	66.068	-40.5113
5000.000000	65.909	-39.4606
5080.000000	65.789	-38.3940
5150.000000	65.715	-37.8426
5220.000000	65.631	-37.5532
5300.000000	65.508	-37.3239
5380.000000	65.360	-36.9820
5450.000000	65.230	-36.5229
5520.000000	65.114	-35.9584
5600.000000	65.004	-35.2602
5700.000000	64.893	-34.3790
5800.000000	64.796	-33.5087
5900.000000	64.705	-32.6261
6000.000000	64.626	-31.6770
6080.000000	64.576	-30.8213
6150.000000	64.542	-29.9915
6220.000000	64.517	-29.0988
6300.000000	64.504	-28.0002
6400.000000	64.521	-26.4797
6500.000000	64.580	-24.7940
6600.000000	64.688	-23.0190
6700.000000	64.855	-21.2030
6800.000000	65.101	-19.3531
6900.000000	65.442	-17.5474
7000.000000	65.885	-15.8978
7100.000000	66.429	-14.4852
7200.000000	67.075	-13.4382
7300.000000	67.826	-12.9155
7400.000000	68.685	-13.1566
7500.000000	69.643	-14.4916
7620.000000	70.887	-18.1301
7750.000000	72.176	-25.4426
7880.000000	73.040	-36.6462
8000.000000	73.218	-49.2588
8120.000000	72.734	-61.4916
8250.000000	71.626	-71.7090
8380.000000	70.222	-77.9461
8500.000000	68.907	-80.7339
8620.000000	67.694	-81.4872
8750.000000	66.539	-80.7608
8850.000000	65.769	-79.4931
9000.000000	64.802	-76.8669
9120.000000	64.178	-74.3495
9250.000000	63.636	-71.4005
9380.000000	63.222	-68.3975
9500.000000	62.941	-65.6787
9620.000000	62.745	-63.1097
9750.000000	62.618	-60.6449
9880.000000	62.560	-58.5911
10000.000000	62.540	-57.1062
10150.000000	62.522	-55.8552
10300.000000	62.471	-55.2637
10440.000000	62.355	-55.1721
10600.000000	62.111	-55.2444
10750.000000	61.765	-55.1303
10900.000000	61.321	-54.5526
11060.000000	60.778	-53.1078
11200.000000	60.286	-51.0302
11380.000000	59.701	-47.4701
11500.000000	59.366	-44.7400
11720.000000	58.851	-39.2818
11800.000000	58.691	-37.2009
12060.000000	58.278	-30.2948
12200.000000	58.099	-26.5463
12410.000000	57.851	-20.9250
12500.000000	57.749	-18.5081
12650.000000	57.582	-14.4403
12800.000000	57.425	-10.2216
13150.000000	57.218	0.9052
13200.000000	57.223	2.6512
13400.000000	57.379	9.8105
13600.000000	57.811	16.8529
13800.000000	58.564	23.0069
14000.000000	59.595	27.2150
14300.000000	61.221	27.1258
14500.000000	61.865	22.4337
14750.000000	61.809	15.0483
15000.000000	61.017	10.5224
15250.000000	60.003	9.6644
15500.000000	59.068	10.6110
15750.000000	58.128	12.5395
16000.000000	57.057	16.5284
16250.000000	56.010	23.4348
16500.000000	55.235	32.6648
16750.000000	54.838	43.0346
17000.000000	54.820	53.7625
17250.000000	55.189	64.3512
17500.000000	55.975	74.4594
17750.000000	57.225	83.6568
18000.000000	58.992	90.9551
18250.000000	61.203	94.5930
18500.000000	63.493	92.1618
18750.000000	65.293	82.0354
19000.000000	66.138	65.9646
19250.000000	65.937	48.7550
19500.000000	64.921	33.7143
19750.000000	63.330	21.3034
20000.000000	61.178	12.1412
