* Measurement data measured by REW V5.20.9
* Source: Mic in at rear panel (Pink)(Realtek(R) Audio), MICROPHONE (마스), L, volume: 0.500
* Format: 256k Log Swept Sine, 1 sweep at -12.0 dBFS with no timing reference
* Dated: 2022. 9. 24 오후 10:04:31
* REW Settings:
*  C-weighting compensation: Off
*  Target level: 75.0 dB
* Note: 
* Measurement: 9월 24
* Smoothing: 1/24 octave
* Frequency Step: 1/48 octave
* Start Frequency: 20.300 Hz
*
* Freq(Hz)	SPL(dB)	Phase(degrees)
20.299999	77.091	-165.1421
20.600000	77.103	-165.3955
20.900000	77.125	-165.8439
21.200001	77.142	-166.2616
21.400000	77.151	-166.5295
21.799999	77.165	-167.0786
22.000000	77.170	-167.3715
22.400000	77.179	-167.9930
22.700001	77.182	-168.4825
23.000000	77.182	-168.9842
23.299999	77.181	-169.4890
23.600000	77.180	-169.9902
24.000000	77.180	-170.6447
24.299999	77.182	-171.1231
24.700001	77.190	-171.7473
25.000000	77.197	-172.2098
25.400000	77.209	-172.8228
25.799999	77.220	-173.4295
26.200001	77.229	-174.0211
26.500000	77.234	-174.4471
26.900000	77.237	-174.9837
27.200001	77.236	-175.3623
27.600000	77.234	-175.8441
28.000000	77.232	-176.3177
28.500000	77.227	-176.9181
29.000000	77.217	-177.5268
29.500000	77.200	-178.1265
30.000000	77.179	-178.7053
30.400000	77.161	-179.1554
30.700001	77.149	-179.4900
31.100000	77.134	-179.9405
31.500000	77.120	179.5961
32.000000	77.101	178.9951
32.500000	77.078	178.3877
33.000000	77.054	177.8094
33.500000	77.035	177.2769
34.000000	77.022	176.7699
34.500000	77.012	176.2552
35.000000	77.000	175.7257
35.500000	76.983	175.2067
36.000000	76.961	174.7273
36.500000	76.938	174.2911
37.000000	76.918	173.8748
37.500000	76.897	173.4559
38.200001	76.863	172.8641
38.700001	76.835	172.4514
39.500000	76.791	171.7967
40.000000	76.764	171.3687
40.599998	76.727	170.8362
41.200001	76.685	170.3115
41.799999	76.640	169.8195
42.500000	76.589	169.2926
43.099998	76.550	168.8693
43.700001	76.514	168.4553
44.400002	76.475	167.9712
45.000000	76.439	167.5573
45.500000	76.407	167.2194
46.200001	76.360	166.7632
46.799999	76.317	166.3902
47.500000	76.267	165.9771
48.200001	76.220	165.5850
48.700001	76.188	165.3104
49.400002	76.146	164.9249
50.000000	76.109	164.5937
50.799999	76.059	164.1566
51.500000	76.017	163.7810
52.200001	75.973	163.4101
53.000000	75.920	162.9987
53.799999	75.862	162.6285
54.500000	75.810	162.3466
55.200001	75.761	162.0754
56.000000	75.706	161.7567
57.000000	75.637	161.3748
58.000000	75.569	160.9902
59.000000	75.495	160.5761
60.000000	75.412	160.2191
60.799999	75.348	160.0033
61.500000	75.303	159.8321
62.200001	75.265	159.6348
63.000000	75.219	159.3713
64.000000	75.158	159.0247
65.000000	75.089	158.6698
66.000000	75.004	158.4415
67.000000	74.937	158.3887
68.000000	74.893	158.2513
69.000000	74.843	158.0193
70.000000	74.789	157.7999
71.000000	74.732	157.5812
72.000000	74.673	157.4138
73.000000	74.622	157.2910
74.000000	74.576	157.1313
75.000000	74.521	156.9408
76.199997	74.446	156.7673
77.500000	74.365	156.6531
78.800003	74.304	156.5894
80.000000	74.265	156.4057
81.199997	74.214	156.1153
82.500000	74.146	155.8858
83.800003	74.083	155.7583
85.000000	74.028	155.6512
86.199997	73.973	155.5430
87.500000	73.917	155.4417
88.500000	73.879	155.3372
90.000000	73.821	155.1208
91.199997	73.771	154.9531
92.500000	73.716	154.7965
93.800003	73.661	154.6879
95.000000	73.620	154.5827
96.199997	73.578	154.4045
97.500000	73.524	154.2213
98.800003	73.472	154.0807
100.000000	73.427	153.9688
101.500000	73.368	153.8615
103.000000	73.309	153.7936
104.400002	73.258	153.7098
106.000000	73.198	153.5087
107.500000	73.139	153.3072
109.000000	73.085	153.0970
110.599998	73.026	152.9222
112.000000	72.976	152.8306
113.800003	72.916	152.7237
115.000000	72.877	152.6261
117.199997	72.802	152.4026
118.000000	72.774	152.3369
120.599998	72.688	152.2662
122.000000	72.648	152.2791
124.099998	72.586	152.2553
125.000000	72.559	152.2189
126.500000	72.516	152.0994
128.000000	72.473	151.9473
131.500000	72.387	151.5981
132.000000	72.374	151.5401
134.000000	72.313	151.3063
136.000000	72.243	151.0720
138.000000	72.167	150.8298
140.000000	72.086	150.6167
143.000000	71.965	150.3981
145.000000	71.889	150.2552
147.500000	71.795	150.0726
150.000000	71.701	149.8981
152.500000	71.604	149.7507
155.000000	71.510	149.6552
157.500000	71.421	149.5800
160.000000	71.324	149.5192
162.500000	71.223	149.4738
165.000000	71.125	149.4398
167.500000	71.033	149.4489
170.000000	70.939	149.4869
172.500000	70.838	149.5016
175.000000	70.732	149.5124
177.500000	70.631	149.5581
180.000000	70.531	149.6088
182.500000	70.424	149.6877
185.000000	70.318	149.7956
187.500000	70.216	149.9111
190.000000	70.112	150.0501
192.500000	70.005	150.2381
195.000000	69.897	150.5032
197.500000	69.791	150.8404
200.000000	69.685	151.2203
203.000000	69.560	151.7750
206.000000	69.447	152.5346
209.000000	69.369	153.5444
212.000000	69.354	154.6436
214.000000	69.388	155.2716
218.000000	69.518	155.8817
220.000000	69.578	155.8131
224.000000	69.627	155.2206
227.000000	69.593	154.7238
230.000000	69.518	154.3591
233.000000	69.430	154.1309
236.000000	69.336	154.0449
240.000000	69.210	154.1336
243.000000	69.119	154.2337
247.000000	68.999	154.4048
250.000000	68.918	154.5768
254.000000	68.817	154.8401
258.000000	68.712	155.1969
262.000000	68.610	155.5676
265.000000	68.541	155.8069
269.000000	68.458	156.1176
272.000000	68.402	156.3748
276.000000	68.323	156.7507
280.000000	68.242	157.1496
285.000000	68.147	157.6343
290.000000	68.059	158.1217
295.000000	67.982	158.6532
300.000000	67.906	159.1496
304.000000	67.845	159.5225
307.000000	67.801	159.8002
311.000000	67.745	160.1819
315.000000	67.689	160.5674
320.000000	67.624	161.0514
325.000000	67.562	161.5391
330.000000	67.501	162.0341
335.000000	67.444	162.5268
340.000000	67.389	163.0161
345.000000	67.334	163.5105
350.000000	67.275	164.0256
355.000000	67.216	164.5410
360.000000	67.162	165.0174
365.000000	67.109	165.4770
370.000000	67.058	165.9492
375.000000	67.011	166.4431
382.000000	66.944	167.1329
387.000000	66.891	167.5856
395.000000	66.804	168.3546
400.000000	66.758	168.8744
406.000000	66.711	169.4921
412.000000	66.670	170.0936
418.000000	66.630	170.6974
425.000000	66.584	171.3576
431.000000	66.544	171.8599
437.000000	66.506	172.3677
444.000000	66.466	172.9846
450.000000	66.432	173.5411
455.000000	66.403	173.9873
462.000000	66.364	174.5849
468.000000	66.330	175.1045
475.000000	66.297	175.7053
482.000000	66.265	176.3110
487.000000	66.237	176.7675
494.000000	66.198	177.4228
500.000000	66.172	177.9742
508.000000	66.147	178.6962
515.000000	66.122	179.3328
522.000000	66.096	179.9774
530.000000	66.067	-179.3038
538.000000	66.041	-178.5962
545.000000	66.027	-178.0030
552.000000	66.013	-177.3978
560.000000	65.994	-176.6987
570.000000	65.970	-175.8021
580.000000	65.948	-174.9302
590.000000	65.933	-174.1043
600.000000	65.926	-173.2655
608.000000	65.923	-172.5907
615.000000	65.916	-171.9890
622.000000	65.906	-171.3889
630.000000	65.896	-170.7359
640.000000	65.889	-169.9681
650.000000	65.889	-169.2028
660.000000	65.889	-168.3966
670.000000	65.887	-167.5921
680.000000	65.889	-166.7998
690.000000	65.894	-166.0300
700.000000	65.898	-165.2538
710.000000	65.906	-164.4456
720.000000	65.915	-163.6513
730.000000	65.927	-162.8712
740.000000	65.937	-162.0721
750.000000	65.946	-161.2976
762.000000	65.964	-160.4279
775.000000	65.987	-159.4901
788.000000	66.011	-158.5357
800.000000	66.040	-157.6687
812.000000	66.074	-156.7735
825.000000	66.113	-155.8139
838.000000	66.155	-154.9105
850.000000	66.196	-154.1033
862.000000	66.243	-153.3118
875.000000	66.295	-152.4720
885.000000	66.336	-151.8288
900.000000	66.406	-150.8687
912.000000	66.463	-150.1306
925.000000	66.528	-149.4069
938.000000	66.596	-148.7039
950.000000	66.661	-148.0389
962.000000	66.731	-147.3954
975.000000	66.807	-146.7493
988.000000	66.881	-146.1547
1000.000000	66.949	-145.6451
1015.000000	67.032	-145.1232
1030.000000	67.100	-144.6898
1044.000000	67.141	-144.2213
1060.000000	67.185	-143.4453
1075.000000	67.261	-142.6157
1090.000000	67.376	-141.8924
1106.000000	67.514	-141.3419
1120.000000	67.627	-141.0160
1138.000000	67.758	-140.6701
1150.000000	67.835	-140.4547
1172.000000	67.960	-140.0722
1180.000000	68.004	-139.9282
1206.000000	68.142	-139.4360
1220.000000	68.211	-139.1837
1241.000000	68.312	-138.8123
1250.000000	68.354	-138.6610
1265.000000	68.421	-138.4255
1280.000000	68.486	-138.1679
1315.000000	68.626	-137.5003
1320.000000	68.644	-137.4079
1340.000000	68.719	-137.0504
1360.000000	68.792	-136.6922
1380.000000	68.865	-136.3056
1400.000000	68.941	-135.8923
1430.000000	69.058	-135.2817
1450.000000	69.137	-134.8752
1475.000000	69.238	-134.3494
1500.000000	69.337	-133.7892
1525.000000	69.440	-133.2214
1550.000000	69.553	-132.7044
1575.000000	69.668	-132.1886
1600.000000	69.779	-131.6319
1625.000000	69.892	-131.0673
1650.000000	70.009	-130.5257
1675.000000	70.130	-130.0031
1700.000000	70.256	-129.4950
1725.000000	70.387	-128.9851
1750.000000	70.526	-128.4673
1775.000000	70.663	-127.9651
1800.000000	70.802	-127.5016
1825.000000	70.948	-127.0664
1850.000000	71.097	-126.6518
1875.000000	71.249	-126.2716
1900.000000	71.407	-125.9329
1925.000000	71.571	-125.6148
1950.000000	71.739	-125.3449
1975.000000	71.909	-125.1353
2000.000000	72.080	-124.9598
2030.000000	72.291	-124.8042
2060.000000	72.507	-124.6863
2090.000000	72.724	-124.6242
2120.000000	72.950	-124.6550
2140.000000	73.105	-124.7261
2180.000000	73.420	-124.9833
2200.000000	73.580	-125.1772
2240.000000	73.901	-125.7214
2270.000000	74.140	-126.2890
2300.000000	74.374	-126.9834
2330.000000	74.601	-127.7820
2360.000000	74.819	-128.6917
2400.000000	75.098	-130.0784
2430.000000	75.296	-131.2522
2470.000000	75.543	-133.0316
2500.000000	75.708	-134.4860
2540.000000	75.893	-136.5384
2580.000000	76.039	-138.7327
2620.000000	76.147	-141.0213
2650.000000	76.202	-142.7543
2690.000000	76.237	-145.0438
2720.000000	76.236	-146.7259
2760.000000	76.202	-148.9046
2800.000000	76.137	-150.9942
2850.000000	76.016	-153.4669
2900.000000	75.843	-155.7713
2950.000000	75.622	-157.8160
3000.000000	75.357	-159.4718
3040.000000	75.133	-160.4558
3070.000000	74.969	-160.9810
3110.000000	74.770	-161.4403
3150.000000	74.605	-161.7550
3200.000000	74.436	-162.1862
3250.000000	74.270	-162.7829
3300.000000	74.083	-163.4527
3350.000000	73.871	-163.9756
3400.000000	73.645	-164.2763
3450.000000	73.425	-164.3740
3500.000000	73.223	-164.2952
3550.000000	73.031	-164.1017
3600.000000	72.850	-163.8254
3650.000000	72.682	-163.4331
3700.000000	72.519	-162.9236
3750.000000	72.362	-162.3189
3820.000000	72.165	-161.3339
3870.000000	72.039	-160.5563
3950.000000	71.855	-159.1908
4000.000000	71.753	-158.2862
4060.000000	71.646	-157.1694
4120.000000	71.559	-156.0010
4180.000000	71.492	-154.7838
4250.000000	71.428	-153.3396
4310.000000	71.387	-152.0715
4370.000000	71.353	-150.7624
4440.000000	71.327	-149.1996
4500.000000	71.325	-147.8629
4550.000000	71.335	-146.7569
4620.000000	71.366	-145.2119
4680.000000	71.411	-143.8940
4750.000000	71.483	-142.3775
4820.000000	71.575	-140.8765
4870.000000	71.652	-139.7902
4940.000000	71.777	-138.2369
5000.000000	71.910	-136.8773
5080.000000	72.133	-135.0630
5150.000000	72.376	-133.5547
5220.000000	72.664	-132.1681
5300.000000	73.045	-130.8060
5380.000000	73.473	-129.7310
5450.000000	73.885	-129.0479
5520.000000	74.330	-128.6257
5600.000000	74.880	-128.4862
5700.000000	75.632	-128.9684
5800.000000	76.449	-130.4222
5900.000000	77.297	-133.1100
6000.000000	78.117	-137.2917
6080.000000	78.701	-141.8201
6150.000000	79.114	-146.5835
6220.000000	79.404	-151.9284
6300.000000	79.557	-158.4254
6400.000000	79.482	-166.4633
6500.000000	79.155	-173.7505
6600.000000	78.654	-179.9370
6700.000000	78.045	174.9996
6800.000000	77.379	171.0137
6900.000000	76.707	168.0782
7000.000000	76.069	166.0644
7100.000000	75.475	164.8304
7200.000000	74.940	164.2128
7300.000000	74.472	164.0264
7400.000000	74.071	164.1414
7500.000000	73.734	164.4484
7620.000000	73.423	164.9635
7750.000000	73.190	165.5628
7880.000000	72.982	166.1191
8000.000000	72.824	166.5532
8120.000000	72.723	166.8546
8250.000000	72.686	166.9335
8380.000000	72.708	166.5967
8500.000000	72.770	165.8445
8620.000000	72.869	164.5976
8750.000000	72.990	162.4789
8850.000000	73.068	160.2131
9000.000000	73.112	155.6752
9120.000000	73.030	151.1545
9250.000000	72.767	145.7211
9380.000000	72.303	140.2001
9500.000000	71.704	135.4367
9620.000000	70.961	131.3063
9750.000000	70.030	127.8032
9880.000000	69.014	125.4518
10000.000000	68.042	124.3327
10150.000000	66.843	124.2644
10300.000000	65.719	125.4060
10440.000000	64.766	127.2775
10600.000000	63.797	130.0436
10750.000000	62.995	133.0179
10900.000000	62.286	136.2509
11060.000000	61.616	139.9113
11200.000000	61.101	143.2526
11380.000000	60.534	147.7202
11500.000000	60.216	150.7757
11720.000000	59.747	156.5009
11800.000000	59.614	158.6169
12060.000000	59.322	165.4524
12200.000000	59.246	169.1206
12410.000000	59.235	174.5608
12500.000000	59.273	176.8231
12650.000000	59.402	-179.5450
12800.000000	59.619	-176.0861
13150.000000	60.538	-168.8385
13200.000000	60.726	-167.9379
13400.000000	61.649	-164.8549
13600.000000	62.916	-163.0933
13800.000000	64.580	-163.8200
14000.000000	66.509	-169.1506
14300.000000	68.744	168.7305
14500.000000	68.812	146.5015
14750.000000	66.981	123.2823
15000.000000	63.996	112.3264
15250.000000	61.065	110.0205
15500.000000	58.710	111.8489
15750.000000	56.936	115.5177
16000.000000	55.590	120.0984
16250.000000	54.557	125.2318
16500.000000	53.777	130.6443
16750.000000	53.201	136.0741
17000.000000	52.798	141.2892
17250.000000	52.582	146.2149
17500.000000	52.559	150.7072
17750.000000	52.696	154.6049
18000.000000	52.945	157.4814
18250.000000	53.274	158.9637
18500.000000	53.631	158.5021
18750.000000	53.902	155.2737
19000.000000	53.911	148.4034
19250.000000	53.443	129.1951
19500.000000	52.345	4.8724
19750.000000	50.442	-128.3663
20000.000000	47.124	110.3467
