* Measurement data measured by REW V5.20.9
* Source: Mic in at rear panel (Pink)(Realtek(R) Audio), MICROPHONE (마스), L, volume: 0.500
* Format: 256k Log Swept Sine, 1 sweep at -12.0 dBFS with no timing reference
* Dated: 2022. 9. 24 오후 10:02:36
* REW Settings:
*  C-weighting compensation: Off
*  Target level: 75.0 dB
* Note: 
* Measurement: 9월 24
* Smoothing: 1/24 octave
* Frequency Step: 1/48 octave
* Start Frequency: 20.300 Hz
*
* Freq(Hz)	SPL(dB)	Phase(degrees)
20.299999	78.306	-162.7716
20.600000	78.324	-162.8734
20.900000	78.357	-163.0592
21.200001	78.382	-163.2479
21.400000	78.395	-163.3773
21.799999	78.413	-163.6523
22.000000	78.419	-163.7982
22.400000	78.429	-164.0994
22.700001	78.436	-164.3301
23.000000	78.444	-164.5679
23.299999	78.454	-164.8185
23.600000	78.466	-165.0853
24.000000	78.486	-165.4654
24.299999	78.502	-165.7609
24.700001	78.524	-166.1546
25.000000	78.541	-166.4408
25.400000	78.565	-166.8057
25.799999	78.592	-167.1547
26.200001	78.620	-167.4941
26.500000	78.640	-167.7422
26.900000	78.663	-168.0575
27.200001	78.677	-168.2761
27.600000	78.693	-168.5411
28.000000	78.709	-168.7831
28.500000	78.729	-169.0735
29.000000	78.750	-169.3700
29.500000	78.767	-169.6783
30.000000	78.779	-169.9924
30.400000	78.786	-170.2405
30.700001	78.791	-170.4218
31.100000	78.799	-170.6588
31.500000	78.808	-170.8978
32.000000	78.820	-171.2142
32.500000	78.833	-171.5535
33.000000	78.845	-171.8955
33.500000	78.860	-172.2183
34.000000	78.878	-172.5204
34.500000	78.898	-172.8177
35.000000	78.919	-173.1211
35.500000	78.939	-173.4252
36.000000	78.957	-173.7162
36.500000	78.974	-173.9881
37.000000	78.992	-174.2513
37.500000	79.010	-174.5225
38.200001	79.030	-174.9234
38.700001	79.040	-175.2093
39.500000	79.052	-175.6433
40.000000	79.062	-175.9135
40.599998	79.073	-176.2521
41.200001	79.083	-176.5992
41.799999	79.094	-176.9423
42.500000	79.107	-177.3414
43.099998	79.120	-177.6903
43.700001	79.132	-178.0335
44.400002	79.146	-178.4087
45.000000	79.160	-178.7169
45.500000	79.173	-178.9781
46.200001	79.190	-179.3512
46.799999	79.203	-179.6700
47.500000	79.219	179.9536
48.200001	79.235	179.5678
48.700001	79.245	179.2935
49.400002	79.259	178.9163
50.000000	79.271	178.5915
50.799999	79.284	178.1538
51.500000	79.294	177.7779
52.200001	79.305	177.4002
53.000000	79.316	176.9572
53.799999	79.322	176.5264
54.500000	79.328	176.1534
55.200001	79.333	175.7570
56.000000	79.335	175.2982
57.000000	79.338	174.7664
58.000000	79.344	174.2202
59.000000	79.346	173.6605
60.000000	79.345	173.1122
60.799999	79.342	172.6600
61.500000	79.339	172.2637
62.200001	79.334	171.8674
63.000000	79.326	171.4125
64.000000	79.312	170.8772
65.000000	79.308	170.3594
66.000000	79.307	169.7841
67.000000	79.295	169.2138
68.000000	79.282	168.7065
69.000000	79.272	168.2057
70.000000	79.260	167.6895
71.000000	79.242	167.1699
72.000000	79.219	166.6543
73.000000	79.194	166.1467
74.000000	79.166	165.6270
75.000000	79.132	165.0990
76.199997	79.088	164.4706
77.500000	79.035	163.8231
78.800003	78.989	163.2283
80.000000	78.948	162.6555
81.199997	78.907	162.1096
82.500000	78.868	161.5002
83.800003	78.820	160.8906
85.000000	78.772	160.3658
86.199997	78.722	159.8647
87.500000	78.666	159.3498
88.500000	78.622	158.9662
90.000000	78.555	158.3759
91.199997	78.494	157.9080
92.500000	78.426	157.4332
93.800003	78.357	156.9913
95.000000	78.299	156.6128
96.199997	78.246	156.2249
97.500000	78.189	155.7871
98.800003	78.128	155.3773
100.000000	78.073	155.0268
101.500000	78.003	154.6174
103.000000	77.934	154.2405
104.400002	77.870	153.8609
106.000000	77.784	153.4252
107.500000	77.698	153.0980
109.000000	77.618	152.8188
110.599998	77.536	152.5247
112.000000	77.464	152.2543
113.800003	77.370	151.9014
115.000000	77.307	151.6933
117.199997	77.206	151.4186
118.000000	77.177	151.3383
120.599998	77.091	150.9833
122.000000	77.034	150.7624
124.099998	76.945	150.4756
125.000000	76.909	150.3475
126.500000	76.850	150.1223
128.000000	76.791	149.8893
131.500000	76.644	149.3361
132.000000	76.621	149.2662
134.000000	76.531	149.0134
136.000000	76.443	148.7835
138.000000	76.356	148.5639
140.000000	76.268	148.3503
143.000000	76.135	148.0676
145.000000	76.047	147.9216
147.500000	75.942	147.7557
150.000000	75.838	147.5875
152.500000	75.738	147.4234
155.000000	75.640	147.2856
157.500000	75.542	147.1611
160.000000	75.441	147.0525
162.500000	75.340	146.9574
165.000000	75.242	146.8790
167.500000	75.146	146.8228
170.000000	75.050	146.7672
172.500000	74.954	146.7122
175.000000	74.860	146.6674
177.500000	74.765	146.6432
180.000000	74.668	146.6412
182.500000	74.567	146.6465
185.000000	74.463	146.6647
187.500000	74.358	146.7069
190.000000	74.254	146.7788
192.500000	74.150	146.9054
195.000000	74.046	147.1075
197.500000	73.942	147.4160
200.000000	73.846	147.8481
203.000000	73.752	148.5364
206.000000	73.703	149.3858
209.000000	73.726	150.2180
212.000000	73.811	150.6862
214.000000	73.878	150.6781
218.000000	73.962	150.0033
220.000000	73.962	149.5056
224.000000	73.891	148.5733
227.000000	73.802	148.0513
230.000000	73.704	147.6861
233.000000	73.604	147.4293
236.000000	73.501	147.2505
240.000000	73.368	147.0952
243.000000	73.271	147.0182
247.000000	73.142	146.9780
250.000000	73.049	146.9831
254.000000	72.931	147.0161
258.000000	72.814	147.0902
262.000000	72.698	147.2023
265.000000	72.611	147.2924
269.000000	72.497	147.4100
272.000000	72.414	147.5039
276.000000	72.310	147.6445
280.000000	72.210	147.7857
285.000000	72.087	147.9778
290.000000	71.967	148.1949
295.000000	71.848	148.4044
300.000000	71.730	148.6198
304.000000	71.639	148.8035
307.000000	71.572	148.9482
311.000000	71.485	149.1593
315.000000	71.399	149.3945
320.000000	71.291	149.6943
325.000000	71.187	150.0075
330.000000	71.085	150.3430
335.000000	70.985	150.6541
340.000000	70.885	150.9527
345.000000	70.782	151.2653
350.000000	70.678	151.5972
355.000000	70.575	151.9612
360.000000	70.477	152.3369
365.000000	70.381	152.7014
370.000000	70.287	153.0822
375.000000	70.195	153.4930
382.000000	70.069	154.0891
387.000000	69.981	154.5203
395.000000	69.839	155.1967
400.000000	69.751	155.6492
406.000000	69.650	156.1949
412.000000	69.557	156.7067
418.000000	69.470	157.2264
425.000000	69.366	157.8457
431.000000	69.278	158.3506
437.000000	69.196	158.8447
444.000000	69.099	159.4431
450.000000	69.017	159.9850
455.000000	68.951	160.4304
462.000000	68.857	161.0506
468.000000	68.777	161.5883
475.000000	68.689	162.2198
482.000000	68.607	162.8689
487.000000	68.549	163.3246
494.000000	68.471	163.9740
500.000000	68.406	164.5558
508.000000	68.321	165.3442
515.000000	68.250	166.0153
522.000000	68.179	166.6819
530.000000	68.097	167.4700
538.000000	68.016	168.2467
545.000000	67.955	168.9154
552.000000	67.897	169.5996
560.000000	67.829	170.3828
570.000000	67.745	171.3884
580.000000	67.666	172.4255
590.000000	67.590	173.4462
600.000000	67.518	174.4333
608.000000	67.467	175.2435
615.000000	67.427	175.9558
622.000000	67.387	176.6438
630.000000	67.339	177.4167
640.000000	67.277	178.4000
650.000000	67.219	179.3940
660.000000	67.169	-179.5915
670.000000	67.120	-178.5556
680.000000	67.076	-177.5425
690.000000	67.033	-176.5567
700.000000	66.988	-175.5444
710.000000	66.951	-174.5075
720.000000	66.918	-173.4840
730.000000	66.893	-172.4653
740.000000	66.869	-171.4379
750.000000	66.843	-170.4379
762.000000	66.815	-169.2465
775.000000	66.794	-167.9411
788.000000	66.783	-166.6284
800.000000	66.780	-165.4236
812.000000	66.779	-164.2341
825.000000	66.782	-162.9491
838.000000	66.793	-161.6902
850.000000	66.805	-160.5645
862.000000	66.819	-159.4294
875.000000	66.842	-158.1888
885.000000	66.867	-157.2647
900.000000	66.914	-155.9365
912.000000	66.951	-154.8960
925.000000	66.992	-153.7850
938.000000	67.038	-152.7128
950.000000	67.089	-151.7399
962.000000	67.148	-150.7918
975.000000	67.216	-149.8164
988.000000	67.289	-148.8944
1000.000000	67.356	-148.0941
1015.000000	67.422	-147.1627
1030.000000	67.476	-146.3186
1044.000000	67.514	-145.4714
1060.000000	67.556	-144.2495
1075.000000	67.636	-143.0420
1090.000000	67.755	-142.0128
1106.000000	67.891	-141.1392
1120.000000	68.003	-140.4974
1138.000000	68.137	-139.7424
1150.000000	68.217	-139.2667
1172.000000	68.351	-138.4065
1180.000000	68.399	-138.0944
1206.000000	68.551	-137.1052
1220.000000	68.633	-136.5836
1241.000000	68.755	-135.8111
1250.000000	68.804	-135.4862
1265.000000	68.884	-134.9505
1280.000000	68.964	-134.4206
1315.000000	69.142	-133.1579
1320.000000	69.166	-132.9759
1340.000000	69.263	-132.2853
1360.000000	69.358	-131.6234
1380.000000	69.457	-130.9347
1400.000000	69.557	-130.2384
1430.000000	69.712	-129.2178
1450.000000	69.819	-128.5588
1475.000000	69.956	-127.7380
1500.000000	70.090	-126.8886
1525.000000	70.230	-126.0683
1550.000000	70.376	-125.2811
1575.000000	70.527	-124.4819
1600.000000	70.678	-123.6543
1625.000000	70.830	-122.8482
1650.000000	70.986	-122.1103
1675.000000	71.146	-121.4129
1700.000000	71.311	-120.7276
1725.000000	71.482	-120.0404
1750.000000	71.657	-119.3611
1775.000000	71.830	-118.7145
1800.000000	72.005	-118.1295
1825.000000	72.187	-117.5900
1850.000000	72.375	-117.0520
1875.000000	72.565	-116.5417
1900.000000	72.760	-116.0829
1925.000000	72.961	-115.6700
1950.000000	73.167	-115.3188
1975.000000	73.375	-115.0206
2000.000000	73.581	-114.7598
2030.000000	73.834	-114.5252
2060.000000	74.092	-114.3596
2090.000000	74.350	-114.2546
2120.000000	74.617	-114.2249
2140.000000	74.798	-114.2627
2180.000000	75.166	-114.4907
2200.000000	75.352	-114.6820
2240.000000	75.723	-115.2249
2270.000000	75.998	-115.7811
2300.000000	76.268	-116.4783
2330.000000	76.528	-117.3073
2360.000000	76.778	-118.2643
2400.000000	77.096	-119.7200
2430.000000	77.323	-120.9332
2470.000000	77.607	-122.7413
2500.000000	77.800	-124.2277
2540.000000	78.023	-126.3496
2580.000000	78.204	-128.6314
2620.000000	78.345	-131.0293
2650.000000	78.423	-132.8568
2690.000000	78.484	-135.2764
2720.000000	78.500	-137.0605
2760.000000	78.481	-139.3711
2800.000000	78.425	-141.5497
2850.000000	78.317	-144.0373
2900.000000	78.168	-146.3035
2950.000000	77.981	-148.3435
3000.000000	77.758	-150.0587
3040.000000	77.566	-151.1319
3070.000000	77.426	-151.7444
3110.000000	77.254	-152.3473
3150.000000	77.111	-152.8426
3200.000000	76.960	-153.5161
3250.000000	76.803	-154.3275
3300.000000	76.621	-155.1762
3350.000000	76.413	-155.8455
3400.000000	76.193	-156.2667
3450.000000	75.979	-156.4692
3500.000000	75.780	-156.4897
3550.000000	75.590	-156.3923
3600.000000	75.413	-156.2014
3650.000000	75.248	-155.8991
3700.000000	75.089	-155.4807
3750.000000	74.934	-154.9595
3820.000000	74.735	-154.0859
3870.000000	74.606	-153.3855
3950.000000	74.419	-152.1134
4000.000000	74.316	-151.2430
4060.000000	74.208	-150.1612
4120.000000	74.118	-149.0355
4180.000000	74.047	-147.8585
4250.000000	73.982	-146.4398
4310.000000	73.939	-145.1957
4370.000000	73.904	-143.9072
4440.000000	73.878	-142.3628
4500.000000	73.873	-141.0276
4550.000000	73.884	-139.9090
4620.000000	73.919	-138.3515
4680.000000	73.968	-137.0389
4750.000000	74.043	-135.5204
4820.000000	74.138	-134.0023
4870.000000	74.219	-132.8997
4940.000000	74.351	-131.3331
5000.000000	74.488	-129.9888
5080.000000	74.713	-128.2172
5150.000000	74.953	-126.7253
5220.000000	75.238	-125.3299
5300.000000	75.619	-123.9007
5380.000000	76.054	-122.7249
5450.000000	76.477	-121.9600
5520.000000	76.937	-121.4847
5600.000000	77.503	-121.3313
5700.000000	78.272	-121.8153
5800.000000	79.103	-123.2609
5900.000000	79.961	-125.9240
6000.000000	80.791	-130.0594
6080.000000	81.382	-134.5127
6150.000000	81.807	-139.1723
6220.000000	82.116	-144.3839
6300.000000	82.305	-150.7344
6400.000000	82.293	-158.7078
6500.000000	82.036	-166.1446
6600.000000	81.587	-172.6602
6700.000000	81.002	-178.0565
6800.000000	80.345	177.7109
6900.000000	79.680	174.5820
7000.000000	79.044	172.4406
7100.000000	78.457	171.1487
7200.000000	77.938	170.4904
7300.000000	77.498	170.2368
7400.000000	77.130	170.2064
7500.000000	76.822	170.3080
7620.000000	76.537	170.5248
7750.000000	76.319	170.8032
7880.000000	76.121	171.0379
8000.000000	75.958	171.1920
8120.000000	75.844	171.2919
8250.000000	75.791	171.2529
8380.000000	75.816	170.9353
8500.000000	75.907	170.1949
8620.000000	76.040	168.8418
8750.000000	76.202	166.5330
8850.000000	76.313	164.0233
9000.000000	76.391	159.0146
9120.000000	76.321	154.1372
9250.000000	76.069	148.3430
9380.000000	75.614	142.4329
9500.000000	75.020	137.2627
9620.000000	74.279	132.6921
9750.000000	73.345	128.6890
9880.000000	72.322	125.8503
10000.000000	71.338	124.3140
10150.000000	70.122	123.7554
10300.000000	68.982	124.4110
10440.000000	68.011	125.7919
10600.000000	67.016	127.9850
10750.000000	66.186	130.4443
10900.000000	65.446	133.1929
11060.000000	64.739	136.3538
11200.000000	64.187	139.2655
11380.000000	63.571	143.1761
11500.000000	63.219	145.8723
11720.000000	62.686	150.9419
11800.000000	62.530	152.8146
12060.000000	62.156	158.9299
12200.000000	62.032	162.2152
12410.000000	61.939	167.0582
12500.000000	61.939	169.0833
12650.000000	62.003	172.3629
12800.000000	62.151	175.4827
13150.000000	62.895	-178.0164
13200.000000	63.055	-177.2041
13400.000000	63.862	-174.4211
13600.000000	65.005	-172.8539
13800.000000	66.543	-173.5896
14000.000000	68.376	-178.6337
14300.000000	70.622	160.1216
14500.000000	70.785	137.8723
14750.000000	69.044	113.4454
15000.000000	66.018	101.2119
15250.000000	62.948	98.1183
15500.000000	60.430	99.4778
15750.000000	58.507	102.8897
16000.000000	57.029	107.3455
16250.000000	55.870	112.3522
16500.000000	54.973	117.5872
16750.000000	54.285	122.9284
17000.000000	53.779	128.1853
17250.000000	53.452	133.1860
17500.000000	53.316	137.8226
17750.000000	53.337	141.8394
18000.000000	53.481	144.8488
18250.000000	53.728	146.5597
18500.000000	54.008	146.3753
18750.000000	54.215	143.5590
19000.000000	54.175	137.1384
19250.000000	53.683	118.5441
19500.000000	52.579	0.4579
19750.000000	50.676	-57.4515
20000.000000	47.341	-77.9976
