* Measurement data measured by REW V5.20.9
* Source: Mic in at rear panel (Pink)(Realtek(R) Audio), MICROPHONE (마스), L, volume: 0.500
* Format: 256k Log Swept Sine, 1 sweep at -12.0 dBFS with no timing reference
* Dated: 2022. 9. 24 오후 9:54:47
* REW Settings:
*  C-weighting compensation: Off
*  Target level: 75.0 dB
* Note: 
* Measurement: 9월 24
* Smoothing: 1/24 octave
* Frequency Step: 1/48 octave
* Start Frequency: 20.300 Hz
*
* Freq(Hz)	SPL(dB)	Phase(degrees)
20.299999	77.364	-152.2909
20.600000	77.386	-152.2703
20.900000	77.429	-152.2278
21.200001	77.468	-152.1769
21.400000	77.491	-152.1505
21.799999	77.534	-152.1350
22.000000	77.554	-152.1510
22.400000	77.588	-152.2224
22.700001	77.609	-152.2908
23.000000	77.628	-152.3552
23.299999	77.648	-152.4140
23.600000	77.672	-152.4738
24.000000	77.710	-152.5694
24.299999	77.743	-152.6592
24.700001	77.789	-152.7972
25.000000	77.824	-152.9035
25.400000	77.872	-153.0357
25.799999	77.922	-153.1537
26.200001	77.974	-153.2643
26.500000	78.013	-153.3445
26.900000	78.062	-153.4415
27.200001	78.096	-153.4994
27.600000	78.139	-153.5525
28.000000	78.181	-153.5849
28.500000	78.235	-153.6169
29.000000	78.289	-153.6541
29.500000	78.340	-153.6975
30.000000	78.388	-153.7474
30.400000	78.425	-153.7938
30.700001	78.452	-153.8316
31.100000	78.487	-153.8812
31.500000	78.522	-153.9262
32.000000	78.569	-153.9820
32.500000	78.620	-154.0572
33.000000	78.676	-154.1682
33.500000	78.733	-154.3074
34.000000	78.787	-154.4469
34.500000	78.839	-154.5598
35.000000	78.892	-154.6426
35.500000	78.950	-154.7149
36.000000	79.010	-154.7978
36.500000	79.069	-154.8938
37.000000	79.126	-154.9909
37.500000	79.180	-155.0800
38.200001	79.253	-155.1984
38.700001	79.305	-155.2910
39.500000	79.386	-155.4642
40.000000	79.435	-155.5850
40.599998	79.492	-155.7400
41.200001	79.550	-155.9077
41.799999	79.608	-156.0869
42.500000	79.676	-156.3023
43.099998	79.737	-156.4879
43.700001	79.800	-156.6793
44.400002	79.873	-156.9084
45.000000	79.936	-157.0972
45.500000	79.989	-157.2451
46.200001	80.068	-157.4553
46.799999	80.136	-157.6615
47.500000	80.213	-157.9343
48.200001	80.286	-158.2124
48.700001	80.338	-158.4066
49.400002	80.412	-158.6874
50.000000	80.473	-158.9466
50.799999	80.551	-159.3088
51.500000	80.618	-159.6326
52.200001	80.684	-159.9683
53.000000	80.757	-160.3575
53.799999	80.827	-160.7338
54.500000	80.890	-161.0692
55.200001	80.954	-161.4368
56.000000	81.022	-161.8823
57.000000	81.105	-162.4259
58.000000	81.188	-162.9905
59.000000	81.262	-163.5842
60.000000	81.329	-164.1690
60.799999	81.381	-164.6592
61.500000	81.424	-165.0949
62.200001	81.467	-165.5347
63.000000	81.512	-166.0666
64.000000	81.558	-166.7197
65.000000	81.612	-167.3117
66.000000	81.676	-167.9745
67.000000	81.730	-168.7021
68.000000	81.778	-169.4392
69.000000	81.816	-170.1939
70.000000	81.846	-170.9246
71.000000	81.873	-171.6295
72.000000	81.899	-172.3415
73.000000	81.922	-173.0646
74.000000	81.939	-173.7802
75.000000	81.953	-174.4740
76.199997	81.966	-175.2868
77.500000	81.976	-176.1552
78.800003	81.977	-177.0175
80.000000	81.969	-177.7955
81.199997	81.958	-178.5562
82.500000	81.943	-179.3954
83.800003	81.922	179.7766
85.000000	81.898	179.0459
86.199997	81.872	178.3531
87.500000	81.842	177.6385
88.500000	81.816	177.1181
90.000000	81.775	176.3532
91.199997	81.737	175.7440
92.500000	81.693	175.1055
93.800003	81.649	174.4853
95.000000	81.609	173.9229
96.199997	81.567	173.3647
97.500000	81.517	172.7990
98.800003	81.465	172.2846
100.000000	81.417	171.8351
101.500000	81.356	171.2908
103.000000	81.294	170.7685
104.400002	81.234	170.3051
106.000000	81.164	169.8295
107.500000	81.102	169.4323
109.000000	81.041	169.0314
110.599998	80.970	168.6293
112.000000	80.909	168.3081
113.800003	80.835	167.9126
115.000000	80.787	167.6581
117.199997	80.700	167.2418
118.000000	80.669	167.1144
120.599998	80.572	166.7446
122.000000	80.520	166.5773
124.099998	80.444	166.3320
125.000000	80.411	166.2350
126.500000	80.358	166.1094
128.000000	80.312	166.0073
131.500000	80.218	165.7658
132.000000	80.206	165.7269
134.000000	80.155	165.5618
136.000000	80.105	165.3671
138.000000	80.057	165.1464
140.000000	80.010	164.9347
143.000000	79.937	164.6681
145.000000	79.885	164.5204
147.500000	79.818	164.3467
150.000000	79.756	164.1896
152.500000	79.703	164.0421
155.000000	79.651	163.9184
157.500000	79.597	163.7853
160.000000	79.542	163.6494
162.500000	79.491	163.5362
165.000000	79.443	163.4478
167.500000	79.397	163.3678
170.000000	79.352	163.2657
172.500000	79.310	163.1541
175.000000	79.268	163.0606
177.500000	79.226	162.9865
180.000000	79.183	162.9099
182.500000	79.138	162.8173
185.000000	79.091	162.7187
187.500000	79.043	162.6205
190.000000	78.997	162.5222
192.500000	78.953	162.4292
195.000000	78.908	162.3580
197.500000	78.861	162.3105
200.000000	78.812	162.2887
203.000000	78.752	162.3279
206.000000	78.694	162.4709
209.000000	78.644	162.7467
212.000000	78.620	163.1430
214.000000	78.627	163.4325
218.000000	78.708	163.8643
220.000000	78.771	163.8727
224.000000	78.880	163.3514
227.000000	78.917	162.6659
230.000000	78.910	161.9495
233.000000	78.874	161.3052
236.000000	78.824	160.7614
240.000000	78.747	160.1852
243.000000	78.686	159.8305
247.000000	78.606	159.4277
250.000000	78.547	159.1726
254.000000	78.470	158.8763
258.000000	78.391	158.6072
262.000000	78.313	158.3720
265.000000	78.254	158.2096
269.000000	78.177	158.0074
272.000000	78.122	157.8712
276.000000	78.051	157.6966
280.000000	77.980	157.5321
285.000000	77.890	157.3568
290.000000	77.801	157.2023
295.000000	77.713	157.0551
300.000000	77.625	156.9136
304.000000	77.556	156.8233
307.000000	77.506	156.7701
311.000000	77.441	156.7182
315.000000	77.376	156.6857
320.000000	77.294	156.6588
325.000000	77.216	156.6468
330.000000	77.139	156.6555
335.000000	77.060	156.6541
340.000000	76.980	156.6447
345.000000	76.900	156.6701
350.000000	76.821	156.7327
355.000000	76.743	156.8135
360.000000	76.666	156.8816
365.000000	76.592	156.9434
370.000000	76.521	157.0282
375.000000	76.449	157.1342
382.000000	76.349	157.2792
387.000000	76.277	157.3979
395.000000	76.161	157.6141
400.000000	76.091	157.7545
406.000000	76.007	157.9260
412.000000	75.930	158.0998
418.000000	75.860	158.2784
425.000000	75.775	158.4885
431.000000	75.702	158.6508
437.000000	75.634	158.8102
444.000000	75.557	159.0152
450.000000	75.490	159.2051
455.000000	75.433	159.3663
462.000000	75.355	159.5969
468.000000	75.292	159.7903
475.000000	75.222	160.0061
482.000000	75.153	160.2308
487.000000	75.102	160.4106
494.000000	75.030	160.6910
500.000000	74.968	160.9401
508.000000	74.890	161.2717
515.000000	74.825	161.5641
522.000000	74.760	161.8598
530.000000	74.686	162.1963
538.000000	74.615	162.5237
545.000000	74.557	162.8206
552.000000	74.501	163.1355
560.000000	74.435	163.5089
570.000000	74.353	163.9912
580.000000	74.276	164.4969
590.000000	74.200	165.0051
600.000000	74.127	165.5161
608.000000	74.069	165.9368
615.000000	74.020	166.3126
622.000000	73.976	166.6907
630.000000	73.928	167.1259
640.000000	73.866	167.6570
650.000000	73.806	168.1806
660.000000	73.749	168.7283
670.000000	73.693	169.2794
680.000000	73.640	169.8251
690.000000	73.592	170.3804
700.000000	73.547	170.9604
710.000000	73.503	171.5569
720.000000	73.463	172.1525
730.000000	73.429	172.7386
740.000000	73.396	173.3259
750.000000	73.363	173.9005
762.000000	73.327	174.5648
775.000000	73.293	175.2919
788.000000	73.268	176.0432
800.000000	73.253	176.7268
812.000000	73.238	177.4136
825.000000	73.224	178.1585
838.000000	73.215	178.8735
850.000000	73.211	179.5135
862.000000	73.212	-179.8394
875.000000	73.216	-179.1437
885.000000	73.222	-178.6277
900.000000	73.236	-177.8810
912.000000	73.250	-177.2992
925.000000	73.269	-176.6926
938.000000	73.289	-176.1284
950.000000	73.313	-175.6325
962.000000	73.340	-175.1538
975.000000	73.370	-174.6668
988.000000	73.402	-174.2110
1000.000000	73.432	-173.8106
1015.000000	73.467	-173.3407
1030.000000	73.500	-172.9090
1044.000000	73.531	-172.5290
1060.000000	73.559	-172.0928
1075.000000	73.581	-171.6553
1090.000000	73.621	-171.1859
1106.000000	73.703	-170.7394
1120.000000	73.794	-170.5376
1138.000000	73.900	-170.6554
1150.000000	73.941	-170.9756
1172.000000	73.873	-171.7427
1180.000000	73.796	-171.7839
1206.000000	73.604	-170.2219
1220.000000	73.632	-169.1348
1241.000000	73.740	-168.0877
1250.000000	73.784	-167.8046
1265.000000	73.847	-167.4411
1280.000000	73.898	-167.1317
1315.000000	73.981	-166.4573
1320.000000	73.991	-166.3586
1340.000000	74.029	-165.9612
1360.000000	74.064	-165.5526
1380.000000	74.097	-165.1066
1400.000000	74.131	-164.6353
1430.000000	74.188	-163.9479
1450.000000	74.227	-163.4849
1475.000000	74.281	-162.8737
1500.000000	74.335	-162.2073
1525.000000	74.395	-161.5528
1550.000000	74.463	-160.9102
1575.000000	74.535	-160.2346
1600.000000	74.609	-159.5189
1625.000000	74.689	-158.8184
1650.000000	74.773	-158.1700
1675.000000	74.862	-157.5445
1700.000000	74.958	-156.9191
1725.000000	75.059	-156.2783
1750.000000	75.166	-155.6314
1775.000000	75.274	-154.9999
1800.000000	75.384	-154.4205
1825.000000	75.502	-153.8827
1850.000000	75.625	-153.3432
1875.000000	75.751	-152.8227
1900.000000	75.884	-152.3475
1925.000000	76.024	-151.8942
1950.000000	76.168	-151.4802
1975.000000	76.314	-151.1071
2000.000000	76.460	-150.7546
2030.000000	76.644	-150.3745
2060.000000	76.839	-150.0375
2090.000000	77.041	-149.7654
2120.000000	77.252	-149.5982
2140.000000	77.394	-149.5552
2180.000000	77.678	-149.6142
2200.000000	77.819	-149.6997
2240.000000	78.092	-149.9620
2270.000000	78.297	-150.2404
2300.000000	78.500	-150.5975
2330.000000	78.700	-151.0343
2360.000000	78.893	-151.5537
2400.000000	79.147	-152.3886
2430.000000	79.333	-153.1109
2470.000000	79.573	-154.2193
2500.000000	79.743	-155.1494
2540.000000	79.949	-156.4995
2580.000000	80.133	-157.9856
2620.000000	80.298	-159.5865
2650.000000	80.408	-160.8462
2690.000000	80.528	-162.5773
2720.000000	80.600	-163.9109
2760.000000	80.669	-165.7349
2800.000000	80.707	-167.5789
2850.000000	80.716	-169.8475
2900.000000	80.674	-172.0435
2950.000000	80.591	-174.1252
3000.000000	80.467	-176.0433
3040.000000	80.344	-177.4281
3070.000000	80.241	-178.3507
3110.000000	80.092	-179.4031
3150.000000	79.937	179.7441
3200.000000	79.747	178.9283
3250.000000	79.568	178.3084
3300.000000	79.408	177.7668
3350.000000	79.261	177.2859
3400.000000	79.113	176.8463
3450.000000	78.967	176.4501
3500.000000	78.821	176.1347
3550.000000	78.673	175.8997
3600.000000	78.525	175.7563
3650.000000	78.383	175.7334
3700.000000	78.241	175.8160
3750.000000	78.098	175.9786
3820.000000	77.899	176.3277
3870.000000	77.757	176.6911
3950.000000	77.541	177.5799
4000.000000	77.426	178.2752
4060.000000	77.313	179.1256
4120.000000	77.218	179.9720
4180.000000	77.137	-179.1636
4250.000000	77.051	-178.1225
4310.000000	76.984	-177.1856
4370.000000	76.918	-176.2008
4440.000000	76.851	-175.0121
4500.000000	76.807	-173.9777
4550.000000	76.780	-173.1124
4620.000000	76.749	-171.8975
4680.000000	76.729	-170.8408
4750.000000	76.709	-169.5363
4820.000000	76.697	-168.0686
4870.000000	76.701	-166.8624
4940.000000	76.746	-164.9784
5000.000000	76.836	-163.3068
5080.000000	77.033	-161.1886
5150.000000	77.262	-159.5675
5220.000000	77.526	-158.2057
5300.000000	77.856	-156.9395
5380.000000	78.211	-155.9329
5450.000000	78.544	-155.2545
5520.000000	78.900	-154.7935
5600.000000	79.334	-154.5682
5700.000000	79.912	-154.7979
5800.000000	80.523	-155.6984
5900.000000	81.147	-157.3933
6000.000000	81.753	-159.9784
6080.000000	82.205	-162.7264
6150.000000	82.560	-165.6078
6220.000000	82.860	-168.8976
6300.000000	83.117	-173.0589
6400.000000	83.299	-178.6036
6500.000000	83.324	175.7567
6600.000000	83.206	170.2600
6700.000000	82.960	165.0741
6800.000000	82.607	160.3263
6900.000000	82.176	156.1682
7000.000000	81.694	152.7231
7100.000000	81.182	150.0233
7200.000000	80.662	147.9910
7300.000000	80.152	146.5141
7400.000000	79.659	145.5435
7500.000000	79.197	145.0359
7620.000000	78.713	144.9143
7750.000000	78.290	145.1418
7880.000000	77.897	145.5345
8000.000000	77.566	145.9474
8120.000000	77.286	146.3055
8250.000000	77.030	146.5754
8380.000000	76.821	146.7441
8500.000000	76.677	146.7359
8620.000000	76.582	146.4452
8750.000000	76.523	145.5834
8850.000000	76.490	144.3564
9000.000000	76.412	141.4008
9120.000000	76.266	138.0272
9250.000000	75.939	133.5790
9380.000000	75.375	128.9179
9500.000000	74.642	125.1459
9620.000000	73.750	122.3982
9750.000000	72.690	120.7858
9880.000000	71.612	120.4894
10000.000000	70.649	121.1606
10150.000000	69.523	122.9661
10300.000000	68.498	125.5263
10440.000000	67.629	128.3470
10600.000000	66.727	131.9331
10750.000000	65.959	135.5384
10900.000000	65.254	139.3456
11060.000000	64.560	143.5929
11200.000000	64.000	147.4562
11380.000000	63.354	152.6242
11500.000000	62.968	156.1725
11720.000000	62.344	162.8986
11800.000000	62.147	165.4014
12060.000000	61.619	173.6442
12200.000000	61.401	178.1422
12410.000000	61.148	-175.1203
12500.000000	61.070	-172.2328
12650.000000	60.989	-167.4510
12800.000000	60.976	-162.7168
13150.000000	61.276	-152.0444
13200.000000	61.359	-150.5864
13400.000000	61.802	-145.0101
13600.000000	62.451	-140.1097
13800.000000	63.340	-136.3199
14000.000000	64.500	-134.1527
14300.000000	66.700	-136.0538
14500.000000	68.180	-143.3417
14750.000000	69.185	-161.1817
15000.000000	68.512	177.6021
15250.000000	66.360	163.4244
15500.000000	63.689	158.4498
15750.000000	61.277	159.2986
16000.000000	59.334	163.1393
16250.000000	57.794	168.5265
16500.000000	56.571	174.6210
16750.000000	55.600	-178.9803
17000.000000	54.838	-172.6016
17250.000000	54.275	-166.4124
17500.000000	53.897	-160.5548
17750.000000	53.653	-155.4753
18000.000000	53.462	-151.3482
18250.000000	53.301	-148.3360
18500.000000	53.100	-146.8687
18750.000000	52.746	-147.3069
19000.000000	52.122	-150.2653
19250.000000	51.100	-165.6336
19500.000000	49.590	66.1176
19750.000000	47.434	-71.4600
20000.000000	43.992	89.7910
