* Measurement data measured by REW V5.20.9
* Source: Mic in at rear panel (Pink)(Realtek(R) Audio), MICROPHONE (마스), L, volume: 0.500
* Format: 256k Log Swept Sine, 1 sweep at -12.0 dBFS with no timing reference
* Dated: 2022. 9. 24 오후 8:03:07
* REW Settings:
*  C-weighting compensation: Off
*  Target level: 75.0 dB
* Note: 
* Measurement: Default_R
* Smoothing: 1/24 octave
* Frequency Step: 1/48 octave
* Start Frequency: 20.300 Hz
*
* Freq(Hz)	SPL(dB)	Phase(degrees)
20.299999	68.855	156.5998
20.600000	68.829	156.4758
20.900000	68.774	156.2624
21.200001	68.718	156.0783
21.400000	68.681	155.9621
21.799999	68.608	155.7070
22.000000	68.571	155.5541
22.400000	68.495	155.1906
22.700001	68.434	154.8801
23.000000	68.370	154.5562
23.299999	68.304	154.2376
23.600000	68.239	153.9354
24.000000	68.158	153.5641
24.299999	68.105	153.3022
24.700001	68.045	152.9555
25.000000	68.005	152.6829
25.400000	67.956	152.2941
25.799999	67.906	151.8885
26.200001	67.852	151.4984
26.500000	67.808	151.2377
26.900000	67.748	150.9471
27.200001	67.702	150.7653
27.600000	67.645	150.5430
28.000000	67.590	150.3058
28.500000	67.516	149.9749
29.000000	67.431	149.6590
29.500000	67.340	149.4080
30.000000	67.252	149.1982
30.400000	67.185	149.0209
30.700001	67.134	148.8783
31.100000	67.064	148.6980
31.500000	66.995	148.5511
32.000000	66.918	148.3965
32.500000	66.853	148.1918
33.000000	66.786	147.9061
33.500000	66.704	147.6495
34.000000	66.619	147.5644
34.500000	66.559	147.6138
35.000000	66.532	147.5851
35.500000	66.511	147.3067
36.000000	66.459	146.8592
36.500000	66.369	146.4807
37.000000	66.266	146.3322
37.500000	66.181	146.3630
38.200001	66.111	146.3937
38.700001	66.083	146.2408
39.500000	66.023	145.6178
40.000000	65.951	145.1194
40.599998	65.822	144.6880
41.200001	65.685	144.6209
41.799999	65.577	144.7772
42.500000	65.479	144.9330
43.099998	65.383	145.0738
43.700001	65.282	145.3935
44.400002	65.189	145.9286
45.000000	65.136	146.3008
45.500000	65.092	146.4708
46.200001	65.010	146.5730
46.799999	64.919	146.6825
47.500000	64.821	146.9668
48.200001	64.778	147.2649
48.700001	64.781	147.2777
49.400002	64.787	146.9237
50.000000	64.771	146.4942
50.799999	64.758	145.9194
51.500000	64.753	145.1084
52.200001	64.675	144.0426
53.000000	64.473	143.3453
53.799999	64.275	143.5156
54.500000	64.156	143.8739
55.200001	64.059	144.2430
56.000000	63.986	144.7117
57.000000	63.952	144.9464
58.000000	63.908	144.8608
59.000000	63.876	144.6754
60.000000	63.814	144.3039
60.799999	63.730	144.2499
61.500000	63.664	144.4234
62.200001	63.604	144.6487
63.000000	63.521	145.0296
64.000000	63.447	145.7564
65.000000	63.422	146.0593
66.000000	63.343	145.9743
67.000000	63.253	145.9100
68.000000	63.156	145.6470
69.000000	63.050	145.6671
70.000000	63.016	145.7218
71.000000	62.976	145.4495
72.000000	62.892	145.2853
73.000000	62.787	145.2869
74.000000	62.665	145.4661
75.000000	62.560	145.7556
76.199997	62.472	145.8793
77.500000	62.371	145.6361
78.800003	62.255	145.5863
80.000000	62.183	145.7832
81.199997	62.138	146.1116
82.500000	62.104	146.4285
83.800003	62.040	146.6205
85.000000	61.957	146.7795
86.199997	61.875	146.9023
87.500000	61.802	146.9506
88.500000	61.752	146.9519
90.000000	61.686	147.1550
91.199997	61.659	147.4162
92.500000	61.624	147.6276
93.800003	61.568	147.8300
95.000000	61.506	147.9695
96.199997	61.429	148.0530
97.500000	61.345	148.2292
98.800003	61.289	148.4180
100.000000	61.240	148.5055
101.500000	61.162	148.7399
103.000000	61.088	149.1328
104.400002	61.033	149.4611
106.000000	60.964	149.6152
107.500000	60.883	149.7260
109.000000	60.818	149.9015
110.599998	60.766	150.0588
112.000000	60.718	150.2164
113.800003	60.651	150.4944
115.000000	60.606	150.6644
117.199997	60.511	150.7112
118.000000	60.464	150.6727
120.599998	60.310	151.1330
122.000000	60.293	151.5373
124.099998	60.269	151.9628
125.000000	60.253	152.1457
126.500000	60.222	152.3802
128.000000	60.178	152.5335
131.500000	60.074	152.8827
132.000000	60.062	152.9495
134.000000	60.020	153.2098
136.000000	59.970	153.4135
138.000000	59.908	153.6712
140.000000	59.855	154.0773
143.000000	59.793	154.6334
145.000000	59.735	154.8558
147.500000	59.667	155.0863
150.000000	59.621	155.3740
152.500000	59.570	155.7560
155.000000	59.507	156.1680
157.500000	59.451	156.5200
160.000000	59.403	156.8784
162.500000	59.357	157.2842
165.000000	59.313	157.5963
167.500000	59.270	157.8381
170.000000	59.233	158.1618
172.500000	59.193	158.5213
175.000000	59.140	158.8212
177.500000	59.087	159.0228
180.000000	59.034	159.2602
182.500000	58.985	159.6750
185.000000	58.932	160.1728
187.500000	58.884	160.6448
190.000000	58.859	160.9107
192.500000	58.840	161.0339
195.000000	58.816	161.2122
197.500000	58.780	161.4630
200.000000	58.736	161.7589
203.000000	58.696	162.1540
206.000000	58.672	162.5393
209.000000	58.641	162.8559
212.000000	58.597	163.1837
214.000000	58.576	163.4072
218.000000	58.544	163.7513
220.000000	58.519	163.9556
224.000000	58.465	164.4256
227.000000	58.432	164.7556
230.000000	58.399	165.1073
233.000000	58.359	165.4950
236.000000	58.327	165.8254
240.000000	58.304	166.1587
243.000000	58.283	166.4536
247.000000	58.243	166.9093
250.000000	58.216	167.2404
254.000000	58.195	167.5916
258.000000	58.164	167.8630
262.000000	58.119	168.2674
265.000000	58.087	168.6614
269.000000	58.044	169.1708
272.000000	58.024	169.4376
276.000000	58.010	169.7157
280.000000	57.996	170.0558
285.000000	57.974	170.5545
290.000000	57.949	171.0481
295.000000	57.907	171.4901
300.000000	57.863	171.9140
304.000000	57.834	172.1985
307.000000	57.814	172.4293
311.000000	57.792	172.7858
315.000000	57.775	173.1658
320.000000	57.758	173.6511
325.000000	57.743	174.1420
330.000000	57.727	174.6070
335.000000	57.705	175.0032
340.000000	57.681	175.4176
345.000000	57.659	175.8155
350.000000	57.629	176.2330
355.000000	57.597	176.6888
360.000000	57.571	177.2155
365.000000	57.556	177.7023
370.000000	57.545	178.1882
375.000000	57.536	178.6492
382.000000	57.536	179.2440
387.000000	57.524	179.6401
395.000000	57.494	-179.8367
400.000000	57.483	-179.5468
406.000000	57.470	-179.1975
412.000000	57.440	-178.7468
418.000000	57.406	-178.2999
425.000000	57.381	-177.8774
431.000000	57.360	-177.4755
437.000000	57.341	-177.0590
444.000000	57.328	-176.5672
450.000000	57.326	-176.1005
455.000000	57.314	-175.7365
462.000000	57.288	-175.2557
468.000000	57.277	-174.8228
475.000000	57.275	-174.3140
482.000000	57.258	-173.7349
487.000000	57.235	-173.2849
494.000000	57.199	-172.7313
500.000000	57.180	-172.3108
508.000000	57.187	-171.7855
515.000000	57.184	-171.3701
522.000000	57.165	-170.8658
530.000000	57.155	-170.2123
538.000000	57.151	-169.6121
545.000000	57.133	-169.1147
552.000000	57.120	-168.5890
560.000000	57.124	-167.9493
570.000000	57.115	-167.2019
580.000000	57.102	-166.5770
590.000000	57.087	-165.8837
600.000000	57.075	-165.1313
608.000000	57.076	-164.5214
615.000000	57.080	-164.0020
622.000000	57.072	-163.4799
630.000000	57.052	-162.8619
640.000000	57.041	-162.0752
650.000000	57.049	-161.3035
660.000000	57.059	-160.5060
670.000000	57.066	-159.6779
680.000000	57.077	-158.9169
690.000000	57.086	-158.1924
700.000000	57.089	-157.4127
710.000000	57.091	-156.5942
720.000000	57.097	-155.7709
730.000000	57.112	-155.0033
740.000000	57.133	-154.2689
750.000000	57.159	-153.4941
762.000000	57.180	-152.5430
775.000000	57.194	-151.5601
788.000000	57.227	-150.5715
800.000000	57.272	-149.6462
812.000000	57.323	-148.7476
825.000000	57.373	-147.8370
838.000000	57.423	-146.8749
850.000000	57.473	-145.8992
862.000000	57.533	-144.9379
875.000000	57.606	-144.0351
885.000000	57.663	-143.3602
900.000000	57.749	-142.2933
912.000000	57.827	-141.4648
925.000000	57.914	-140.6092
938.000000	58.006	-139.8431
950.000000	58.094	-139.1154
962.000000	58.179	-138.4029
975.000000	58.274	-137.6799
988.000000	58.377	-136.8875
1000.000000	58.474	-136.2135
1015.000000	58.595	-135.6107
1030.000000	58.710	-134.9828
1044.000000	58.810	-134.3112
1060.000000	58.944	-133.4749
1075.000000	59.094	-132.8045
1090.000000	59.261	-132.2824
1106.000000	59.443	-131.8946
1120.000000	59.590	-131.7039
1138.000000	59.760	-131.5305
1150.000000	59.863	-131.3795
1172.000000	60.043	-131.0475
1180.000000	60.107	-130.9453
1206.000000	60.302	-130.6622
1220.000000	60.407	-130.5053
1241.000000	60.565	-130.3266
1250.000000	60.632	-130.2521
1265.000000	60.742	-130.1174
1280.000000	60.850	-130.0247
1315.000000	61.077	-129.7905
1320.000000	61.107	-129.7511
1340.000000	61.222	-129.6062
1360.000000	61.333	-129.4952
1380.000000	61.448	-129.3690
1400.000000	61.559	-129.2527
1430.000000	61.719	-129.0596
1450.000000	61.832	-128.9079
1475.000000	61.970	-128.6761
1500.000000	62.105	-128.4237
1525.000000	62.242	-128.2151
1550.000000	62.377	-128.0077
1575.000000	62.511	-127.7775
1600.000000	62.651	-127.5400
1625.000000	62.796	-127.3182
1650.000000	62.944	-127.0942
1675.000000	63.093	-126.8732
1700.000000	63.240	-126.6766
1725.000000	63.386	-126.4574
1750.000000	63.537	-126.2498
1775.000000	63.688	-126.0678
1800.000000	63.842	-125.9102
1825.000000	64.004	-125.7841
1850.000000	64.169	-125.6921
1875.000000	64.334	-125.6403
1900.000000	64.504	-125.5908
1925.000000	64.681	-125.5519
1950.000000	64.861	-125.5597
1975.000000	65.041	-125.6235
2000.000000	65.226	-125.7240
2030.000000	65.450	-125.8762
2060.000000	65.679	-126.0687
2090.000000	65.914	-126.3378
2120.000000	66.148	-126.7223
2140.000000	66.306	-127.0304
2180.000000	66.626	-127.7321
2200.000000	66.784	-128.1445
2240.000000	67.102	-129.1311
2270.000000	67.340	-129.9650
2300.000000	67.577	-130.8726
2330.000000	67.808	-131.9040
2360.000000	68.033	-133.0605
2400.000000	68.321	-134.7765
2430.000000	68.530	-136.2075
2470.000000	68.792	-138.3053
2500.000000	68.973	-140.0156
2540.000000	69.185	-142.4496
2580.000000	69.363	-145.0365
2620.000000	69.503	-147.7404
2650.000000	69.583	-149.8287
2690.000000	69.651	-152.6614
2720.000000	69.671	-154.8009
2760.000000	69.659	-157.6373
2800.000000	69.606	-160.4144
2850.000000	69.486	-163.7418
2900.000000	69.311	-166.8846
2950.000000	69.092	-169.7725
3000.000000	68.842	-172.3652
3040.000000	68.622	-174.2336
3070.000000	68.449	-175.5163
3110.000000	68.211	-177.0815
3150.000000	67.967	-178.4820
3200.000000	67.658	179.9998
3250.000000	67.345	178.7120
3300.000000	67.032	177.6308
3350.000000	66.724	176.7411
3400.000000	66.423	176.0172
3450.000000	66.136	175.4296
3500.000000	65.863	174.9719
3550.000000	65.596	174.6321
3600.000000	65.340	174.4194
3650.000000	65.095	174.3129
3700.000000	64.859	174.2644
3750.000000	64.632	174.2940
3820.000000	64.322	174.4634
3870.000000	64.107	174.6338
3950.000000	63.774	174.9952
4000.000000	63.569	175.2962
4060.000000	63.337	175.7229
4120.000000	63.117	176.2086
4180.000000	62.903	176.7281
4250.000000	62.666	177.3759
4310.000000	62.469	177.9768
4370.000000	62.271	178.6228
4440.000000	62.044	179.4335
4500.000000	61.853	-179.8473
4550.000000	61.697	-179.2049
4620.000000	61.482	-178.2259
4680.000000	61.310	-177.3665
4750.000000	61.127	-176.3293
4820.000000	60.955	-175.2487
4870.000000	60.834	-174.4531
4940.000000	60.674	-173.2824
5000.000000	60.551	-172.2362
5080.000000	60.403	-170.8534
5150.000000	60.287	-169.6324
5220.000000	60.185	-168.3600
5300.000000	60.080	-166.9069
5380.000000	59.992	-165.4860
5450.000000	59.930	-164.2185
5520.000000	59.884	-162.9015
5600.000000	59.851	-161.3810
5700.000000	59.830	-159.4860
5800.000000	59.847	-157.6074
5900.000000	59.902	-155.7151
6000.000000	59.999	-153.8824
6080.000000	60.098	-152.4875
6150.000000	60.207	-151.2573
6220.000000	60.341	-150.0559
6300.000000	60.525	-148.7715
6400.000000	60.799	-147.3229
6500.000000	61.117	-146.2204
6600.000000	61.482	-145.3942
6700.000000	61.895	-145.0944
6800.000000	62.334	-145.3509
6900.000000	62.768	-145.9144
7000.000000	63.175	-147.2476
7100.000000	63.550	-149.2330
7200.000000	63.923	-151.1229
7300.000000	64.265	-153.2737
7400.000000	64.566	-156.0348
7500.000000	64.844	-158.9640
7620.000000	65.117	-162.6444
7750.000000	65.247	-167.4125
7880.000000	65.168	-172.8052
8000.000000	64.888	-177.0948
8120.000000	64.418	179.4572
8250.000000	63.799	176.6836
8380.000000	63.169	174.8488
8500.000000	62.614	173.7547
8620.000000	62.090	173.4911
8750.000000	61.596	173.7492
8850.000000	61.282	174.1813
9000.000000	60.814	175.6639
9120.000000	60.485	177.0106
9250.000000	60.227	178.4091
9380.000000	60.122	179.9499
9500.000000	60.101	-178.5884
9620.000000	60.096	-176.8239
9750.000000	60.112	-174.8919
9880.000000	60.179	-173.4721
10000.000000	60.344	-172.6505
10150.000000	60.665	-171.7893
10300.000000	61.090	-171.3578
10440.000000	61.557	-171.5555
10600.000000	62.217	-172.8522
10750.000000	62.909	-175.4197
10900.000000	63.584	-179.5046
11060.000000	64.240	174.0515
11200.000000	64.633	166.6662
11380.000000	64.711	155.3155
11500.000000	64.455	147.3495
11720.000000	63.353	134.1781
11800.000000	62.796	130.2983
12060.000000	60.732	121.3326
12200.000000	59.562	118.4440
12410.000000	57.808	116.9556
12500.000000	57.092	117.0211
12650.000000	55.997	117.5547
12800.000000	54.952	118.4969
13150.000000	52.779	121.7863
13200.000000	52.559	122.4275
13400.000000	51.589	125.2933
13600.000000	50.578	127.9481
13800.000000	49.676	130.5719
14000.000000	49.225	133.5932
14300.000000	48.630	137.8500
14500.000000	48.024	142.3767
14750.000000	47.317	147.6297
15000.000000	46.932	151.2858
15250.000000	46.795	155.8331
15500.000000	46.703	161.4143
15750.000000	46.746	166.2566
16000.000000	46.892	169.8311
16250.000000	47.234	172.7633
16500.000000	47.554	175.8658
16750.000000	47.908	179.0167
17000.000000	48.679	-178.7763
17250.000000	49.629	-177.4836
17500.000000	50.732	-177.2391
17750.000000	51.968	-178.2647
18000.000000	53.162	178.0730
18250.000000	54.036	169.9564
18500.000000	54.623	158.4169
18750.000000	54.837	145.9124
19000.000000	54.226	134.1805
19250.000000	53.022	124.3972
19500.000000	51.521	120.3325
19750.000000	50.198	123.0293
20000.000000	49.361	126.6518
