* Measurement data measured by REW V5.20.9
* Source: Mic in at rear panel (Pink)(Realtek(R) Audio), MICROPHONE (마스), L, volume: 0.500
* Format: 256k Log Swept Sine, 1 sweep at -12.0 dBFS with no timing reference
* Dated: 2022. 9. 24 오후 10:03:08
* REW Settings:
*  C-weighting compensation: Off
*  Target level: 75.0 dB
* Note: 
* Measurement: 9월 24
* Smoothing: 1/24 octave
* Frequency Step: 1/48 octave
* Start Frequency: 20.300 Hz
*
* Freq(Hz)	SPL(dB)	Phase(degrees)
20.299999	78.098	-158.3181
20.600000	78.113	-158.4455
20.900000	78.143	-158.6673
21.200001	78.167	-158.8657
21.400000	78.180	-158.9916
21.799999	78.204	-159.2563
22.000000	78.215	-159.4047
22.400000	78.234	-159.7355
22.700001	78.247	-160.0080
23.000000	78.259	-160.2949
23.299999	78.270	-160.5898
23.600000	78.283	-160.8884
24.000000	78.302	-161.2873
24.299999	78.320	-161.5859
24.700001	78.349	-161.9847
25.000000	78.372	-162.2854
25.400000	78.404	-162.6872
25.799999	78.436	-163.0824
26.200001	78.466	-163.4602
26.500000	78.488	-163.7263
26.900000	78.515	-164.0539
27.200001	78.533	-164.2808
27.600000	78.556	-164.5662
28.000000	78.578	-164.8428
28.500000	78.602	-165.1823
29.000000	78.622	-165.5080
29.500000	78.640	-165.8165
30.000000	78.656	-166.1183
30.400000	78.669	-166.3637
30.700001	78.679	-166.5520
31.100000	78.692	-166.8099
31.500000	78.706	-167.0788
32.000000	78.722	-167.4356
32.500000	78.737	-167.8083
33.000000	78.751	-168.1708
33.500000	78.768	-168.5044
34.000000	78.790	-168.8177
34.500000	78.815	-169.1339
35.000000	78.840	-169.4594
35.500000	78.862	-169.7786
36.000000	78.883	-170.0751
36.500000	78.903	-170.3505
37.000000	78.925	-170.6223
37.500000	78.947	-170.9036
38.200001	78.971	-171.3099
38.700001	78.984	-171.5995
39.500000	79.002	-172.0595
40.000000	79.011	-172.3453
40.599998	79.023	-172.6834
41.200001	79.037	-173.0225
41.799999	79.052	-173.3762
42.500000	79.069	-173.8023
43.099998	79.083	-174.1544
43.700001	79.099	-174.4883
44.400002	79.120	-174.8715
45.000000	79.137	-175.1996
45.500000	79.150	-175.4647
46.200001	79.168	-175.8168
46.799999	79.186	-176.1139
47.500000	79.207	-176.4799
48.200001	79.228	-176.8691
48.700001	79.241	-177.1532
49.400002	79.258	-177.5513
50.000000	79.270	-177.8945
50.799999	79.284	-178.3571
51.500000	79.294	-178.7535
52.200001	79.303	-179.1297
53.000000	79.315	-179.5372
53.799999	79.329	-179.9374
54.500000	79.343	179.6953
55.200001	79.355	179.2974
56.000000	79.364	178.8305
57.000000	79.373	178.2809
58.000000	79.383	177.7309
59.000000	79.387	177.1872
60.000000	79.392	176.6797
60.799999	79.400	176.2358
61.500000	79.403	175.8210
62.200001	79.401	175.4127
63.000000	79.394	174.9665
64.000000	79.382	174.4598
65.000000	79.382	173.9679
66.000000	79.381	173.3919
67.000000	79.365	172.8169
68.000000	79.343	172.3201
69.000000	79.328	171.8806
70.000000	79.325	171.4306
71.000000	79.324	170.8914
72.000000	79.312	170.2989
73.000000	79.288	169.7332
74.000000	79.259	169.2405
75.000000	79.235	168.7967
76.199997	79.211	168.2337
77.500000	79.181	167.6024
78.800003	79.149	166.9671
80.000000	79.113	166.3753
81.199997	79.073	165.8065
82.500000	79.028	165.1971
83.800003	78.980	164.6163
85.000000	78.935	164.0940
86.199997	78.890	163.5796
87.500000	78.839	163.0477
88.500000	78.799	162.6812
90.000000	78.745	162.1581
91.199997	78.700	161.7204
92.500000	78.645	161.2390
93.800003	78.582	160.7919
95.000000	78.527	160.4424
96.199997	78.481	160.0758
97.500000	78.429	159.6415
98.800003	78.373	159.2325
100.000000	78.320	158.8874
101.500000	78.251	158.4945
103.000000	78.183	158.1489
104.400002	78.124	157.8407
106.000000	78.059	157.4231
107.500000	77.985	157.0309
109.000000	77.908	156.7310
110.599998	77.835	156.4507
112.000000	77.776	156.1939
113.800003	77.701	155.8308
115.000000	77.650	155.6225
117.199997	77.568	155.3389
118.000000	77.543	155.2299
120.599998	77.441	154.8516
122.000000	77.379	154.7223
124.099998	77.306	154.5251
125.000000	77.279	154.3855
126.500000	77.232	154.1129
128.000000	77.181	153.8611
131.500000	77.066	153.3260
132.000000	77.049	153.2458
134.000000	76.973	152.9511
136.000000	76.898	152.6982
138.000000	76.826	152.4576
140.000000	76.752	152.2314
143.000000	76.638	151.9101
145.000000	76.559	151.7026
147.500000	76.466	151.4819
150.000000	76.378	151.2712
152.500000	76.289	151.0789
155.000000	76.200	150.9070
157.500000	76.113	150.7317
160.000000	76.027	150.5623
162.500000	75.943	150.4211
165.000000	75.858	150.2827
167.500000	75.772	150.1615
170.000000	75.689	150.0270
172.500000	75.606	149.9026
175.000000	75.526	149.8098
177.500000	75.443	149.7217
180.000000	75.355	149.6431
182.500000	75.263	149.5807
185.000000	75.171	149.5289
187.500000	75.077	149.4808
190.000000	74.982	149.4589
192.500000	74.887	149.4868
195.000000	74.790	149.5901
197.500000	74.695	149.7672
200.000000	74.600	150.0202
203.000000	74.498	150.4924
206.000000	74.430	151.1788
209.000000	74.423	151.9727
212.000000	74.485	152.5921
214.000000	74.552	152.7418
218.000000	74.675	152.2440
220.000000	74.702	151.7180
224.000000	74.669	150.5766
227.000000	74.592	149.8691
230.000000	74.499	149.3445
233.000000	74.401	148.9583
236.000000	74.300	148.6555
240.000000	74.164	148.3500
243.000000	74.062	148.1824
247.000000	73.928	148.0089
250.000000	73.831	147.9130
254.000000	73.705	147.8248
258.000000	73.579	147.7845
262.000000	73.455	147.7953
265.000000	73.362	147.8080
269.000000	73.242	147.8037
272.000000	73.155	147.8101
276.000000	73.041	147.8513
280.000000	72.931	147.9099
285.000000	72.794	147.9984
290.000000	72.655	148.1144
295.000000	72.522	148.2901
300.000000	72.392	148.4893
304.000000	72.287	148.6450
307.000000	72.208	148.7617
311.000000	72.105	148.9391
315.000000	72.005	149.1449
320.000000	71.882	149.4250
325.000000	71.766	149.7355
330.000000	71.651	150.0342
335.000000	71.534	150.3156
340.000000	71.417	150.6267
345.000000	71.300	150.9753
350.000000	71.182	151.3529
355.000000	71.070	151.7561
360.000000	70.961	152.1823
365.000000	70.853	152.5941
370.000000	70.745	153.0142
375.000000	70.638	153.4672
382.000000	70.493	154.1325
387.000000	70.392	154.6307
395.000000	70.233	155.4514
400.000000	70.139	155.9735
406.000000	70.034	156.6089
412.000000	69.935	157.2081
418.000000	69.842	157.8212
425.000000	69.735	158.5582
431.000000	69.649	159.1656
437.000000	69.563	159.7652
444.000000	69.465	160.4976
450.000000	69.386	161.1593
455.000000	69.320	161.7161
462.000000	69.230	162.4724
468.000000	69.158	163.1118
475.000000	69.077	163.8745
482.000000	69.003	164.6498
487.000000	68.951	165.2045
494.000000	68.880	165.9767
500.000000	68.822	166.6543
508.000000	68.748	167.5613
515.000000	68.685	168.3339
522.000000	68.627	169.1371
530.000000	68.566	170.0462
538.000000	68.510	170.9177
545.000000	68.463	171.6614
552.000000	68.419	172.4026
560.000000	68.372	173.2903
570.000000	68.318	174.4211
580.000000	68.272	175.5060
590.000000	68.229	176.5866
600.000000	68.192	177.6760
608.000000	68.160	178.5159
615.000000	68.135	179.2451
622.000000	68.116	179.9839
630.000000	68.099	-179.1801
640.000000	68.077	-178.1794
650.000000	68.056	-177.2056
660.000000	68.034	-176.2264
670.000000	68.019	-175.2575
680.000000	68.005	-174.2865
690.000000	67.991	-173.3230
700.000000	67.983	-172.3615
710.000000	67.978	-171.4080
720.000000	67.977	-170.4715
730.000000	67.982	-169.5450
740.000000	67.989	-168.6314
750.000000	67.994	-167.7521
762.000000	68.003	-166.7104
775.000000	68.021	-165.5623
788.000000	68.045	-164.4416
800.000000	68.071	-163.4407
812.000000	68.100	-162.4392
825.000000	68.131	-161.3537
838.000000	68.165	-160.3100
850.000000	68.201	-159.3671
862.000000	68.244	-158.4503
875.000000	68.291	-157.4771
885.000000	68.329	-156.7523
900.000000	68.396	-155.6850
912.000000	68.453	-154.8649
925.000000	68.513	-154.0246
938.000000	68.575	-153.2183
950.000000	68.638	-152.4953
962.000000	68.703	-151.7901
975.000000	68.775	-151.0602
988.000000	68.851	-150.3836
1000.000000	68.922	-149.8195
1015.000000	68.994	-149.2074
1030.000000	69.052	-148.6670
1044.000000	69.089	-148.1003
1060.000000	69.132	-147.2165
1075.000000	69.208	-146.2868
1090.000000	69.321	-145.5237
1106.000000	69.454	-144.9302
1120.000000	69.562	-144.5304
1138.000000	69.685	-144.0838
1150.000000	69.758	-143.8099
1172.000000	69.877	-143.3186
1180.000000	69.918	-143.1395
1206.000000	70.044	-142.5501
1220.000000	70.110	-142.2301
1241.000000	70.206	-141.7638
1250.000000	70.245	-141.5653
1265.000000	70.308	-141.2396
1280.000000	70.371	-140.9049
1315.000000	70.506	-140.0949
1320.000000	70.524	-139.9799
1340.000000	70.596	-139.5132
1360.000000	70.667	-139.0559
1380.000000	70.739	-138.5845
1400.000000	70.812	-138.0969
1430.000000	70.928	-137.3723
1450.000000	71.006	-136.8824
1475.000000	71.107	-136.2653
1500.000000	71.207	-135.5933
1525.000000	71.310	-134.9334
1550.000000	71.424	-134.3157
1575.000000	71.538	-133.6946
1600.000000	71.652	-133.0269
1625.000000	71.772	-132.3693
1650.000000	71.895	-131.7603
1675.000000	72.025	-131.1876
1700.000000	72.158	-130.6230
1725.000000	72.296	-130.0473
1750.000000	72.437	-129.4630
1775.000000	72.580	-128.8987
1800.000000	72.725	-128.4068
1825.000000	72.878	-127.9577
1850.000000	73.036	-127.5082
1875.000000	73.196	-127.0758
1900.000000	73.362	-126.6813
1925.000000	73.535	-126.3270
1950.000000	73.715	-126.0285
1975.000000	73.895	-125.7823
2000.000000	74.073	-125.5773
2030.000000	74.293	-125.4129
2060.000000	74.520	-125.3021
2090.000000	74.749	-125.2494
2120.000000	74.986	-125.2780
2140.000000	75.148	-125.3477
2180.000000	75.476	-125.6239
2200.000000	75.643	-125.8389
2240.000000	75.975	-126.4305
2270.000000	76.222	-127.0241
2300.000000	76.466	-127.7532
2330.000000	76.701	-128.6096
2360.000000	76.924	-129.5897
2400.000000	77.208	-131.0818
2430.000000	77.410	-132.3249
2470.000000	77.659	-134.1607
2500.000000	77.828	-135.6648
2540.000000	78.017	-137.8127
2580.000000	78.165	-140.1144
2620.000000	78.273	-142.5121
2650.000000	78.329	-144.3308
2690.000000	78.361	-146.7383
2720.000000	78.357	-148.5119
2760.000000	78.317	-150.8091
2800.000000	78.243	-153.0020
2850.000000	78.113	-155.5837
2900.000000	77.932	-157.9880
2950.000000	77.704	-160.1530
3000.000000	77.432	-161.9432
3040.000000	77.202	-163.0353
3070.000000	77.033	-163.6429
3110.000000	76.825	-164.2244
3150.000000	76.647	-164.6896
3200.000000	76.457	-165.3171
3250.000000	76.266	-166.0844
3300.000000	76.051	-166.8948
3350.000000	75.812	-167.5276
3400.000000	75.561	-167.9257
3450.000000	75.315	-168.1098
3500.000000	75.082	-168.1122
3550.000000	74.861	-167.9974
3600.000000	74.653	-167.7834
3650.000000	74.457	-167.4543
3700.000000	74.266	-167.0112
3750.000000	74.079	-166.4667
3820.000000	73.836	-165.5494
3870.000000	73.676	-164.8138
3950.000000	73.440	-163.4952
4000.000000	73.305	-162.5916
4060.000000	73.159	-161.4585
4120.000000	73.034	-160.2646
4180.000000	72.926	-159.0121
4250.000000	72.820	-157.5185
4310.000000	72.742	-156.2127
4370.000000	72.671	-154.8638
4440.000000	72.602	-153.2376
4500.000000	72.562	-151.8217
4550.000000	72.543	-150.6354
4620.000000	72.539	-148.9825
4680.000000	72.553	-147.5899
4750.000000	72.590	-145.9698
4820.000000	72.646	-144.3381
4870.000000	72.698	-143.1592
4940.000000	72.791	-141.4905
5000.000000	72.893	-140.0665
5080.000000	73.072	-138.1915
5150.000000	73.275	-136.5908
5220.000000	73.523	-135.0779
5300.000000	73.860	-133.5222
5380.000000	74.254	-132.2256
5450.000000	74.643	-131.3443
5520.000000	75.069	-130.7452
5600.000000	75.598	-130.4509
5700.000000	76.322	-130.7665
5800.000000	77.110	-132.0436
5900.000000	77.928	-134.5343
6000.000000	78.718	-138.4958
6080.000000	79.279	-142.8284
6150.000000	79.676	-147.3983
6220.000000	79.955	-152.5269
6300.000000	80.105	-158.7746
6400.000000	80.039	-166.5677
6500.000000	79.726	-173.7493
6600.000000	79.226	-179.9470
6700.000000	78.599	175.0013
6800.000000	77.909	171.1164
6900.000000	77.217	168.3103
7000.000000	76.557	166.4541
7100.000000	75.946	165.4354
7200.000000	75.404	165.0611
7300.000000	74.942	165.0891
7400.000000	74.552	165.3296
7500.000000	74.225	165.6977
7620.000000	73.918	166.2424
7750.000000	73.681	166.8668
7880.000000	73.467	167.4369
8000.000000	73.291	167.9064
8120.000000	73.165	168.3174
8250.000000	73.100	168.6019
8380.000000	73.114	168.5851
8500.000000	73.198	168.1202
8620.000000	73.325	167.0508
8750.000000	73.478	165.0476
8850.000000	73.582	162.7704
9000.000000	73.650	158.1216
9120.000000	73.575	153.5451
9250.000000	73.318	148.0970
9380.000000	72.862	142.5585
9500.000000	72.270	137.7559
9620.000000	71.534	133.5676
9750.000000	70.611	129.9798
9880.000000	69.601	127.5367
10000.000000	68.635	126.3481
10150.000000	67.442	126.2213
10300.000000	66.322	127.2988
10440.000000	65.373	129.0591
10600.000000	64.407	131.6848
10750.000000	63.608	134.5254
10900.000000	62.900	137.6177
11060.000000	62.230	141.1373
11200.000000	61.714	144.3679
11380.000000	61.141	148.7150
11500.000000	60.817	151.6888
11720.000000	60.351	157.1946
11800.000000	60.218	159.2084
12060.000000	59.915	165.7955
12200.000000	59.834	169.3127
12410.000000	59.809	174.4828
12500.000000	59.839	176.6467
12650.000000	59.952	-179.8625
12800.000000	60.153	-176.5452
13150.000000	61.024	-169.6281
13200.000000	61.204	-168.7624
13400.000000	62.096	-165.8023
13600.000000	63.330	-164.1324
13800.000000	64.956	-164.8646
14000.000000	66.863	-170.0500
14300.000000	69.143	168.2830
14500.000000	69.287	145.9915
14750.000000	67.534	122.0145
15000.000000	64.561	110.2587
15250.000000	61.591	107.3938
15500.000000	59.179	108.8022
15750.000000	57.354	112.2245
16000.000000	55.971	116.6196
16250.000000	54.907	121.4523
16500.000000	54.093	126.5436
16750.000000	53.476	131.8079
17000.000000	53.037	136.8817
17250.000000	52.793	141.7035
17500.000000	52.728	146.0949
17750.000000	52.824	149.8111
18000.000000	53.038	152.5656
18250.000000	53.332	153.9599
18500.000000	53.672	153.3881
18750.000000	53.938	150.1251
19000.000000	53.940	143.1835
19250.000000	53.475	123.6502
19500.000000	52.384	-0.9349
19750.000000	50.482	-110.9763
20000.000000	47.155	4.5107
