* Measurement data measured by REW V5.20.9
* Source: Mic in at rear panel (Pink)(Realtek(R) Audio), MICROPHONE (마스), L, volume: 0.500
* Format: 256k Log Swept Sine, 1 sweep at -12.0 dBFS with no timing reference
* Dated: 2022. 9. 24 오후 12:28:11
* REW Settings:
*  C-weighting compensation: Off
*  Target level: 75.0 dB
* Note: 
* Measurement: R_Final
* Smoothing: 1/24 octave
* Frequency Step: 1/48 octave
* Start Frequency: 20.300 Hz
*
* Freq(Hz)	SPL(dB)	Phase(degrees)
20.299999	75.201	-136.5119
20.600000	75.222	-136.9128
20.900000	75.264	-137.6238
21.200001	75.299	-138.2893
21.400000	75.319	-138.7144
21.799999	75.353	-139.5653
22.000000	75.368	-140.0020
22.400000	75.394	-140.8838
22.700001	75.411	-141.5457
23.000000	75.429	-142.2123
23.299999	75.449	-142.8888
23.600000	75.470	-143.5786
24.000000	75.500	-144.5172
24.299999	75.523	-145.2256
24.700001	75.551	-146.1557
25.000000	75.572	-146.8282
25.400000	75.600	-147.6800
25.799999	75.631	-148.4796
26.200001	75.664	-149.2343
26.500000	75.690	-149.7768
26.900000	75.723	-150.4748
27.200001	75.746	-150.9835
27.600000	75.776	-151.6473
28.000000	75.803	-152.3001
28.500000	75.832	-153.1066
29.000000	75.853	-153.9026
29.500000	75.866	-154.6829
30.000000	75.872	-155.4397
30.400000	75.873	-156.0233
30.700001	75.874	-156.4479
31.100000	75.876	-157.0022
31.500000	75.880	-157.5546
32.000000	75.887	-158.2640
32.500000	75.894	-159.0029
33.000000	75.899	-159.7491
33.500000	75.905	-160.4694
34.000000	75.914	-161.1524
34.500000	75.928	-161.8191
35.000000	75.944	-162.4920
35.500000	75.958	-163.1672
36.000000	75.969	-163.8195
36.500000	75.978	-164.4356
37.000000	75.987	-165.0273
37.500000	75.994	-165.6129
38.200001	75.995	-166.4181
38.700001	75.989	-166.9597
39.500000	75.978	-167.7606
40.000000	75.973	-168.2467
40.599998	75.968	-168.8357
41.200001	75.963	-169.4294
41.799999	75.960	-170.0282
42.500000	75.958	-170.7448
43.099998	75.956	-171.3675
43.700001	75.952	-171.9713
44.400002	75.948	-172.6375
45.000000	75.948	-173.1933
45.500000	75.947	-173.6577
46.200001	75.942	-174.3011
46.799999	75.936	-174.8329
47.500000	75.927	-175.4354
48.200001	75.917	-176.0301
48.700001	75.908	-176.4482
49.400002	75.894	-177.0199
50.000000	75.880	-177.4990
50.799999	75.860	-178.1116
51.500000	75.846	-178.6151
52.200001	75.838	-179.1215
53.000000	75.830	-179.7395
53.799999	75.814	179.6515
54.500000	75.800	179.1631
55.200001	75.789	178.6815
56.000000	75.775	178.1157
57.000000	75.749	177.4614
58.000000	75.727	176.8727
59.000000	75.708	176.2609
60.000000	75.683	175.6147
60.799999	75.659	175.0981
61.500000	75.637	174.6593
62.200001	75.616	174.2270
63.000000	75.592	173.7333
64.000000	75.562	173.1309
65.000000	75.534	172.5381
66.000000	75.507	171.9395
67.000000	75.477	171.3639
68.000000	75.447	170.8025
69.000000	75.412	170.2420
70.000000	75.372	169.7196
71.000000	75.332	169.2328
72.000000	75.293	168.7431
73.000000	75.251	168.2494
74.000000	75.207	167.7677
75.000000	75.165	167.2954
76.199997	75.115	166.7426
77.500000	75.065	166.1667
78.800003	75.013	165.5740
80.000000	74.952	165.0751
81.199997	74.886	164.6550
82.500000	74.811	164.2846
83.800003	74.738	163.9678
85.000000	74.676	163.7148
86.199997	74.624	163.4690
87.500000	74.573	163.1960
88.500000	74.537	163.0234
90.000000	74.501	162.8088
91.199997	74.482	162.5897
92.500000	74.461	162.3097
93.800003	74.438	162.0035
95.000000	74.413	161.6934
96.199997	74.381	161.3592
97.500000	74.333	161.0195
98.800003	74.275	160.7983
100.000000	74.230	160.7245
101.500000	74.196	160.7178
103.000000	74.188	160.7305
104.400002	74.206	160.6984
106.000000	74.250	160.4966
107.500000	74.301	160.0976
109.000000	74.344	159.4907
110.599998	74.367	158.6835
112.000000	74.360	157.9570
113.800003	74.329	157.1161
115.000000	74.303	156.5929
117.199997	74.242	155.6717
118.000000	74.217	155.3452
120.599998	74.123	154.3719
122.000000	74.075	153.9238
124.099998	74.006	153.2881
125.000000	73.975	153.0259
126.500000	73.919	152.6099
128.000000	73.860	152.2252
131.500000	73.727	151.3665
132.000000	73.709	151.2449
134.000000	73.637	150.7713
136.000000	73.567	150.3213
138.000000	73.496	149.8782
140.000000	73.419	149.4545
143.000000	73.302	148.9054
145.000000	73.229	148.5649
147.500000	73.137	148.1478
150.000000	73.042	147.7663
152.500000	72.945	147.3927
155.000000	72.848	147.0494
157.500000	72.751	146.7467
160.000000	72.652	146.5247
162.500000	72.555	146.4012
165.000000	72.466	146.3347
167.500000	72.387	146.3248
170.000000	72.324	146.3853
172.500000	72.282	146.4597
175.000000	72.259	146.4506
177.500000	72.249	146.2764
180.000000	72.239	145.9510
182.500000	72.219	145.5281
185.000000	72.179	145.0718
187.500000	72.122	144.6161
190.000000	72.053	144.1840
192.500000	71.984	143.7868
195.000000	71.917	143.4131
197.500000	71.848	143.0768
200.000000	71.775	142.7909
203.000000	71.681	142.4922
206.000000	71.588	142.2070
209.000000	71.495	141.9486
212.000000	71.407	141.7386
214.000000	71.349	141.6225
218.000000	71.239	141.4648
220.000000	71.187	141.4037
224.000000	71.090	141.2673
227.000000	71.022	141.1674
230.000000	70.958	141.0575
233.000000	70.895	140.9120
236.000000	70.833	140.7346
240.000000	70.749	140.5118
243.000000	70.684	140.3587
247.000000	70.589	140.1622
250.000000	70.516	140.0375
254.000000	70.426	139.8970
258.000000	70.336	139.7617
262.000000	70.243	139.6151
265.000000	70.170	139.5103
269.000000	70.076	139.3950
272.000000	70.009	139.3376
276.000000	69.926	139.2860
280.000000	69.847	139.2191
285.000000	69.745	139.1367
290.000000	69.642	139.0752
295.000000	69.544	139.0232
300.000000	69.443	138.9912
304.000000	69.362	138.9815
307.000000	69.307	138.9773
311.000000	69.236	138.9663
315.000000	69.164	138.9583
320.000000	69.069	138.9709
325.000000	68.976	138.9881
330.000000	68.890	138.9918
335.000000	68.808	139.0161
340.000000	68.727	139.0840
345.000000	68.644	139.1475
350.000000	68.554	139.2319
355.000000	68.462	139.3196
360.000000	68.376	139.4100
365.000000	68.295	139.5324
370.000000	68.216	139.6508
375.000000	68.133	139.7767
382.000000	68.017	139.9165
387.000000	67.936	140.0034
395.000000	67.808	140.2070
400.000000	67.732	140.3690
406.000000	67.640	140.6016
412.000000	67.550	140.8061
418.000000	67.462	140.9632
425.000000	67.363	141.1686
431.000000	67.279	141.3589
437.000000	67.197	141.5949
444.000000	67.107	141.8647
450.000000	67.035	142.0898
455.000000	66.976	142.2834
462.000000	66.893	142.5444
468.000000	66.819	142.7832
475.000000	66.736	143.0864
482.000000	66.660	143.4104
487.000000	66.605	143.6512
494.000000	66.526	143.9796
500.000000	66.459	144.2466
508.000000	66.373	144.6055
515.000000	66.302	144.9144
522.000000	66.234	145.2232
530.000000	66.154	145.6090
538.000000	66.077	146.0403
545.000000	66.016	146.4186
552.000000	65.957	146.7940
560.000000	65.885	147.1913
570.000000	65.800	147.7003
580.000000	65.719	148.2678
590.000000	65.636	148.8089
600.000000	65.560	149.3472
608.000000	65.503	149.8268
615.000000	65.451	150.2491
622.000000	65.401	150.6685
630.000000	65.349	151.1563
640.000000	65.285	151.7588
650.000000	65.218	152.3783
660.000000	65.154	153.0432
670.000000	65.091	153.6688
680.000000	65.033	154.2735
690.000000	64.980	154.9511
700.000000	64.928	155.6213
710.000000	64.880	156.2696
720.000000	64.837	156.9298
730.000000	64.799	157.5924
740.000000	64.761	158.2806
750.000000	64.723	158.9919
762.000000	64.682	159.8130
775.000000	64.645	160.6738
788.000000	64.611	161.5654
800.000000	64.585	162.4098
812.000000	64.566	163.1997
825.000000	64.550	164.0555
838.000000	64.538	164.9624
850.000000	64.531	165.7892
862.000000	64.524	166.5917
875.000000	64.524	167.4267
885.000000	64.528	168.0706
900.000000	64.543	169.0997
912.000000	64.558	169.9247
925.000000	64.582	170.7515
938.000000	64.616	171.5771
950.000000	64.653	172.3440
962.000000	64.692	173.0588
975.000000	64.732	173.7923
988.000000	64.771	174.5143
1000.000000	64.810	175.1335
1015.000000	64.866	175.7977
1030.000000	64.921	176.4391
1044.000000	64.971	177.0408
1060.000000	65.022	177.6828
1075.000000	65.065	178.2630
1090.000000	65.109	178.8900
1106.000000	65.160	179.5894
1120.000000	65.202	-179.8144
1138.000000	65.254	-179.0054
1150.000000	65.289	-178.4152
1172.000000	65.361	-177.2465
1180.000000	65.391	-176.7780
1206.000000	65.514	-175.1659
1220.000000	65.600	-174.2858
1241.000000	65.758	-172.9594
1250.000000	65.834	-172.3946
1265.000000	65.970	-171.4944
1280.000000	66.118	-170.6883
1315.000000	66.504	-169.1139
1320.000000	66.562	-168.9309
1340.000000	66.798	-168.3117
1360.000000	67.026	-167.8661
1380.000000	67.249	-167.5880
1400.000000	67.467	-167.4129
1430.000000	67.776	-167.3210
1450.000000	67.968	-167.3489
1475.000000	68.192	-167.4212
1500.000000	68.399	-167.5077
1525.000000	68.593	-167.5777
1550.000000	68.780	-167.6576
1575.000000	68.961	-167.7400
1600.000000	69.142	-167.7850
1625.000000	69.319	-167.8101
1650.000000	69.495	-167.8425
1675.000000	69.675	-167.8831
1700.000000	69.858	-167.9314
1725.000000	70.041	-167.9965
1750.000000	70.225	-168.0818
1775.000000	70.411	-168.1953
1800.000000	70.601	-168.3363
1825.000000	70.796	-168.5110
1850.000000	70.993	-168.7448
1875.000000	71.191	-169.0239
1900.000000	71.390	-169.3527
1925.000000	71.590	-169.7441
1950.000000	71.791	-170.1956
1975.000000	71.993	-170.7105
2000.000000	72.193	-171.3006
2030.000000	72.431	-172.1071
2060.000000	72.665	-173.0157
2090.000000	72.892	-174.0273
2120.000000	73.109	-175.1449
2140.000000	73.249	-175.9574
2180.000000	73.512	-177.7331
2200.000000	73.632	-178.6805
2240.000000	73.848	179.3091
2270.000000	73.986	177.6994
2300.000000	74.102	176.0223
2330.000000	74.196	174.3044
2360.000000	74.266	172.5690
2400.000000	74.321	170.2392
2430.000000	74.334	168.5034
2470.000000	74.313	166.2525
2500.000000	74.268	164.6401
2540.000000	74.174	162.6354
2580.000000	74.044	160.8277
2620.000000	73.881	159.2653
2650.000000	73.739	158.2954
2690.000000	73.533	157.3155
2720.000000	73.377	156.8365
2760.000000	73.181	156.5378
2800.000000	73.019	156.5611
2850.000000	72.885	156.8169
2900.000000	72.813	157.0425
2950.000000	72.771	157.1261
3000.000000	72.741	157.0815
3040.000000	72.719	156.9699
3070.000000	72.701	156.8572
3110.000000	72.671	156.6826
3150.000000	72.633	156.5043
3200.000000	72.572	156.3358
3250.000000	72.496	156.2814
3300.000000	72.413	156.3876
3350.000000	72.331	156.6719
3400.000000	72.257	157.1356
3450.000000	72.200	157.7688
3500.000000	72.169	158.5713
3550.000000	72.169	159.5367
3600.000000	72.208	160.6065
3650.000000	72.291	161.6910
3700.000000	72.412	162.6912
3750.000000	72.561	163.5327
3820.000000	72.795	164.4674
3870.000000	72.969	165.0005
3950.000000	73.261	165.6484
4000.000000	73.459	165.9409
4060.000000	73.710	166.1630
4120.000000	73.975	166.2132
4180.000000	74.250	166.0541
4250.000000	74.572	165.5767
4310.000000	74.840	164.9614
4370.000000	75.094	164.2081
4440.000000	75.388	163.2046
4500.000000	75.662	162.1817
4550.000000	75.910	161.1030
4620.000000	76.272	159.0518
4680.000000	76.564	156.6819
4750.000000	76.843	153.1981
4820.000000	77.014	149.0626
4870.000000	77.052	145.8457
4940.000000	76.973	141.2189
5000.000000	76.786	137.3510
5080.000000	76.385	132.6422
5150.000000	75.919	129.1449
5220.000000	75.376	126.3240
5300.000000	74.694	123.9523
5380.000000	73.973	122.4659
5450.000000	73.321	121.8668
5520.000000	72.660	122.0140
5600.000000	71.938	123.2547
5700.000000	71.211	125.9487
5800.000000	70.704	128.6663
5900.000000	70.264	131.0622
6000.000000	69.834	133.6605
6080.000000	69.524	136.0210
6150.000000	69.285	138.2605
6220.000000	69.079	140.6171
6300.000000	68.886	143.4300
6400.000000	68.715	147.1049
6500.000000	68.620	150.9106
6600.000000	68.598	154.7860
6700.000000	68.658	158.6837
6800.000000	68.807	162.5636
6900.000000	69.065	166.3710
7000.000000	69.438	170.0713
7100.000000	69.921	173.5690
7200.000000	70.517	176.7686
7300.000000	71.240	179.5263
7400.000000	72.101	-178.3747
7500.000000	73.116	-177.2206
7620.000000	74.541	-177.7663
7750.000000	76.195	177.8924
7880.000000	77.546	168.0897
8000.000000	78.099	154.5115
8120.000000	77.734	139.9597
8250.000000	76.432	127.8691
8380.000000	74.649	121.4936
8500.000000	72.967	119.7816
8620.000000	71.440	120.7255
8750.000000	70.013	123.6235
8850.000000	69.075	126.7055
9000.000000	67.905	132.2405
9120.000000	67.153	137.2015
9250.000000	66.502	142.9332
9380.000000	66.010	148.8969
9500.000000	65.693	154.4900
9620.000000	65.500	160.1168
9750.000000	65.428	166.2041
9880.000000	65.498	172.1926
10000.000000	65.691	177.5974
10150.000000	66.123	-175.8427
10300.000000	66.818	-169.6376
10440.000000	67.780	-164.5289
10600.000000	69.352	-160.3609
10750.000000	71.317	-159.7990
10900.000000	73.452	-165.7016
11060.000000	75.025	177.3311
11200.000000	75.055	156.3572
11380.000000	73.086	134.8470
11500.000000	70.992	128.2293
11720.000000	67.022	127.8510
11800.000000	65.764	129.8300
12060.000000	62.502	139.6511
12200.000000	61.154	146.0901
12410.000000	59.491	156.5193
12500.000000	58.885	161.1810
12650.000000	58.003	169.1342
12800.000000	57.272	177.2562
13150.000000	56.084	-163.4952
13200.000000	55.968	-160.7400
13400.000000	55.635	-149.7238
13600.000000	55.509	-138.7417
13800.000000	55.596	-127.8635
14000.000000	55.901	-117.2148
14300.000000	56.786	-101.7807
14500.000000	57.740	-92.0050
14750.000000	59.473	-81.0093
15000.000000	61.991	-72.8933
15250.000000	65.113	-71.9666
15500.000000	67.394	-84.3291
15750.000000	67.703	-97.1721
16000.000000	68.866	-99.9294
16250.000000	69.809	-116.3241
16500.000000	69.295	-134.2185
16750.000000	68.488	-149.2445
17000.000000	67.354	-166.1329
17250.000000	65.294	177.4763
17500.000000	62.212	166.9666
17750.000000	58.415	165.0492
18000.000000	54.321	171.9101
18250.000000	50.435	-174.2132
18500.000000	47.271	-156.0342
18750.000000	45.077	-135.9144
19000.000000	43.841	-115.4508
19250.000000	43.520	-95.8841
19500.000000	43.955	-79.1076
19750.000000	44.780	-66.4176
20000.000000	45.635	-57.9808
