* Measurement data measured by REW V5.20.13
* Source: EXCL: Microphone(High Definition Audio Device), MICROPHONE (마스), R, volume: 1.000
* Format: 256k Log Swept Sine, 1 sweep at -12.0 dBFS with no timing reference
* Dated: 2023. 2. 25 오후 10:22:10
* REW Settings:
*  C-weighting compensation: Off
*  Target level: 75.0 dB
* Note: 
* Measurement: L_Black
* Smoothing: 1/24 octave
* Frequency Step: 1/48 octave
* Start Frequency: 20.300 Hz
*
* Freq(Hz)	SPL(dB)	Phase(degrees)
20.299999	101.695	36.8372
20.600000	101.719	36.5106
20.900000	101.767	35.9357
21.200001	101.807	35.4100
21.400000	101.829	35.0804
21.799999	101.870	34.4240
22.000000	101.890	34.0830
22.400000	101.926	33.3795
22.700001	101.950	32.8448
23.000000	101.971	32.3159
23.299999	101.991	31.8038
23.600000	102.011	31.3152
24.000000	102.041	30.7056
24.299999	102.071	30.2790
24.700001	102.119	29.7409
25.000000	102.162	29.3467
25.400000	102.228	28.8130
25.799999	102.299	28.2536
26.200001	102.370	27.6645
26.500000	102.420	27.2072
26.900000	102.479	26.5849
27.200001	102.518	26.1149
27.600000	102.563	25.4886
28.000000	102.602	24.8631
28.500000	102.640	24.0805
29.000000	102.666	23.3066
29.500000	102.679	22.5584
30.000000	102.688	21.8392
30.400000	102.696	21.2757
30.700001	102.703	20.8557
31.100000	102.711	20.2977
31.500000	102.719	19.7443
32.000000	102.729	19.0645
32.500000	102.742	18.3972
33.000000	102.760	17.7279
33.500000	102.782	17.0487
34.000000	102.803	16.3775
34.500000	102.818	15.7455
35.000000	102.832	15.1708
35.500000	102.847	14.6412
36.000000	102.863	14.1233
36.500000	102.876	13.6007
37.000000	102.882	13.0868
37.500000	102.883	12.5990
38.200001	102.881	11.9519
38.700001	102.881	11.4877
39.500000	102.879	10.7050
40.000000	102.875	10.1996
40.599998	102.867	9.5938
41.200001	102.860	8.9963
41.799999	102.855	8.4114
42.500000	102.851	7.7554
43.099998	102.850	7.2212
43.700001	102.851	6.7081
44.400002	102.847	6.1302
45.000000	102.841	5.6578
45.500000	102.837	5.2795
46.200001	102.834	4.7525
46.799999	102.829	4.2909
47.500000	102.818	3.7537
48.200001	102.804	3.2327
48.700001	102.793	2.8720
49.400002	102.781	2.3817
50.000000	102.773	1.9697
50.799999	102.769	1.4187
51.500000	102.765	0.9381
52.200001	102.756	0.4705
53.000000	102.744	-0.0399
53.799999	102.728	-0.5260
54.500000	102.711	-0.9343
55.200001	102.694	-1.3236
56.000000	102.677	-1.7558
57.000000	102.653	-2.3162
58.000000	102.627	-2.9091
59.000000	102.595	-3.5004
60.000000	102.557	-4.0612
60.799999	102.532	-4.4964
61.500000	102.512	-4.8777
62.200001	102.492	-5.2550
63.000000	102.466	-5.6683
64.000000	102.435	-6.1457
65.000000	102.406	-6.5942
66.000000	102.376	-7.0444
67.000000	102.344	-7.5052
68.000000	102.305	-7.9714
69.000000	102.260	-8.3845
70.000000	102.222	-8.7545
71.000000	102.189	-9.1372
72.000000	102.161	-9.5373
73.000000	102.131	-9.9718
74.000000	102.093	-10.3881
75.000000	102.055	-10.7523
76.199997	102.012	-11.1520
77.500000	101.970	-11.5767
78.800003	101.922	-12.0122
80.000000	101.875	-12.3858
81.199997	101.832	-12.7798
82.500000	101.784	-13.2044
83.800003	101.736	-13.5879
85.000000	101.692	-13.9140
86.199997	101.648	-14.2166
87.500000	101.599	-14.5295
88.500000	101.563	-14.7623
90.000000	101.510	-15.1184
91.199997	101.463	-15.3753
92.500000	101.416	-15.6194
93.800003	101.376	-15.8910
95.000000	101.332	-16.1805
96.199997	101.282	-16.4420
97.500000	101.234	-16.6880
98.800003	101.192	-16.9513
100.000000	101.154	-17.1860
101.500000	101.109	-17.4690
103.000000	101.063	-17.7452
104.400002	101.019	-17.9911
106.000000	100.964	-18.2618
107.500000	100.909	-18.4950
109.000000	100.855	-18.7131
110.599998	100.799	-18.9442
112.000000	100.750	-19.1537
113.800003	100.686	-19.4279
115.000000	100.646	-19.6061
117.199997	100.569	-19.9201
118.000000	100.540	-20.0053
120.599998	100.447	-20.2264
122.000000	100.394	-20.3424
124.099998	100.318	-20.5081
125.000000	100.288	-20.5874
126.500000	100.237	-20.7135
128.000000	100.185	-20.8075
131.500000	100.055	-20.8577
132.000000	100.036	-20.8538
134.000000	99.963	-20.8074
136.000000	99.901	-20.7253
138.000000	99.851	-20.5950
140.000000	99.819	-20.4116
143.000000	99.795	-20.1424
145.000000	99.793	-20.0603
147.500000	99.800	-20.1382
150.000000	99.810	-20.3797
152.500000	99.800	-20.7090
155.000000	99.766	-21.0595
157.500000	99.719	-21.4406
160.000000	99.663	-21.7919
162.500000	99.603	-22.0506
165.000000	99.545	-22.2387
167.500000	99.483	-22.4083
170.000000	99.420	-22.5352
172.500000	99.360	-22.6428
175.000000	99.300	-22.7556
177.500000	99.243	-22.8720
180.000000	99.184	-22.9624
182.500000	99.123	-23.0021
185.000000	99.061	-23.0457
187.500000	99.000	-23.1056
190.000000	98.942	-23.1675
192.500000	98.885	-23.1982
195.000000	98.829	-23.1964
197.500000	98.779	-23.1835
200.000000	98.733	-23.1640
203.000000	98.679	-23.1509
206.000000	98.623	-23.1452
209.000000	98.568	-23.1385
212.000000	98.516	-23.1009
214.000000	98.480	-23.0633
218.000000	98.400	-22.9885
220.000000	98.364	-22.9699
224.000000	98.300	-22.9517
227.000000	98.255	-22.8914
230.000000	98.212	-22.8199
233.000000	98.171	-22.7530
236.000000	98.122	-22.6569
240.000000	98.046	-22.5059
243.000000	97.997	-22.4366
247.000000	97.946	-22.3656
250.000000	97.903	-22.2994
254.000000	97.842	-22.1604
258.000000	97.786	-21.9714
262.000000	97.726	-21.8334
265.000000	97.684	-21.7362
269.000000	97.634	-21.5577
272.000000	97.598	-21.4053
276.000000	97.551	-21.2173
280.000000	97.507	-21.0531
285.000000	97.457	-20.8866
290.000000	97.408	-20.7114
295.000000	97.349	-20.4966
300.000000	97.298	-20.2487
304.000000	97.260	-20.0657
307.000000	97.234	-19.9338
311.000000	97.201	-19.7470
315.000000	97.168	-19.5583
320.000000	97.129	-19.3035
325.000000	97.095	-19.0746
330.000000	97.061	-18.8701
335.000000	97.025	-18.6279
340.000000	96.984	-18.3703
345.000000	96.945	-18.1608
350.000000	96.917	-17.9548
355.000000	96.884	-17.7100
360.000000	96.839	-17.4592
365.000000	96.795	-17.2341
370.000000	96.760	-16.9968
375.000000	96.735	-16.7218
382.000000	96.695	-16.3606
387.000000	96.664	-16.1070
395.000000	96.614	-15.7194
400.000000	96.580	-15.4755
406.000000	96.537	-15.1799
412.000000	96.499	-14.8885
418.000000	96.465	-14.5678
425.000000	96.434	-14.1665
431.000000	96.408	-13.8509
437.000000	96.381	-13.5672
444.000000	96.354	-13.2357
450.000000	96.331	-12.8993
455.000000	96.310	-12.6035
462.000000	96.280	-12.2189
468.000000	96.259	-11.9156
475.000000	96.231	-11.5764
482.000000	96.205	-11.2100
487.000000	96.189	-10.9486
494.000000	96.171	-10.5889
500.000000	96.162	-10.2909
508.000000	96.151	-9.8907
515.000000	96.136	-9.5116
522.000000	96.117	-9.1035
530.000000	96.090	-8.6559
538.000000	96.068	-8.2279
545.000000	96.055	-7.8271
552.000000	96.047	-7.4415
560.000000	96.036	-6.9834
570.000000	96.020	-6.4333
580.000000	96.011	-5.9465
590.000000	96.009	-5.4238
600.000000	96.001	-4.8420
608.000000	95.996	-4.3792
615.000000	95.993	-3.9914
622.000000	95.988	-3.5999
630.000000	95.984	-3.1635
640.000000	95.981	-2.5667
650.000000	95.977	-1.9629
660.000000	95.981	-1.4402
670.000000	95.986	-0.9039
680.000000	95.989	-0.3373
690.000000	95.993	0.2314
700.000000	95.998	0.8247
710.000000	96.003	1.4597
720.000000	96.015	2.0893
730.000000	96.038	2.6893
740.000000	96.060	3.2853
750.000000	96.077	3.8839
762.000000	96.100	4.5953
775.000000	96.131	5.3231
788.000000	96.171	6.0784
800.000000	96.208	6.7863
812.000000	96.242	7.4815
825.000000	96.283	8.2439
838.000000	96.331	9.0091
850.000000	96.387	9.6930
862.000000	96.447	10.3538
875.000000	96.516	11.0540
885.000000	96.570	11.5784
900.000000	96.652	12.3359
912.000000	96.725	12.9379
925.000000	96.808	13.5647
938.000000	96.894	14.1564
950.000000	96.977	14.6746
962.000000	97.058	15.1794
975.000000	97.148	15.6934
988.000000	97.240	16.1728
1000.000000	97.328	16.6014
1015.000000	97.442	17.0784
1030.000000	97.560	17.5122
1044.000000	97.666	17.9160
1060.000000	97.781	18.3455
1075.000000	97.889	18.6940
1090.000000	98.002	19.0195
1106.000000	98.128	19.3509
1120.000000	98.239	19.6229
1138.000000	98.382	19.9519
1150.000000	98.476	20.1630
1172.000000	98.654	20.5027
1180.000000	98.717	20.6044
1206.000000	98.910	20.9494
1220.000000	99.020	21.1638
1241.000000	99.191	21.4267
1250.000000	99.264	21.5117
1265.000000	99.383	21.6292
1280.000000	99.499	21.7227
1315.000000	99.760	21.9302
1320.000000	99.797	21.9656
1340.000000	99.943	22.1032
1360.000000	100.086	22.2173
1380.000000	100.229	22.3285
1400.000000	100.376	22.4368
1430.000000	100.602	22.5478
1450.000000	100.755	22.6156
1475.000000	100.950	22.6929
1500.000000	101.147	22.7432
1525.000000	101.345	22.7583
1550.000000	101.545	22.7274
1575.000000	101.745	22.6533
1600.000000	101.946	22.5376
1625.000000	102.152	22.3839
1650.000000	102.359	22.1854
1675.000000	102.564	21.9392
1700.000000	102.770	21.6393
1725.000000	102.975	21.2949
1750.000000	103.177	20.8946
1775.000000	103.377	20.4238
1800.000000	103.576	19.8987
1825.000000	103.772	19.3193
1850.000000	103.963	18.6802
1875.000000	104.150	17.9831
1900.000000	104.332	17.2218
1925.000000	104.509	16.3978
1950.000000	104.680	15.5252
1975.000000	104.844	14.5976
2000.000000	105.000	13.6110
2030.000000	105.173	12.3629
2060.000000	105.331	11.0534
2090.000000	105.476	9.7013
2120.000000	105.605	8.3160
2140.000000	105.683	7.3750
2180.000000	105.817	5.4609
2200.000000	105.873	4.4971
2240.000000	105.960	2.5734
2270.000000	106.007	1.1438
2300.000000	106.037	-0.2616
2330.000000	106.053	-1.6336
2360.000000	106.055	-2.9612
2400.000000	106.038	-4.6499
2430.000000	106.013	-5.8528
2470.000000	105.964	-7.3518
2500.000000	105.916	-8.3976
2540.000000	105.841	-9.6766
2580.000000	105.754	-10.8240
2620.000000	105.660	-11.8264
2650.000000	105.584	-12.4729
2690.000000	105.483	-13.1926
2720.000000	105.408	-13.6272
2760.000000	105.317	-14.0817
2800.000000	105.238	-14.4319
2850.000000	105.165	-14.7997
2900.000000	105.111	-15.1619
2950.000000	105.062	-15.5391
3000.000000	105.014	-15.8973
3040.000000	104.977	-16.1548
3070.000000	104.952	-16.3235
3110.000000	104.921	-16.5149
3150.000000	104.894	-16.6778
3200.000000	104.867	-16.8439
3250.000000	104.852	-16.9715
3300.000000	104.848	-17.0829
3350.000000	104.855	-17.2062
3400.000000	104.872	-17.3469
3450.000000	104.905	-17.5063
3500.000000	104.954	-17.7091
3550.000000	105.012	-17.9782
3600.000000	105.078	-18.3178
3650.000000	105.148	-18.7339
3700.000000	105.219	-19.2487
3750.000000	105.290	-19.8639
3820.000000	105.381	-20.8983
3870.000000	105.433	-21.7614
3950.000000	105.484	-23.3315
4000.000000	105.495	-24.4064
4060.000000	105.490	-25.7781
4120.000000	105.460	-27.2320
4180.000000	105.403	-28.7425
4250.000000	105.296	-30.5317
4310.000000	105.164	-32.0549
4370.000000	104.992	-33.5335
4440.000000	104.742	-35.1500
4500.000000	104.495	-36.3998
4550.000000	104.269	-37.3256
4620.000000	103.928	-38.4216
4680.000000	103.617	-39.1634
4750.000000	103.238	-39.7840
4820.000000	102.847	-40.1416
4870.000000	102.560	-40.2391
4940.000000	102.153	-40.1641
5000.000000	101.805	-39.9093
5080.000000	101.345	-39.2949
5150.000000	100.949	-38.5151
5220.000000	100.562	-37.5278
5300.000000	100.134	-36.1596
5380.000000	99.724	-34.5467
5450.000000	99.382	-32.9490
5520.000000	99.058	-31.1895
5600.000000	98.712	-28.9906
5700.000000	98.318	-25.9964
5800.000000	97.970	-22.7640
5900.000000	97.668	-19.3269
6000.000000	97.416	-15.7046
6080.000000	97.252	-12.6878
6150.000000	97.136	-9.9701
6220.000000	97.048	-7.1848
6300.000000	96.982	-3.9262
6400.000000	96.957	0.2546
6500.000000	97.000	4.5107
6600.000000	97.114	8.7983
6700.000000	97.308	13.0853
6800.000000	97.594	17.3203
6900.000000	97.989	21.4559
7000.000000	98.505	25.4252
7100.000000	99.140	29.1230
7200.000000	99.897	32.4218
7300.000000	100.786	35.1723
7400.000000	101.823	37.1576
7500.000000	103.019	38.0101
7620.000000	104.647	36.7448
7750.000000	106.446	31.1266
7880.000000	107.804	19.8680
8000.000000	108.270	5.6583
8120.000000	107.843	-8.3267
8250.000000	106.629	-19.1697
8380.000000	105.120	-24.6637
8500.000000	103.809	-26.1595
8620.000000	102.739	-25.5423
8750.000000	101.912	-23.8267
8850.000000	101.486	-22.5159
9000.000000	101.093	-21.1385
9120.000000	100.949	-20.7718
9250.000000	100.931	-21.6290
9380.000000	100.966	-24.4294
9500.000000	100.903	-29.0581
9620.000000	100.594	-35.3625
9750.000000	99.855	-42.9111
9880.000000	98.670	-49.5209
10000.000000	97.259	-53.6586
10150.000000	95.267	-55.6990
10300.000000	93.238	-54.7091
10440.000000	91.444	-51.7927
10600.000000	89.563	-46.8841
10750.000000	87.967	-41.2146
10900.000000	86.519	-34.7384
11060.000000	85.135	-27.0980
11200.000000	84.057	-19.9932
11380.000000	82.838	-10.4701
11500.000000	82.127	-3.9430
11720.000000	81.019	8.2611
11800.000000	80.672	12.7671
12060.000000	79.763	27.6256
12200.000000	79.408	35.6705
12410.000000	79.030	47.5957
12500.000000	78.931	52.6266
12650.000000	78.865	60.8550
12800.000000	78.922	68.8184
13150.000000	79.462	87.0438
13200.000000	79.651	90.0499
13400.000000	81.469	103.2224
13600.000000	84.473	108.5048
13800.000000	86.820	97.9829
14000.000000	87.583	75.9823
14300.000000	85.094	47.7185
14500.000000	81.994	43.2073
14750.000000	78.235	48.2192
15000.000000	75.380	58.3041
15250.000000	73.411	70.1833
15500.000000	72.278	82.1221
15750.000000	72.021	92.4582
16000.000000	72.578	97.9155
16250.000000	73.297	92.4652
16500.000000	72.700	75.8597
16750.000000	69.912	63.1897
17000.000000	65.601	63.7463
17250.000000	60.882	74.7150
17500.000000	56.400	93.1036
17750.000000	52.609	111.2763
18000.000000	50.160	90.6236
18250.000000	49.473	-15.3458
18500.000000	50.165	-103.4135
18750.000000	51.926	-116.2319
19000.000000	54.070	-110.2771
19250.000000	55.415	-112.8428
19500.000000	55.174	-121.9313
19750.000000	53.483	-127.8449
20000.000000	51.770	-129.2581
