* Measurement data measured by REW V5.20.13
* Source: EXCL: Microphone(High Definition Audio Device), MICROPHONE (마스), R, volume: 1.000
* Format: 256k Log Swept Sine, 1 sweep at -12.0 dBFS with no timing reference
* Dated: 2023. 2. 25 오후 10:13:56
* REW Settings:
*  C-weighting compensation: Off
*  Target level: 75.0 dB
* Note: 
* Measurement: L_Sony Foam
* Smoothing: 1/24 octave
* Frequency Step: 1/48 octave
* Start Frequency: 20.300 Hz
*
* Freq(Hz)	SPL(dB)	Phase(degrees)
20.299999	103.046	29.5585
20.600000	103.071	29.2978
20.900000	103.121	28.8215
21.200001	103.165	28.3370
21.400000	103.190	28.0051
21.799999	103.228	27.3077
22.000000	103.242	26.9460
22.400000	103.265	26.2289
22.700001	103.279	25.7117
23.000000	103.296	25.2091
23.299999	103.315	24.7059
23.600000	103.338	24.1885
24.000000	103.372	23.4661
24.299999	103.399	22.9054
24.700001	103.433	22.1514
25.000000	103.457	21.5938
25.400000	103.487	20.8722
25.799999	103.515	20.1861
26.200001	103.540	19.5454
26.500000	103.558	19.0967
26.900000	103.579	18.5346
27.200001	103.594	18.1302
27.600000	103.614	17.5992
28.000000	103.632	17.0663
28.500000	103.647	16.4015
29.000000	103.654	15.7609
29.500000	103.654	15.1549
30.000000	103.654	14.5655
30.400000	103.655	14.0927
30.700001	103.657	13.7375
31.100000	103.658	13.2686
31.500000	103.659	12.8077
32.000000	103.661	12.2394
32.500000	103.668	11.6688
33.000000	103.679	11.0829
33.500000	103.693	10.4787
34.000000	103.706	9.8700
34.500000	103.713	9.2834
35.000000	103.716	8.7437
35.500000	103.719	8.2527
36.000000	103.724	7.7795
36.500000	103.727	7.2984
37.000000	103.725	6.8184
37.500000	103.717	6.3646
38.200001	103.705	5.7750
38.700001	103.700	5.3463
39.500000	103.690	4.5866
40.000000	103.676	4.0927
40.599998	103.656	3.5284
41.200001	103.637	3.0044
41.799999	103.625	2.4940
42.500000	103.616	1.8927
43.099998	103.608	1.3896
43.700001	103.599	0.9175
44.400002	103.586	0.3921
45.000000	103.575	-0.0574
45.500000	103.564	-0.4271
46.200001	103.547	-0.9193
46.799999	103.532	-1.3188
47.500000	103.515	-1.7814
48.200001	103.498	-2.2429
48.700001	103.487	-2.5628
49.400002	103.475	-3.0098
50.000000	103.470	-3.4229
50.799999	103.459	-4.0108
51.500000	103.441	-4.4944
52.200001	103.419	-4.9242
53.000000	103.395	-5.3839
53.799999	103.371	-5.8303
54.500000	103.348	-6.2134
55.200001	103.327	-6.5985
56.000000	103.303	-7.0468
57.000000	103.266	-7.6119
58.000000	103.227	-8.1606
59.000000	103.187	-8.6545
60.000000	103.151	-9.1206
60.799999	103.126	-9.5055
61.500000	103.105	-9.8376
62.200001	103.083	-10.1526
63.000000	103.059	-10.5081
64.000000	103.029	-10.9786
65.000000	102.990	-11.4433
66.000000	102.947	-11.8629
67.000000	102.906	-12.2515
68.000000	102.870	-12.6275
69.000000	102.837	-13.0310
70.000000	102.799	-13.4637
71.000000	102.754	-13.8691
72.000000	102.711	-14.2328
73.000000	102.670	-14.5863
74.000000	102.629	-14.9453
75.000000	102.588	-15.2987
76.199997	102.541	-15.7123
77.500000	102.488	-16.1520
78.800003	102.434	-16.5351
80.000000	102.388	-16.8872
81.199997	102.339	-17.2497
82.500000	102.284	-17.5910
83.800003	102.235	-17.8830
85.000000	102.193	-18.1697
86.199997	102.147	-18.4603
87.500000	102.095	-18.7614
88.500000	102.057	-18.9820
90.000000	102.005	-19.3211
91.199997	101.961	-19.6080
92.500000	101.910	-19.9011
93.800003	101.861	-20.1721
95.000000	101.815	-20.4152
96.199997	101.767	-20.6521
97.500000	101.715	-20.8937
98.800003	101.664	-21.1218
100.000000	101.615	-21.3269
101.500000	101.556	-21.5625
103.000000	101.502	-21.8325
104.400002	101.449	-22.1090
106.000000	101.387	-22.3767
107.500000	101.336	-22.6103
109.000000	101.288	-22.8459
110.599998	101.233	-23.0601
112.000000	101.183	-23.2172
113.800003	101.120	-23.4169
115.000000	101.077	-23.5620
117.199997	101.000	-23.8348
118.000000	100.974	-23.9285
120.599998	100.892	-24.2237
122.000000	100.847	-24.3671
124.099998	100.777	-24.5493
125.000000	100.747	-24.6137
126.500000	100.699	-24.7137
128.000000	100.653	-24.8223
131.500000	100.544	-25.1007
132.000000	100.528	-25.1391
134.000000	100.462	-25.2874
136.000000	100.394	-25.4053
138.000000	100.332	-25.4994
140.000000	100.279	-25.6111
143.000000	100.206	-25.7443
145.000000	100.153	-25.8442
147.500000	100.073	-25.9349
150.000000	99.995	-26.0143
152.500000	99.923	-26.0914
155.000000	99.855	-26.1807
157.500000	99.787	-26.2745
160.000000	99.722	-26.3202
162.500000	99.662	-26.3517
165.000000	99.601	-26.4013
167.500000	99.539	-26.4543
170.000000	99.482	-26.4812
172.500000	99.422	-26.4664
175.000000	99.357	-26.4127
177.500000	99.290	-26.3764
180.000000	99.228	-26.3901
182.500000	99.170	-26.4194
185.000000	99.113	-26.4144
187.500000	99.059	-26.3798
190.000000	99.006	-26.3572
192.500000	98.952	-26.3425
195.000000	98.897	-26.3115
197.500000	98.846	-26.2576
200.000000	98.796	-26.2077
203.000000	98.734	-26.1484
206.000000	98.675	-26.0674
209.000000	98.620	-25.9566
212.000000	98.567	-25.8363
214.000000	98.531	-25.7723
218.000000	98.462	-25.6987
220.000000	98.430	-25.6662
224.000000	98.369	-25.5735
227.000000	98.317	-25.4462
230.000000	98.264	-25.3127
233.000000	98.216	-25.2224
236.000000	98.170	-25.1235
240.000000	98.101	-24.9659
243.000000	98.049	-24.8583
247.000000	97.994	-24.7133
250.000000	97.951	-24.5904
254.000000	97.885	-24.4005
258.000000	97.826	-24.1985
262.000000	97.773	-24.0335
265.000000	97.737	-23.9212
269.000000	97.690	-23.7257
272.000000	97.649	-23.5634
276.000000	97.591	-23.4026
280.000000	97.541	-23.2692
285.000000	97.488	-23.0437
290.000000	97.442	-22.8023
295.000000	97.389	-22.5360
300.000000	97.336	-22.2641
304.000000	97.295	-22.0605
307.000000	97.267	-21.9078
311.000000	97.231	-21.6999
315.000000	97.198	-21.4966
320.000000	97.158	-21.2416
325.000000	97.119	-20.9846
330.000000	97.083	-20.7556
335.000000	97.048	-20.4736
340.000000	97.012	-20.1505
345.000000	96.972	-19.8995
350.000000	96.929	-19.7142
355.000000	96.887	-19.4493
360.000000	96.852	-19.1227
365.000000	96.820	-18.8411
370.000000	96.784	-18.5751
375.000000	96.744	-18.3159
382.000000	96.692	-17.9446
387.000000	96.654	-17.6707
395.000000	96.597	-17.2384
400.000000	96.566	-16.9631
406.000000	96.535	-16.6596
412.000000	96.506	-16.3455
418.000000	96.472	-15.9707
425.000000	96.429	-15.5339
431.000000	96.397	-15.2043
437.000000	96.372	-14.9058
444.000000	96.342	-14.5346
450.000000	96.316	-14.2241
455.000000	96.292	-13.9353
462.000000	96.258	-13.5050
468.000000	96.236	-13.1739
475.000000	96.220	-12.7827
482.000000	96.203	-12.3908
487.000000	96.187	-12.1093
494.000000	96.165	-11.7032
500.000000	96.151	-11.3487
508.000000	96.130	-10.8708
515.000000	96.108	-10.4664
522.000000	96.088	-10.0817
530.000000	96.074	-9.6383
538.000000	96.058	-9.1834
545.000000	96.038	-8.7706
552.000000	96.024	-8.3807
560.000000	96.010	-7.9330
570.000000	95.990	-7.3668
580.000000	95.983	-6.8000
590.000000	95.976	-6.2005
600.000000	95.969	-5.6112
608.000000	95.962	-5.1162
615.000000	95.952	-4.6975
622.000000	95.942	-4.2921
630.000000	95.932	-3.8249
640.000000	95.927	-3.2323
650.000000	95.928	-2.6543
660.000000	95.923	-2.0503
670.000000	95.922	-1.4489
680.000000	95.933	-0.8792
690.000000	95.943	-0.2896
700.000000	95.949	0.3372
710.000000	95.952	0.9587
720.000000	95.961	1.5571
730.000000	95.973	2.1594
740.000000	95.985	2.7706
750.000000	95.999	3.3982
762.000000	96.026	4.1205
775.000000	96.060	4.8654
788.000000	96.092	5.6643
800.000000	96.121	6.4080
812.000000	96.157	7.1461
825.000000	96.209	7.9234
838.000000	96.263	8.6854
850.000000	96.312	9.3744
862.000000	96.369	10.0622
875.000000	96.434	10.8110
885.000000	96.487	11.3687
900.000000	96.573	12.1608
912.000000	96.644	12.7833
925.000000	96.723	13.4709
938.000000	96.806	14.1302
950.000000	96.887	14.6699
962.000000	96.970	15.1501
975.000000	97.062	15.6614
988.000000	97.155	16.1903
1000.000000	97.242	16.6736
1015.000000	97.349	17.1985
1030.000000	97.457	17.6632
1044.000000	97.561	18.0845
1060.000000	97.681	18.5276
1075.000000	97.790	18.8811
1090.000000	97.900	19.2120
1106.000000	98.023	19.5607
1120.000000	98.132	19.8484
1138.000000	98.270	20.1980
1150.000000	98.363	20.4216
1172.000000	98.535	20.7971
1180.000000	98.596	20.9239
1206.000000	98.792	21.3170
1220.000000	98.899	21.5191
1241.000000	99.064	21.8228
1250.000000	99.136	21.9434
1265.000000	99.251	22.1112
1280.000000	99.363	22.2388
1315.000000	99.612	22.5169
1320.000000	99.648	22.5622
1340.000000	99.789	22.7339
1360.000000	99.923	22.8868
1380.000000	100.059	23.0408
1400.000000	100.203	23.2001
1430.000000	100.424	23.4258
1450.000000	100.575	23.5429
1475.000000	100.762	23.6712
1500.000000	100.948	23.7935
1525.000000	101.137	23.8963
1550.000000	101.331	23.9701
1575.000000	101.527	23.9905
1600.000000	101.723	23.9830
1625.000000	101.921	23.9559
1650.000000	102.120	23.8796
1675.000000	102.317	23.7316
1700.000000	102.514	23.5403
1725.000000	102.713	23.3240
1750.000000	102.913	23.0541
1775.000000	103.113	22.7298
1800.000000	103.309	22.3583
1825.000000	103.504	21.9333
1850.000000	103.696	21.4502
1875.000000	103.886	20.9047
1900.000000	104.073	20.3054
1925.000000	104.255	19.6568
1950.000000	104.432	18.9533
1975.000000	104.603	18.1919
2000.000000	104.768	17.3858
2030.000000	104.956	16.3617
2060.000000	105.134	15.2691
2090.000000	105.300	14.1161
2120.000000	105.452	12.9169
2140.000000	105.547	12.0961
2180.000000	105.717	10.4054
2200.000000	105.791	9.5426
2240.000000	105.920	7.8056
2270.000000	106.000	6.4958
2300.000000	106.066	5.1973
2330.000000	106.118	3.9152
2360.000000	106.158	2.6537
2400.000000	106.191	1.0220
2430.000000	106.203	-0.1607
2470.000000	106.203	-1.6718
2500.000000	106.192	-2.7475
2540.000000	106.166	-4.0994
2580.000000	106.130	-5.3564
2620.000000	106.082	-6.5076
2650.000000	106.041	-7.2976
2690.000000	105.980	-8.2569
2720.000000	105.932	-8.9141
2760.000000	105.866	-9.7093
2800.000000	105.798	-10.4142
2850.000000	105.713	-11.1651
2900.000000	105.632	-11.7735
2950.000000	105.557	-12.2630
3000.000000	105.490	-12.6584
3040.000000	105.444	-12.9153
3070.000000	105.415	-13.0750
3110.000000	105.381	-13.2522
3150.000000	105.356	-13.3939
3200.000000	105.335	-13.5312
3250.000000	105.327	-13.6447
3300.000000	105.332	-13.7499
3350.000000	105.348	-13.8701
3400.000000	105.377	-14.0086
3450.000000	105.421	-14.1823
3500.000000	105.479	-14.4141
3550.000000	105.546	-14.7034
3600.000000	105.619	-15.0567
3650.000000	105.696	-15.4894
3700.000000	105.777	-16.0086
3750.000000	105.858	-16.6190
3820.000000	105.965	-17.6374
3870.000000	106.032	-18.4862
3950.000000	106.115	-20.0537
4000.000000	106.151	-21.1586
4060.000000	106.176	-22.5987
4120.000000	106.176	-24.1407
4180.000000	106.147	-25.7603
4250.000000	106.074	-27.7160
4310.000000	105.970	-29.4114
4370.000000	105.822	-31.0824
4440.000000	105.600	-32.9535
4500.000000	105.375	-34.4526
4550.000000	105.165	-35.6041
4620.000000	104.839	-37.0405
4680.000000	104.535	-38.0865
4750.000000	104.156	-39.0690
4820.000000	103.758	-39.7805
4870.000000	103.463	-40.1219
4940.000000	103.040	-40.3682
5000.000000	102.674	-40.3613
5080.000000	102.186	-40.0508
5150.000000	101.763	-39.5117
5220.000000	101.348	-38.7416
5300.000000	100.888	-37.5986
5380.000000	100.446	-36.1817
5450.000000	100.077	-34.7422
5520.000000	99.725	-33.1229
5600.000000	99.345	-31.0730
5700.000000	98.909	-28.2514
5800.000000	98.520	-25.1748
5900.000000	98.179	-21.8737
6000.000000	97.889	-18.3664
6080.000000	97.695	-15.4368
6150.000000	97.557	-12.7965
6220.000000	97.447	-10.0913
6300.000000	97.357	-6.9389
6400.000000	97.301	-2.9452
6500.000000	97.306	1.0820
6600.000000	97.378	5.1331
6700.000000	97.523	9.1630
6800.000000	97.751	13.1318
6900.000000	98.079	17.0009
7000.000000	98.517	20.6953
7100.000000	99.058	24.1103
7200.000000	99.705	27.1394
7300.000000	100.460	29.6466
7400.000000	101.331	31.4350
7500.000000	102.320	32.2234
7620.000000	103.642	31.2837
7750.000000	105.096	27.0164
7880.000000	106.234	18.6119
8000.000000	106.733	7.7954
8120.000000	106.566	-3.6611
8250.000000	105.730	-13.7481
8380.000000	104.519	-19.8985
8500.000000	103.350	-22.3618
8620.000000	102.310	-22.5967
8750.000000	101.432	-21.4656
8850.000000	100.940	-20.3527
9000.000000	100.421	-18.9267
9120.000000	100.160	-18.1585
9250.000000	100.026	-18.0970
9380.000000	99.999	-19.4243
9500.000000	99.976	-22.3410
9620.000000	99.830	-27.0120
9750.000000	99.387	-33.5558
9880.000000	98.546	-40.4103
10000.000000	97.416	-45.7366
10150.000000	95.648	-49.8414
10300.000000	93.695	-50.8526
10440.000000	91.871	-49.4910
10600.000000	89.899	-45.9895
10750.000000	88.188	-41.3571
10900.000000	86.604	-35.7461
11060.000000	85.051	-28.8701
11200.000000	83.811	-22.2439
11380.000000	82.385	-13.1452
11500.000000	81.532	-6.8345
11720.000000	80.138	5.1964
11800.000000	79.689	9.6934
12060.000000	78.424	24.7341
12200.000000	77.857	33.0333
12410.000000	77.155	45.4313
12500.000000	76.906	50.7053
12650.000000	76.540	59.4832
12800.000000	76.213	68.3106
13150.000000	75.691	92.7298
13200.000000	75.827	97.5878
13400.000000	78.153	119.4252
13600.000000	81.161	127.9574
13800.000000	82.649	122.1053
14000.000000	83.908	116.3187
14300.000000	85.520	98.0385
14500.000000	85.084	79.2063
14750.000000	82.529	63.4464
15000.000000	78.999	61.4584
15250.000000	75.842	67.3956
15500.000000	73.582	76.2604
15750.000000	72.188	84.9445
16000.000000	71.484	90.6261
16250.000000	71.014	90.0628
16500.000000	69.871	83.6307
16750.000000	67.517	78.5883
17000.000000	64.326	77.8727
17250.000000	60.529	80.0284
17500.000000	56.315	59.2259
17750.000000	52.250	-92.2183
18000.000000	49.268	176.5728
18250.000000	47.951	-61.9873
18500.000000	47.934	34.3672
18750.000000	48.744	36.0068
19000.000000	50.146	-176.7866
19250.000000	52.066	-20.0957
19500.000000	53.939	-58.3164
19750.000000	55.278	-65.8052
20000.000000	55.873	-70.2964
