* Measurement data measured by REW V5.20.13
* Source: EXCL: Microphone(High Definition Audio Device), MICROPHONE (마스), R, volume: 1.000
* Format: 256k Log Swept Sine, 1 sweep at -12.0 dBFS with no timing reference
* Dated: 2023. 2. 25 오후 10:27:59
* REW Settings:
*  C-weighting compensation: Off
*  Target level: 75.0 dB
* Note: 
* Measurement: L_White
* Smoothing: 1/24 octave
* Frequency Step: 1/48 octave
* Start Frequency: 20.300 Hz
*
* Freq(Hz)	SPL(dB)	Phase(degrees)
20.299999	101.731	36.8199
20.600000	101.767	36.5433
20.900000	101.838	36.0355
21.200001	101.900	35.5145
21.400000	101.934	35.1595
21.799999	101.991	34.4258
22.000000	102.015	34.0529
22.400000	102.056	33.3260
22.700001	102.086	32.8058
23.000000	102.117	32.2971
23.299999	102.150	31.7824
23.600000	102.185	31.2504
24.000000	102.231	30.5120
24.299999	102.264	29.9517
24.700001	102.302	29.2264
25.000000	102.328	28.7167
25.400000	102.362	28.0937
25.799999	102.398	27.5330
26.200001	102.437	27.0192
26.500000	102.468	26.6486
26.900000	102.510	26.1508
27.200001	102.540	25.7618
27.600000	102.575	25.2176
28.000000	102.603	24.6593
28.500000	102.627	23.9802
29.000000	102.646	23.3413
29.500000	102.668	22.7013
30.000000	102.693	21.9911
30.400000	102.712	21.3612
30.700001	102.723	20.8682
31.100000	102.733	20.2093
31.500000	102.741	19.5586
32.000000	102.749	18.7470
32.500000	102.755	17.9336
33.000000	102.756	17.1600
33.500000	102.760	16.4816
34.000000	102.775	15.8997
34.500000	102.802	15.3433
35.000000	102.833	14.7522
35.500000	102.855	14.1419
36.000000	102.862	13.5849
36.500000	102.863	13.1342
37.000000	102.867	12.7700
37.500000	102.880	12.4136
38.200001	102.895	11.8226
38.700001	102.895	11.3660
39.500000	102.881	10.7224
40.000000	102.880	10.3507
40.599998	102.887	9.8398
41.200001	102.892	9.2413
41.799999	102.889	8.6329
42.500000	102.887	7.9691
43.099998	102.891	7.4096
43.700001	102.894	6.8508
44.400002	102.892	6.2307
45.000000	102.890	5.7260
45.500000	102.888	5.3141
46.200001	102.884	4.7642
46.799999	102.879	4.3278
47.500000	102.874	3.8257
48.200001	102.865	3.3152
48.700001	102.856	2.9660
49.400002	102.845	2.4993
50.000000	102.841	2.0752
50.799999	102.831	1.4610
51.500000	102.813	0.9502
52.200001	102.793	0.4855
53.000000	102.772	-0.0363
53.799999	102.749	-0.5366
54.500000	102.730	-0.9304
55.200001	102.722	-1.3256
56.000000	102.716	-1.8401
57.000000	102.690	-2.4765
58.000000	102.667	-2.9949
59.000000	102.653	-3.5631
60.000000	102.614	-4.1543
60.799999	102.576	-4.5165
61.500000	102.552	-4.7801
62.200001	102.535	-5.0627
63.000000	102.516	-5.4338
64.000000	102.489	-5.9214
65.000000	102.461	-6.4231
66.000000	102.427	-6.9305
67.000000	102.394	-7.3806
68.000000	102.368	-7.8260
69.000000	102.336	-8.2657
70.000000	102.303	-8.6544
71.000000	102.271	-9.0515
72.000000	102.232	-9.4487
73.000000	102.189	-9.8089
74.000000	102.149	-10.1614
75.000000	102.111	-10.5268
76.199997	102.068	-10.9830
77.500000	102.022	-11.4458
78.800003	101.984	-11.8614
80.000000	101.950	-12.2884
81.199997	101.907	-12.6984
82.500000	101.860	-13.0754
83.800003	101.814	-13.4142
85.000000	101.775	-13.7265
86.199997	101.735	-14.0783
87.500000	101.683	-14.4656
88.500000	101.643	-14.7315
90.000000	101.590	-15.1218
91.199997	101.547	-15.4288
92.500000	101.504	-15.7295
93.800003	101.468	-16.0290
95.000000	101.433	-16.3407
96.199997	101.390	-16.6297
97.500000	101.346	-16.8968
98.800003	101.300	-17.1660
100.000000	101.252	-17.3792
101.500000	101.196	-17.6127
103.000000	101.146	-17.8596
104.400002	101.103	-18.1230
106.000000	101.054	-18.4172
107.500000	101.008	-18.6719
109.000000	100.963	-18.8808
110.599998	100.919	-19.0937
112.000000	100.874	-19.3079
113.800003	100.809	-19.5661
115.000000	100.767	-19.7334
117.199997	100.695	-20.0580
118.000000	100.669	-20.1646
120.599998	100.591	-20.4564
122.000000	100.551	-20.6271
124.099998	100.485	-20.8791
125.000000	100.455	-20.9659
126.500000	100.407	-21.0897
128.000000	100.362	-21.2067
131.500000	100.263	-21.4919
132.000000	100.249	-21.5355
134.000000	100.192	-21.7072
136.000000	100.134	-21.8674
138.000000	100.073	-22.0145
140.000000	100.015	-22.1485
143.000000	99.931	-22.3166
145.000000	99.876	-22.4086
147.500000	99.811	-22.5300
150.000000	99.746	-22.6529
152.500000	99.682	-22.7676
155.000000	99.613	-22.8747
157.500000	99.550	-22.9533
160.000000	99.491	-23.0282
162.500000	99.429	-23.0635
165.000000	99.367	-23.0883
167.500000	99.305	-23.1301
170.000000	99.246	-23.1610
172.500000	99.189	-23.1662
175.000000	99.131	-23.1675
177.500000	99.075	-23.1724
180.000000	99.023	-23.1751
182.500000	98.971	-23.1348
185.000000	98.920	-23.0509
187.500000	98.872	-22.9990
190.000000	98.825	-22.9989
192.500000	98.777	-22.9837
195.000000	98.730	-22.9333
197.500000	98.689	-22.8750
200.000000	98.652	-22.8330
203.000000	98.610	-22.7896
206.000000	98.564	-22.7529
209.000000	98.515	-22.7454
212.000000	98.471	-22.7364
214.000000	98.443	-22.7171
218.000000	98.382	-22.6540
220.000000	98.350	-22.6346
224.000000	98.288	-22.6035
227.000000	98.249	-22.5601
230.000000	98.210	-22.5343
233.000000	98.166	-22.4940
236.000000	98.122	-22.4279
240.000000	98.061	-22.3389
243.000000	98.011	-22.2538
247.000000	97.946	-22.1521
250.000000	97.901	-22.0884
254.000000	97.835	-21.9548
258.000000	97.771	-21.7947
262.000000	97.714	-21.6835
265.000000	97.676	-21.5885
269.000000	97.629	-21.4134
272.000000	97.594	-21.2845
276.000000	97.549	-21.1362
280.000000	97.509	-20.9837
285.000000	97.457	-20.8144
290.000000	97.397	-20.6291
295.000000	97.339	-20.3912
300.000000	97.293	-20.1639
304.000000	97.263	-20.0202
307.000000	97.242	-19.9025
311.000000	97.212	-19.6910
315.000000	97.182	-19.4927
320.000000	97.142	-19.2761
325.000000	97.102	-19.0323
330.000000	97.065	-18.7585
335.000000	97.024	-18.5091
340.000000	96.982	-18.2804
345.000000	96.942	-18.0367
350.000000	96.900	-17.8223
355.000000	96.861	-17.6079
360.000000	96.828	-17.3575
365.000000	96.793	-17.0780
370.000000	96.757	-16.7934
375.000000	96.725	-16.5376
382.000000	96.679	-16.2196
387.000000	96.650	-15.9827
395.000000	96.602	-15.5533
400.000000	96.575	-15.2756
406.000000	96.542	-14.9858
412.000000	96.508	-14.6631
418.000000	96.476	-14.3349
425.000000	96.437	-13.9985
431.000000	96.398	-13.6983
437.000000	96.368	-13.3392
444.000000	96.340	-12.9275
450.000000	96.322	-12.6325
455.000000	96.312	-12.3975
462.000000	96.300	-12.0350
468.000000	96.281	-11.7142
475.000000	96.254	-11.3505
482.000000	96.228	-10.9909
487.000000	96.206	-10.7332
494.000000	96.182	-10.3532
500.000000	96.169	-10.0305
508.000000	96.153	-9.6185
515.000000	96.140	-9.2210
522.000000	96.124	-8.8195
530.000000	96.104	-8.3894
538.000000	96.095	-7.9537
545.000000	96.083	-7.5569
552.000000	96.068	-7.1476
560.000000	96.055	-6.6987
570.000000	96.045	-6.1498
580.000000	96.039	-5.6148
590.000000	96.029	-5.0831
600.000000	96.022	-4.5131
608.000000	96.019	-4.0331
615.000000	96.014	-3.6037
622.000000	96.010	-3.1852
630.000000	96.008	-2.7263
640.000000	96.008	-2.1558
650.000000	96.009	-1.5794
660.000000	96.014	-0.9957
670.000000	96.020	-0.4097
680.000000	96.028	0.1774
690.000000	96.036	0.7556
700.000000	96.041	1.3217
710.000000	96.052	1.9019
720.000000	96.063	2.5053
730.000000	96.079	3.1013
740.000000	96.098	3.6955
750.000000	96.122	4.2966
762.000000	96.155	5.0320
775.000000	96.197	5.8257
788.000000	96.242	6.5800
800.000000	96.279	7.2606
812.000000	96.311	7.9609
825.000000	96.357	8.7205
838.000000	96.411	9.4957
850.000000	96.467	10.1949
862.000000	96.529	10.8581
875.000000	96.601	11.5497
885.000000	96.658	12.0580
900.000000	96.750	12.8265
912.000000	96.826	13.4414
925.000000	96.907	14.0681
938.000000	96.992	14.6689
950.000000	97.075	15.1841
962.000000	97.161	15.6731
975.000000	97.254	16.1774
988.000000	97.351	16.6834
1000.000000	97.444	17.1248
1015.000000	97.563	17.6208
1030.000000	97.684	18.0734
1044.000000	97.795	18.4763
1060.000000	97.917	18.9081
1075.000000	98.028	19.2568
1090.000000	98.144	19.5915
1106.000000	98.277	19.9275
1120.000000	98.393	20.1703
1138.000000	98.539	20.4539
1150.000000	98.637	20.6553
1172.000000	98.822	21.0081
1180.000000	98.889	21.1234
1206.000000	99.097	21.4873
1220.000000	99.207	21.6797
1241.000000	99.380	21.9293
1250.000000	99.457	22.0160
1265.000000	99.585	22.1232
1280.000000	99.710	22.1967
1315.000000	99.986	22.3776
1320.000000	100.026	22.4074
1340.000000	100.179	22.5232
1360.000000	100.329	22.6232
1380.000000	100.482	22.7071
1400.000000	100.643	22.7812
1430.000000	100.887	22.8812
1450.000000	101.049	22.9313
1475.000000	101.256	22.9448
1500.000000	101.466	22.9207
1525.000000	101.677	22.8718
1550.000000	101.889	22.7939
1575.000000	102.104	22.6539
1600.000000	102.323	22.4500
1625.000000	102.543	22.2113
1650.000000	102.763	21.9297
1675.000000	102.983	21.5737
1700.000000	103.200	21.1538
1725.000000	103.414	20.6794
1750.000000	103.624	20.1480
1775.000000	103.833	19.5474
1800.000000	104.041	18.8773
1825.000000	104.243	18.1473
1850.000000	104.441	17.3512
1875.000000	104.633	16.4797
1900.000000	104.821	15.5374
1925.000000	105.000	14.5318
1950.000000	105.170	13.4649
1975.000000	105.332	12.3394
2000.000000	105.482	11.1639
2030.000000	105.646	9.6985
2060.000000	105.793	8.1832
2090.000000	105.922	6.6278
2120.000000	106.031	5.0408
2140.000000	106.095	3.9686
2180.000000	106.196	1.8072
2200.000000	106.233	0.7360
2240.000000	106.281	-1.3631
2270.000000	106.297	-2.8948
2300.000000	106.298	-4.3827
2330.000000	106.284	-5.8162
2360.000000	106.256	-7.1811
2400.000000	106.202	-8.8887
2430.000000	106.151	-10.0886
2470.000000	106.070	-11.5677
2500.000000	106.002	-12.5827
2540.000000	105.904	-13.8086
2580.000000	105.801	-14.8936
2620.000000	105.694	-15.8486
2650.000000	105.613	-16.4816
2690.000000	105.505	-17.2218
2720.000000	105.425	-17.7050
2760.000000	105.321	-18.2590
2800.000000	105.221	-18.7134
2850.000000	105.105	-19.1595
2900.000000	105.001	-19.4929
2950.000000	104.909	-19.7264
3000.000000	104.831	-19.8780
3040.000000	104.780	-19.9591
3070.000000	104.749	-20.0036
3110.000000	104.714	-20.0468
3150.000000	104.689	-20.0737
3200.000000	104.669	-20.0887
3250.000000	104.663	-20.1097
3300.000000	104.670	-20.1626
3350.000000	104.692	-20.2636
3400.000000	104.725	-20.4318
3450.000000	104.771	-20.6897
3500.000000	104.827	-21.0404
3550.000000	104.886	-21.4787
3600.000000	104.945	-22.0024
3650.000000	105.001	-22.6115
3700.000000	105.053	-23.3027
3750.000000	105.098	-24.0776
3820.000000	105.145	-25.3001
3870.000000	105.161	-26.2650
3950.000000	105.153	-27.9420
4000.000000	105.125	-29.0672
4060.000000	105.066	-30.4667
4120.000000	104.977	-31.8887
4180.000000	104.859	-33.3051
4250.000000	104.682	-34.9049
4310.000000	104.493	-36.1960
4370.000000	104.269	-37.3784
4440.000000	103.971	-38.5932
4500.000000	103.691	-39.4640
4550.000000	103.444	-40.0617
4620.000000	103.081	-40.6979
4680.000000	102.759	-41.0456
4750.000000	102.373	-41.2284
4820.000000	101.981	-41.1706
4870.000000	101.698	-40.9735
4940.000000	101.302	-40.4877
5000.000000	100.964	-39.8882
5080.000000	100.525	-38.8341
5150.000000	100.155	-37.6875
5220.000000	99.800	-36.3559
5300.000000	99.416	-34.6359
5380.000000	99.057	-32.7231
5450.000000	98.761	-30.9089
5520.000000	98.484	-28.9782
5600.000000	98.191	-26.6411
5700.000000	97.857	-23.5481
5800.000000	97.563	-20.2691
5900.000000	97.312	-16.8083
6000.000000	97.104	-13.1749
6080.000000	96.973	-10.1492
6150.000000	96.888	-7.4246
6220.000000	96.831	-4.6350
6300.000000	96.801	-1.3665
6400.000000	96.820	2.8298
6500.000000	96.911	7.0945
6600.000000	97.083	11.3501
6700.000000	97.339	15.5503
6800.000000	97.687	19.6146
6900.000000	98.143	23.4693
7000.000000	98.713	27.0665
7100.000000	99.390	30.2987
7200.000000	100.173	33.0159
7300.000000	101.059	35.0479
7400.000000	102.047	36.2210
7500.000000	103.132	36.2762
7620.000000	104.539	34.3248
7750.000000	106.031	28.7992
7880.000000	107.128	19.1038
8000.000000	107.523	7.4604
8120.000000	107.227	-4.1092
8250.000000	106.295	-13.5697
8380.000000	105.084	-18.8000
8500.000000	104.004	-20.5198
8620.000000	103.123	-20.2832
8750.000000	102.475	-19.0874
8850.000000	102.175	-18.2661
9000.000000	101.951	-17.8186
9120.000000	101.926	-18.4571
9250.000000	101.995	-20.7630
9380.000000	102.030	-25.3211
9500.000000	101.861	-31.5459
9620.000000	101.352	-38.9252
9750.000000	100.344	-46.6051
9880.000000	98.917	-52.3276
10000.000000	97.362	-55.1868
10150.000000	95.316	-55.6421
10300.000000	93.343	-53.3999
10440.000000	91.653	-49.6390
10600.000000	89.919	-44.0623
10750.000000	88.471	-37.9485
10900.000000	87.180	-31.1541
11060.000000	85.963	-23.3034
11200.000000	85.035	-16.0528
11380.000000	84.033	-6.3807
11500.000000	83.482	0.2197
11720.000000	82.713	12.4003
11800.000000	82.512	16.8228
12060.000000	82.163	31.0401
12200.000000	82.187	38.4943
12410.000000	82.564	48.9259
12500.000000	82.889	52.8408
12650.000000	83.687	57.8581
12800.000000	84.722	59.4542
13150.000000	85.506	43.5585
13200.000000	85.135	41.5562
13400.000000	83.208	48.2709
13600.000000	84.391	61.4437
13800.000000	85.621	48.4269
14000.000000	84.035	29.9804
14300.000000	79.186	27.9443
14500.000000	76.370	35.5182
14750.000000	73.801	47.8015
15000.000000	71.978	61.3748
15250.000000	70.756	75.3442
15500.000000	70.197	88.6092
15750.000000	70.387	100.0612
16000.000000	71.308	106.8334
16250.000000	72.431	103.4698
16500.000000	72.362	88.4621
16750.000000	70.161	74.8993
17000.000000	66.399	73.4784
17250.000000	62.163	82.3477
17500.000000	58.100	99.2858
17750.000000	54.753	124.1522
18000.000000	53.000	153.5479
18250.000000	53.392	-179.7611
18500.000000	54.989	-163.6591
18750.000000	55.970	-163.1721
19000.000000	55.286	-172.4681
19250.000000	53.193	145.8149
19500.000000	50.704	-96.1004
19750.000000	48.794	-79.7888
20000.000000	47.890	-74.9174
