* Measurement data measured by REW V5.20.13
* Source: EXCL: Microphone(High Definition Audio Device), MICROPHONE (마스), R, volume: 1.000
* Format: 256k Log Swept Sine, 1 sweep at -12.0 dBFS with no timing reference
* Dated: 2023. 2. 25 오후 10:21:12
* REW Settings:
*  C-weighting compensation: Off
*  Target level: 75.0 dB
* Note: 
* Measurement: R_Black
* Smoothing: 1/24 octave
* Frequency Step: 1/48 octave
* Start Frequency: 20.300 Hz
*
* Freq(Hz)	SPL(dB)	Phase(degrees)
20.299999	102.545	-145.4680
20.600000	102.573	-145.7677
20.900000	102.628	-146.3022
21.200001	102.672	-146.8094
21.400000	102.696	-147.1370
21.799999	102.736	-147.7981
22.000000	102.753	-148.1384
22.400000	102.782	-148.8244
22.700001	102.803	-149.3350
23.000000	102.824	-149.8448
23.299999	102.848	-150.3651
23.600000	102.874	-150.9083
24.000000	102.911	-151.6792
24.299999	102.940	-152.2860
24.700001	102.974	-153.1058
25.000000	102.997	-153.7045
25.400000	103.026	-154.4590
25.799999	103.057	-155.1598
26.200001	103.093	-155.8237
26.500000	103.120	-156.3093
26.900000	103.153	-156.9441
27.200001	103.174	-157.4035
27.600000	103.198	-157.9816
28.000000	103.222	-158.5210
28.500000	103.252	-159.1731
29.000000	103.276	-159.8338
29.500000	103.288	-160.4862
30.000000	103.291	-161.0940
30.400000	103.296	-161.5579
30.700001	103.303	-161.9153
31.100000	103.309	-162.4289
31.500000	103.306	-162.9744
32.000000	103.288	-163.6193
32.500000	103.267	-164.1354
33.000000	103.271	-164.5764
33.500000	103.304	-165.1122
34.000000	103.338	-165.8320
34.500000	103.348	-166.6092
35.000000	103.339	-167.2430
35.500000	103.343	-167.6836
36.000000	103.377	-168.0960
36.500000	103.425	-168.6478
37.000000	103.459	-169.3251
37.500000	103.466	-169.9761
38.200001	103.461	-170.6630
38.700001	103.467	-171.0481
39.500000	103.487	-171.6919
40.000000	103.497	-172.1302
40.599998	103.503	-172.6801
41.200001	103.502	-173.2625
41.799999	103.490	-173.8588
42.500000	103.464	-174.5095
43.099998	103.440	-174.9939
43.700001	103.420	-175.4191
44.400002	103.408	-175.9040
45.000000	103.405	-176.3819
45.500000	103.402	-176.8309
46.200001	103.390	-177.4581
46.799999	103.378	-177.9332
47.500000	103.373	-178.4636
48.200001	103.371	-179.0348
48.700001	103.366	-179.4411
49.400002	103.359	-179.9657
50.000000	103.359	179.5809
50.799999	103.356	178.9124
51.500000	103.334	178.3608
52.200001	103.307	177.9216
53.000000	103.285	177.4807
53.799999	103.268	176.9937
54.500000	103.245	176.5441
55.200001	103.221	176.1191
56.000000	103.197	175.6445
57.000000	103.165	175.0020
58.000000	103.125	174.3691
59.000000	103.085	173.8022
60.000000	103.048	173.2589
60.799999	103.023	172.8332
61.500000	103.003	172.4704
62.200001	102.984	172.1154
63.000000	102.960	171.7172
64.000000	102.928	171.2333
65.000000	102.888	170.7854
66.000000	102.846	170.3729
67.000000	102.804	169.9553
68.000000	102.759	169.5374
69.000000	102.717	169.1197
70.000000	102.678	168.6712
71.000000	102.638	168.2017
72.000000	102.595	167.7598
73.000000	102.556	167.3526
74.000000	102.517	166.9290
75.000000	102.470	166.5446
76.199997	102.421	166.1568
77.500000	102.372	165.7021
78.800003	102.317	165.2494
80.000000	102.264	164.8292
81.199997	102.210	164.4150
82.500000	102.152	164.0266
83.800003	102.098	163.6729
85.000000	102.046	163.3652
86.199997	101.994	163.0756
87.500000	101.935	162.7752
88.500000	101.894	162.5519
90.000000	101.835	162.2062
91.199997	101.785	161.9449
92.500000	101.733	161.7125
93.800003	101.690	161.4678
95.000000	101.648	161.2086
96.199997	101.601	160.9478
97.500000	101.552	160.6875
98.800003	101.509	160.4364
100.000000	101.471	160.1675
101.500000	101.412	159.8394
103.000000	101.349	159.5935
104.400002	101.294	159.3887
106.000000	101.233	159.1312
107.500000	101.178	158.8612
109.000000	101.122	158.5631
110.599998	101.057	158.2818
112.000000	100.998	158.0899
113.800003	100.925	157.8857
115.000000	100.876	157.7641
117.199997	100.784	157.5637
118.000000	100.750	157.5105
120.599998	100.638	157.3667
122.000000	100.571	157.3206
124.099998	100.472	157.4002
125.000000	100.439	157.4908
126.500000	100.397	157.6496
128.000000	100.364	157.8020
131.500000	100.312	158.1728
132.000000	100.309	158.2204
134.000000	100.318	158.3419
136.000000	100.344	158.2635
138.000000	100.362	158.0014
140.000000	100.363	157.6437
143.000000	100.326	157.0066
145.000000	100.284	156.5918
147.500000	100.220	156.1311
150.000000	100.149	155.7671
152.500000	100.075	155.5016
155.000000	99.997	155.2228
157.500000	99.920	154.9512
160.000000	99.846	154.7151
162.500000	99.768	154.5408
165.000000	99.686	154.4362
167.500000	99.612	154.3315
170.000000	99.546	154.1973
172.500000	99.479	154.1017
175.000000	99.408	154.0538
177.500000	99.336	153.9901
180.000000	99.265	153.9297
182.500000	99.202	153.8877
185.000000	99.139	153.8585
187.500000	99.074	153.8500
190.000000	99.007	153.8657
192.500000	98.944	153.8798
195.000000	98.884	153.8906
197.500000	98.825	153.9151
200.000000	98.764	153.9431
203.000000	98.695	153.9749
206.000000	98.640	154.0219
209.000000	98.589	154.0963
212.000000	98.526	154.1661
214.000000	98.482	154.2195
218.000000	98.408	154.3446
220.000000	98.373	154.4007
224.000000	98.294	154.4563
227.000000	98.233	154.4839
230.000000	98.175	154.5313
233.000000	98.120	154.6343
236.000000	98.073	154.7671
240.000000	98.010	154.9164
243.000000	97.961	155.0443
247.000000	97.896	155.2150
250.000000	97.841	155.3364
254.000000	97.772	155.4438
258.000000	97.712	155.5686
262.000000	97.650	155.7709
265.000000	97.602	155.9382
269.000000	97.540	156.1741
272.000000	97.500	156.3181
276.000000	97.452	156.4686
280.000000	97.403	156.6651
285.000000	97.338	156.9003
290.000000	97.275	157.1111
295.000000	97.210	157.3569
300.000000	97.148	157.6536
304.000000	97.106	157.9197
307.000000	97.077	158.0932
311.000000	97.036	158.2793
315.000000	96.998	158.4466
320.000000	96.950	158.6815
325.000000	96.905	158.9636
330.000000	96.860	159.3000
335.000000	96.816	159.5946
340.000000	96.771	159.8512
345.000000	96.730	160.1213
350.000000	96.684	160.4217
355.000000	96.635	160.7332
360.000000	96.596	161.0435
365.000000	96.557	161.3425
370.000000	96.513	161.6361
375.000000	96.470	161.9646
382.000000	96.418	162.4019
387.000000	96.385	162.7137
395.000000	96.333	163.2243
400.000000	96.303	163.5319
406.000000	96.272	163.9173
412.000000	96.243	164.2944
418.000000	96.211	164.6588
425.000000	96.168	165.0668
431.000000	96.129	165.4169
437.000000	96.096	165.8082
444.000000	96.063	166.2285
450.000000	96.039	166.5723
455.000000	96.021	166.8597
462.000000	95.994	167.2764
468.000000	95.969	167.6643
475.000000	95.940	168.1132
482.000000	95.921	168.5345
487.000000	95.906	168.8253
494.000000	95.883	169.2708
500.000000	95.868	169.6794
508.000000	95.847	170.2051
515.000000	95.830	170.6251
522.000000	95.816	171.0248
530.000000	95.800	171.4831
538.000000	95.789	171.9641
545.000000	95.780	172.4109
552.000000	95.773	172.8900
560.000000	95.764	173.4358
570.000000	95.752	174.0325
580.000000	95.742	174.6582
590.000000	95.730	175.3047
600.000000	95.725	175.9009
608.000000	95.724	176.4162
615.000000	95.724	176.8843
622.000000	95.724	177.3260
630.000000	95.731	177.8055
640.000000	95.737	178.3885
650.000000	95.735	178.9924
660.000000	95.741	179.6284
670.000000	95.756	-179.7059
680.000000	95.769	-179.0322
690.000000	95.778	-178.4129
700.000000	95.789	-177.7820
710.000000	95.803	-177.1307
720.000000	95.823	-176.5030
730.000000	95.847	-175.8776
740.000000	95.870	-175.2553
750.000000	95.894	-174.6395
762.000000	95.930	-173.8888
775.000000	95.971	-173.0315
788.000000	96.017	-172.1187
800.000000	96.062	-171.3547
812.000000	96.104	-170.6506
825.000000	96.152	-169.8844
838.000000	96.215	-169.1358
850.000000	96.282	-168.4390
862.000000	96.349	-167.7206
875.000000	96.424	-166.9746
885.000000	96.484	-166.4534
900.000000	96.580	-165.6807
912.000000	96.659	-165.0694
925.000000	96.751	-164.4188
938.000000	96.845	-163.7803
950.000000	96.932	-163.2319
962.000000	97.024	-162.7220
975.000000	97.126	-162.1913
988.000000	97.229	-161.6842
1000.000000	97.328	-161.2668
1015.000000	97.455	-160.7918
1030.000000	97.578	-160.3203
1044.000000	97.689	-159.9095
1060.000000	97.819	-159.4907
1075.000000	97.946	-159.1525
1090.000000	98.072	-158.8528
1106.000000	98.213	-158.5638
1120.000000	98.341	-158.3589
1138.000000	98.502	-158.1364
1150.000000	98.607	-158.0184
1172.000000	98.794	-157.8554
1180.000000	98.859	-157.8222
1206.000000	99.048	-157.7994
1220.000000	99.136	-157.7479
1241.000000	99.257	-157.5195
1250.000000	99.312	-157.3720
1265.000000	99.412	-157.1021
1280.000000	99.521	-156.8383
1315.000000	99.793	-156.3289
1320.000000	99.832	-156.2691
1340.000000	99.989	-156.0437
1360.000000	100.141	-155.8491
1380.000000	100.293	-155.6870
1400.000000	100.451	-155.5619
1430.000000	100.695	-155.3968
1450.000000	100.859	-155.3001
1475.000000	101.069	-155.2046
1500.000000	101.278	-155.1542
1525.000000	101.488	-155.1401
1550.000000	101.698	-155.1562
1575.000000	101.913	-155.2103
1600.000000	102.129	-155.3117
1625.000000	102.347	-155.4721
1650.000000	102.566	-155.6719
1675.000000	102.786	-155.9166
1700.000000	103.007	-156.2160
1725.000000	103.227	-156.5798
1750.000000	103.445	-157.0143
1775.000000	103.663	-157.5077
1800.000000	103.878	-158.0538
1825.000000	104.092	-158.6726
1850.000000	104.303	-159.3690
1875.000000	104.508	-160.1401
1900.000000	104.708	-160.9755
1925.000000	104.901	-161.8814
1950.000000	105.088	-162.8608
1975.000000	105.267	-163.9070
2000.000000	105.438	-165.0127
2030.000000	105.626	-166.4133
2060.000000	105.798	-167.8945
2090.000000	105.954	-169.4346
2120.000000	106.092	-171.0196
2140.000000	106.173	-172.1017
2180.000000	106.307	-174.3150
2200.000000	106.360	-175.4323
2240.000000	106.438	-177.6541
2270.000000	106.473	-179.2975
2300.000000	106.488	179.0944
2330.000000	106.486	177.5325
2360.000000	106.466	176.0285
2400.000000	106.417	174.1313
2430.000000	106.367	172.7999
2470.000000	106.282	171.1573
2500.000000	106.205	170.0334
2540.000000	106.092	168.6898
2580.000000	105.967	167.5225
2620.000000	105.837	166.5389
2650.000000	105.738	165.9256
2690.000000	105.609	165.2610
2720.000000	105.518	164.8676
2760.000000	105.408	164.4602
2800.000000	105.312	164.1479
2850.000000	105.210	163.8307
2900.000000	105.124	163.5394
2950.000000	105.048	163.2834
3000.000000	104.976	163.0627
3040.000000	104.924	162.9146
3070.000000	104.889	162.8300
3110.000000	104.849	162.7585
3150.000000	104.816	162.7185
3200.000000	104.788	162.6724
3250.000000	104.772	162.6068
3300.000000	104.761	162.5135
3350.000000	104.755	162.3909
3400.000000	104.754	162.2523
3450.000000	104.762	162.1045
3500.000000	104.779	161.9543
3550.000000	104.799	161.7997
3600.000000	104.824	161.6307
3650.000000	104.855	161.4466
3700.000000	104.892	161.2288
3750.000000	104.935	160.9662
3820.000000	104.999	160.4884
3870.000000	105.045	160.0508
3950.000000	105.108	159.1609
4000.000000	105.139	158.4802
4060.000000	105.161	157.5559
4120.000000	105.163	156.5350
4180.000000	105.142	155.4452
4250.000000	105.085	154.1436
4310.000000	105.006	153.0228
4370.000000	104.897	151.9181
4440.000000	104.736	150.6689
4500.000000	104.573	149.6464
4550.000000	104.420	148.8448
4620.000000	104.182	147.8296
4680.000000	103.958	147.0772
4750.000000	103.674	146.3527
4820.000000	103.371	145.8116
4870.000000	103.143	145.5431
4940.000000	102.811	145.3372
5000.000000	102.519	145.3254
5080.000000	102.123	145.5536
5150.000000	101.775	145.9771
5220.000000	101.427	146.6019
5300.000000	101.033	147.5642
5380.000000	100.647	148.7917
5450.000000	100.320	150.0767
5520.000000	100.007	151.5503
5600.000000	99.667	153.4516
5700.000000	99.273	156.1400
5800.000000	98.921	159.1428
5900.000000	98.619	162.4424
6000.000000	98.378	166.0195
6080.000000	98.243	169.0327
6150.000000	98.166	171.6765
6220.000000	98.117	174.2718
6300.000000	98.084	177.2370
6400.000000	98.085	-178.9568
6500.000000	98.145	-175.0498
6600.000000	98.273	-171.1003
6700.000000	98.478	-167.1434
6800.000000	98.770	-163.2259
6900.000000	99.171	-159.4008
7000.000000	99.692	-155.7309
7100.000000	100.330	-152.3158
7200.000000	101.090	-149.2925
7300.000000	101.983	-146.8154
7400.000000	103.025	-145.1082
7500.000000	104.229	-144.5545
7620.000000	105.869	-146.2513
7750.000000	107.669	-152.4901
7880.000000	108.996	-164.5026
8000.000000	109.397	-179.3215
8120.000000	108.890	166.3759
8250.000000	107.603	155.4472
8380.000000	106.048	149.8672
8500.000000	104.709	148.1271
8620.000000	103.596	148.3234
8750.000000	102.664	149.6412
8850.000000	102.131	150.9296
9000.000000	101.607	152.6326
9120.000000	101.388	153.2751
9250.000000	101.288	152.7015
9380.000000	101.229	150.3521
9500.000000	101.087	146.4225
9620.000000	100.735	141.0881
9750.000000	100.010	134.6944
9880.000000	98.906	129.0397
10000.000000	97.614	125.4118
10150.000000	95.794	123.4608
10300.000000	93.926	124.0431
10440.000000	92.234	126.3013
10600.000000	90.400	130.4300
10750.000000	88.789	135.5442
10900.000000	87.297	141.6404
11060.000000	85.841	148.9910
11200.000000	84.679	155.9723
11380.000000	83.314	165.5265
11500.000000	82.469	172.3007
11720.000000	81.001	-173.9849
11800.000000	80.478	-168.2455
12060.000000	79.289	-143.1969
12200.000000	80.085	-126.3450
12410.000000	82.627	-112.8305
12500.000000	83.260	-113.2708
12650.000000	83.479	-115.4947
12800.000000	83.235	-114.3459
13150.000000	83.573	-103.2068
13200.000000	83.795	-101.6893
13400.000000	85.053	-97.8795
13600.000000	86.578	-100.3206
13800.000000	87.590	-111.6015
14000.000000	87.304	-128.2499
14300.000000	84.358	-144.3108
14500.000000	81.672	-144.8908
14750.000000	78.612	-138.8281
15000.000000	76.237	-129.3146
15250.000000	74.524	-118.2872
15500.000000	73.522	-106.9766
15750.000000	73.339	-97.4024
16000.000000	73.830	-93.0155
16250.000000	74.252	-97.9422
16500.000000	73.526	-109.7550
16750.000000	71.427	-120.0535
17000.000000	68.305	-124.7509
17250.000000	64.434	-121.3769
17500.000000	60.370	-110.8093
17750.000000	56.595	-96.7343
18000.000000	53.273	-97.3862
18250.000000	50.662	144.2615
18500.000000	48.891	41.3874
18750.000000	47.939	-85.3464
19000.000000	48.275	77.1726
19250.000000	49.368	77.4878
19500.000000	49.766	-58.0330
19750.000000	49.050	-126.8340
20000.000000	48.124	-99.4565
