* Measurement data measured by REW V5.20.9
* Source: Mic in at rear panel (Pink)(Realtek(R) Audio), MICROPHONE (마스), R, volume: 0.250
* Format: 256k Log Swept Sine, 1 sweep at -12.0 dBFS with no timing reference
* Dated: 2022. 9. 16 오후 11:59:12
* REW Settings:
*  C-weighting compensation: Off
*  Target level: 75.0 dB
* Note: 
* Measurement: L_Treble
* Smoothing: 1/24 octave
* Frequency Step: 1/48 octave
* Start Frequency: 20.300 Hz
*
* Freq(Hz)	SPL(dB)	Phase(degrees)
20.299999	61.189	-139.2607
20.600000	61.078	-139.0419
20.900000	60.908	-138.3991
21.200001	60.906	-137.2675
21.400000	61.009	-136.6381
21.799999	61.355	-136.4015
22.000000	61.531	-136.9915
22.400000	61.759	-139.3807
22.700001	61.771	-141.5774
23.000000	61.649	-143.4176
23.299999	61.457	-144.4749
23.600000	61.275	-144.6948
24.000000	61.167	-144.1032
24.299999	61.222	-143.6335
24.700001	61.410	-143.6895
25.000000	61.550	-144.3631
25.400000	61.654	-145.7320
25.799999	61.656	-146.9217
26.200001	61.629	-147.4889
26.500000	61.642	-147.6003
26.900000	61.728	-147.7414
27.200001	61.817	-148.1275
27.600000	61.901	-149.1090
28.000000	61.882	-150.2439
28.500000	61.726	-150.8997
29.000000	61.595	-150.1384
29.500000	61.685	-148.7537
30.000000	61.979	-148.3620
30.400000	62.211	-149.3275
30.700001	62.310	-150.6492
31.100000	62.299	-152.6078
31.500000	62.141	-154.1110
32.000000	61.860	-154.6395
32.500000	61.682	-153.8348
33.000000	61.726	-152.8266
33.500000	61.931	-152.7103
34.000000	62.136	-153.8554
34.500000	62.217	-155.8433
35.000000	62.131	-157.9450
35.500000	61.904	-159.3812
36.000000	61.621	-159.6382
36.500000	61.411	-158.7230
37.000000	61.382	-157.2833
37.500000	61.534	-156.2034
38.200001	61.854	-156.2526
38.700001	62.027	-157.2434
39.500000	62.124	-159.3148
40.000000	62.093	-160.4604
40.599998	61.996	-161.4153
41.200001	61.881	-161.7339
41.799999	61.816	-161.5085
42.500000	61.851	-161.1377
43.099998	61.930	-161.1861
43.700001	61.989	-161.5403
44.400002	62.013	-161.9747
45.000000	62.021	-162.1958
45.500000	62.034	-162.3273
46.200001	62.062	-162.5466
46.799999	62.088	-162.7619
47.500000	62.133	-162.9887
48.200001	62.222	-163.3703
48.700001	62.301	-163.9425
49.400002	62.370	-165.2553
50.000000	62.342	-166.5713
50.799999	62.177	-167.8232
51.500000	61.988	-167.9638
52.200001	61.858	-167.2766
53.000000	61.846	-166.0653
53.799999	61.963	-165.0629
54.500000	62.125	-164.6350
55.200001	62.310	-164.7980
56.000000	62.481	-165.8883
57.000000	62.487	-168.0712
58.000000	62.275	-169.5279
59.000000	62.088	-169.7220
60.000000	62.050	-169.7526
60.799999	62.072	-170.0796
61.500000	62.099	-170.4996
62.200001	62.124	-170.9677
63.000000	62.138	-171.4948
64.000000	62.117	-171.9273
65.000000	62.072	-171.8218
66.000000	62.070	-171.2304
67.000000	62.139	-170.6922
68.000000	62.226	-170.6203
69.000000	62.282	-170.9564
70.000000	62.297	-171.4561
71.000000	62.300	-171.9623
72.000000	62.304	-172.5450
73.000000	62.290	-173.1749
74.000000	62.252	-173.6212
75.000000	62.219	-173.7377
76.199997	62.235	-173.6186
77.500000	62.321	-173.7544
78.800003	62.398	-174.4627
80.000000	62.409	-175.3632
81.199997	62.369	-176.1055
82.500000	62.319	-176.5157
83.800003	62.298	-176.7081
85.000000	62.292	-176.8338
86.199997	62.295	-176.9520
87.500000	62.307	-177.2142
88.500000	62.307	-177.6000
90.000000	62.262	-178.2628
91.199997	62.207	-178.6187
92.500000	62.159	-178.7903
93.800003	62.135	-178.8285
95.000000	62.129	-178.8012
96.199997	62.134	-178.7386
97.500000	62.156	-178.6652
98.800003	62.198	-178.7132
100.000000	62.237	-178.9630
101.500000	62.248	-179.4480
103.000000	62.219	-179.8319
104.400002	62.187	179.9750
106.000000	62.174	179.7617
107.500000	62.174	179.3753
109.000000	62.157	178.8862
110.599998	62.125	178.5084
112.000000	62.109	178.3590
113.800003	62.125	178.2231
115.000000	62.147	178.0245
117.199997	62.166	177.4893
118.000000	62.165	177.2820
120.599998	62.123	176.7824
122.000000	62.102	176.7125
124.099998	62.098	176.4846
125.000000	62.096	176.3041
126.500000	62.087	175.9599
128.000000	62.080	175.6463
131.500000	62.074	175.1590
132.000000	62.072	175.1175
134.000000	62.063	174.9594
136.000000	62.056	174.7583
138.000000	62.054	174.4973
140.000000	62.048	174.2267
143.000000	62.011	173.9231
145.000000	61.984	173.7596
147.500000	61.983	173.4781
150.000000	61.982	173.0736
152.500000	61.949	172.7692
155.000000	61.913	172.5090
157.500000	61.892	172.2311
160.000000	61.876	172.0261
162.500000	61.847	171.8448
165.000000	61.813	171.5401
167.500000	61.791	171.0933
170.000000	61.781	170.6548
172.500000	61.769	170.3530
175.000000	61.751	170.1273
177.500000	61.718	169.9078
180.000000	61.686	169.6676
182.500000	61.660	169.3470
185.000000	61.636	169.0457
187.500000	61.614	168.8148
190.000000	61.588	168.5934
192.500000	61.555	168.3323
195.000000	61.516	167.9957
197.500000	61.475	167.6272
200.000000	61.437	167.2807
203.000000	61.395	166.9105
206.000000	61.354	166.5479
209.000000	61.311	166.1742
212.000000	61.256	165.7839
214.000000	61.205	165.5110
218.000000	61.083	164.9365
220.000000	61.021	164.6314
224.000000	60.874	164.0551
227.000000	60.717	163.7556
230.000000	60.524	163.5950
233.000000	60.297	163.6873
236.000000	60.050	164.2998
240.000000	59.770	166.1774
243.000000	59.668	168.2732
247.000000	59.724	171.1508
250.000000	59.889	172.6925
254.000000	60.169	173.6388
258.000000	60.415	173.6483
262.000000	60.593	173.1659
265.000000	60.677	172.7133
269.000000	60.737	172.1211
272.000000	60.773	171.6680
276.000000	60.814	171.0997
280.000000	60.823	170.6508
285.000000	60.821	170.1478
290.000000	60.815	169.6728
295.000000	60.785	169.2586
300.000000	60.750	168.9344
304.000000	60.733	168.7184
307.000000	60.719	168.5628
311.000000	60.696	168.3542
315.000000	60.667	168.1640
320.000000	60.626	167.9955
325.000000	60.590	167.8708
330.000000	60.555	167.7573
335.000000	60.514	167.6490
340.000000	60.471	167.5475
345.000000	60.426	167.4702
350.000000	60.379	167.3783
355.000000	60.333	167.3207
360.000000	60.287	167.3276
365.000000	60.246	167.2960
370.000000	60.203	167.2851
375.000000	60.162	167.3294
382.000000	60.107	167.4949
387.000000	60.063	167.6447
395.000000	59.994	167.8793
400.000000	59.957	168.0197
406.000000	59.922	168.1983
412.000000	59.887	168.4424
418.000000	59.860	168.7286
425.000000	59.844	169.0065
431.000000	59.842	169.1755
437.000000	59.844	169.2903
444.000000	59.851	169.3731
450.000000	59.864	169.3973
455.000000	59.873	169.3439
462.000000	59.869	169.1997
468.000000	59.854	169.0762
475.000000	59.832	168.8527
482.000000	59.802	168.6512
487.000000	59.771	168.6339
494.000000	59.715	168.6607
500.000000	59.666	168.6546
508.000000	59.610	168.6617
515.000000	59.558	168.7202
522.000000	59.506	168.8066
530.000000	59.447	168.9155
538.000000	59.390	169.0110
545.000000	59.348	169.1591
552.000000	59.307	169.3352
560.000000	59.252	169.5154
570.000000	59.174	169.7052
580.000000	59.102	169.9879
590.000000	59.029	170.3438
600.000000	58.965	170.8120
608.000000	58.911	171.1870
615.000000	58.871	171.5066
622.000000	58.836	171.8066
630.000000	58.792	172.1432
640.000000	58.734	172.6437
650.000000	58.679	173.1847
660.000000	58.628	173.6911
670.000000	58.579	174.1940
680.000000	58.537	174.7156
690.000000	58.494	175.2853
700.000000	58.455	175.8853
710.000000	58.420	176.4878
720.000000	58.387	177.0471
730.000000	58.355	177.6105
740.000000	58.328	178.2318
750.000000	58.302	178.8618
762.000000	58.270	179.5855
775.000000	58.240	-179.6129
788.000000	58.219	-178.7879
800.000000	58.202	-177.9762
812.000000	58.189	-177.1105
825.000000	58.180	-176.2203
838.000000	58.186	-175.3794
850.000000	58.196	-174.5754
862.000000	58.206	-173.7849
875.000000	58.225	-172.8878
885.000000	58.242	-172.1897
900.000000	58.270	-171.2155
912.000000	58.304	-170.4836
925.000000	58.345	-169.6622
938.000000	58.389	-168.7921
950.000000	58.435	-168.0122
962.000000	58.487	-167.2972
975.000000	58.547	-166.5743
988.000000	58.608	-165.8795
1000.000000	58.667	-165.2486
1015.000000	58.746	-164.4081
1030.000000	58.837	-163.6046
1044.000000	58.921	-162.9282
1060.000000	59.011	-162.2359
1075.000000	59.099	-161.6231
1090.000000	59.196	-161.0305
1106.000000	59.304	-160.4686
1120.000000	59.399	-160.0104
1138.000000	59.522	-159.4442
1150.000000	59.607	-159.0845
1172.000000	59.759	-158.4650
1180.000000	59.811	-158.2395
1206.000000	59.978	-157.5435
1220.000000	60.069	-157.1978
1241.000000	60.204	-156.6939
1250.000000	60.262	-156.4807
1265.000000	60.358	-156.1389
1280.000000	60.450	-155.8322
1315.000000	60.650	-155.0918
1320.000000	60.678	-154.9716
1340.000000	60.792	-154.4786
1360.000000	60.902	-154.0057
1380.000000	61.016	-153.5525
1400.000000	61.139	-153.0861
1430.000000	61.330	-152.3559
1450.000000	61.458	-151.8669
1475.000000	61.626	-151.3052
1500.000000	61.795	-150.7679
1525.000000	61.977	-150.2357
1550.000000	62.169	-149.7345
1575.000000	62.363	-149.2754
1600.000000	62.560	-148.8914
1625.000000	62.761	-148.5678
1650.000000	62.967	-148.2902
1675.000000	63.172	-148.1045
1700.000000	63.375	-147.9904
1725.000000	63.573	-147.9266
1750.000000	63.771	-147.9364
1775.000000	63.966	-148.0162
1800.000000	64.153	-148.1335
1825.000000	64.332	-148.3019
1850.000000	64.503	-148.5261
1875.000000	64.667	-148.7789
1900.000000	64.824	-149.0542
1925.000000	64.976	-149.3466
1950.000000	65.123	-149.6478
1975.000000	65.264	-149.9529
2000.000000	65.398	-150.2576
2030.000000	65.553	-150.6252
2060.000000	65.704	-151.0033
2090.000000	65.850	-151.3731
2120.000000	65.992	-151.7521
2140.000000	66.085	-152.0077
2180.000000	66.265	-152.5129
2200.000000	66.352	-152.7700
2240.000000	66.526	-153.3083
2270.000000	66.652	-153.7111
2300.000000	66.777	-154.1114
2330.000000	66.901	-154.5286
2360.000000	67.023	-154.9645
2400.000000	67.182	-155.5692
2430.000000	67.298	-156.0429
2470.000000	67.446	-156.6993
2500.000000	67.555	-157.2037
2540.000000	67.695	-157.9213
2580.000000	67.828	-158.6853
2620.000000	67.955	-159.4682
2650.000000	68.044	-160.0698
2690.000000	68.155	-160.8926
2720.000000	68.231	-161.5279
2760.000000	68.322	-162.3978
2800.000000	68.404	-163.2795
2850.000000	68.488	-164.4003
2900.000000	68.555	-165.5164
2950.000000	68.605	-166.6165
3000.000000	68.634	-167.6764
3040.000000	68.648	-168.4756
3070.000000	68.653	-169.0532
3110.000000	68.655	-169.7872
3150.000000	68.651	-170.4755
3200.000000	68.641	-171.2927
3250.000000	68.625	-172.0714
3300.000000	68.597	-172.8106
3350.000000	68.558	-173.5068
3400.000000	68.510	-174.1371
3450.000000	68.460	-174.6854
3500.000000	68.410	-175.1638
3550.000000	68.355	-175.5813
3600.000000	68.293	-175.9464
3650.000000	68.227	-176.2665
3700.000000	68.153	-176.5308
3750.000000	68.067	-176.7195
3820.000000	67.927	-176.7937
3870.000000	67.819	-176.6634
3950.000000	67.659	-176.1338
4000.000000	67.574	-175.6996
4060.000000	67.487	-175.1363
4120.000000	67.408	-174.5086
4180.000000	67.339	-173.8017
4250.000000	67.279	-172.8808
4310.000000	67.247	-172.0632
4370.000000	67.227	-171.2880
4440.000000	67.208	-170.4768
4500.000000	67.191	-169.8378
4550.000000	67.180	-169.3265
4620.000000	67.166	-168.6339
4680.000000	67.155	-168.0432
4750.000000	67.144	-167.3592
4820.000000	67.136	-166.6939
4870.000000	67.132	-166.2196
4940.000000	67.127	-165.5516
5000.000000	67.126	-164.9955
5080.000000	67.130	-164.3062
5150.000000	67.135	-163.7475
5220.000000	67.142	-163.2085
5300.000000	67.152	-162.6276
5380.000000	67.164	-162.1009
5450.000000	67.174	-161.6924
5520.000000	67.180	-161.3262
5600.000000	67.180	-160.9508
5700.000000	67.169	-160.5272
5800.000000	67.145	-160.1108
5900.000000	67.112	-159.6720
6000.000000	67.075	-159.2041
6080.000000	67.042	-158.8316
6150.000000	67.011	-158.5036
6220.000000	66.979	-158.1621
6300.000000	66.937	-157.7548
6400.000000	66.881	-157.2200
6500.000000	66.822	-156.6426
6600.000000	66.763	-156.0157
6700.000000	66.706	-155.3439
6800.000000	66.658	-154.6348
6900.000000	66.639	-153.8867
7000.000000	66.648	-153.1139
7100.000000	66.677	-152.3317
7200.000000	66.731	-151.5798
7300.000000	66.813	-150.9632
7400.000000	66.913	-150.5777
7500.000000	67.021	-150.4662
7620.000000	67.163	-150.7135
7750.000000	67.316	-151.4896
7880.000000	67.383	-152.8621
8000.000000	67.358	-154.7381
8120.000000	67.241	-157.1655
8250.000000	66.977	-160.2575
8380.000000	66.536	-163.5250
8500.000000	65.956	-166.3826
8620.000000	65.214	-168.7731
8750.000000	64.245	-170.4945
8850.000000	63.412	-171.0396
9000.000000	62.085	-170.4494
9120.000000	61.011	-168.7995
9250.000000	59.875	-166.0186
9380.000000	58.793	-162.3947
9500.000000	57.857	-158.4689
9620.000000	56.984	-154.1227
9750.000000	56.106	-149.0391
9880.000000	55.297	-143.6068
10000.000000	54.608	-138.3677
10150.000000	53.818	-131.6159
10300.000000	53.097	-124.6457
10440.000000	52.481	-117.9739
10600.000000	51.839	-110.0995
10750.000000	51.290	-102.6000
10900.000000	50.795	-95.0715
11060.000000	50.325	-86.8612
11200.000000	49.961	-79.6333
11380.000000	49.544	-70.3524
11500.000000	49.295	-64.1095
11720.000000	48.893	-52.5175
11800.000000	48.768	-48.2639
12060.000000	48.431	-34.1842
12200.000000	48.302	-26.4482
12410.000000	48.176	-14.7725
12500.000000	48.147	-9.7761
12650.000000	48.141	-1.5208
12800.000000	48.199	6.6887
13150.000000	48.576	25.7946
13200.000000	48.654	28.5038
13400.000000	49.044	39.2444
13600.000000	49.581	49.8238
13800.000000	50.295	60.2369
14000.000000	51.215	70.3403
14300.000000	53.068	84.4624
14500.000000	54.781	92.6842
14750.000000	57.675	99.5443
15000.000000	60.998	97.0931
15250.000000	63.166	78.1660
15500.000000	62.735	51.5324
15750.000000	60.069	37.7748
16000.000000	56.820	38.5673
16250.000000	54.163	46.3456
16500.000000	52.247	56.9187
16750.000000	50.846	68.7765
17000.000000	49.812	81.4454
17250.000000	49.117	94.4357
17500.000000	48.730	107.3583
17750.000000	48.592	120.1213
18000.000000	48.651	132.5502
18250.000000	48.877	144.4101
18500.000000	49.276	155.4707
18750.000000	49.842	165.3794
19000.000000	50.513	173.7025
19250.000000	51.174	179.8982
19500.000000	51.672	-176.3066
19750.000000	51.848	-174.5112
20000.000000	51.542	-173.4352
