* Measurement data measured by REW V5.20.13
* Source: EXCL: Mic in at rear panel (Pink)(Realtek(R) Audio), MICROPHONE (마스), L, volume: 0.500
* Format: 256k Log Swept Sine, 1 sweep at -12.0 dBFS with no timing reference
* Dated: 2022. 10. 1 오후 6:23:13
* REW Settings:
*  C-weighting compensation: Off
*  Target level: 75.0 dB
* Note: 
* Measurement: R_Sedna
* Smoothing: 1/24 octave
* Frequency Step: 1/48 octave
* Start Frequency: 20.300 Hz
*
* Freq(Hz)	SPL(dB)	Phase(degrees)
20.299999	70.437	-150.1770
20.600000	70.442	-150.7445
20.900000	70.431	-151.6717
21.200001	70.377	-152.2986
21.400000	70.332	-152.5166
21.799999	70.258	-152.6320
22.000000	70.243	-152.6325
22.400000	70.259	-152.7466
22.700001	70.291	-153.0456
23.000000	70.316	-153.5296
23.299999	70.327	-154.0933
23.600000	70.326	-154.6398
24.000000	70.322	-155.2479
24.299999	70.331	-155.6241
24.700001	70.367	-156.1101
25.000000	70.406	-156.5202
25.400000	70.457	-157.1351
25.799999	70.499	-157.7572
26.200001	70.531	-158.3163
26.500000	70.551	-158.6901
26.900000	70.570	-159.1515
27.200001	70.574	-159.4746
27.600000	70.559	-159.8359
28.000000	70.525	-160.0282
28.500000	70.481	-159.9514
29.000000	70.472	-159.6563
29.500000	70.508	-159.4507
30.000000	70.561	-159.5810
30.400000	70.585	-159.9249
30.700001	70.584	-160.2591
31.100000	70.557	-160.6895
31.500000	70.510	-160.9968
32.000000	70.454	-161.1243
32.500000	70.442	-161.0549
33.000000	70.493	-161.0728
33.500000	70.582	-161.4389
34.000000	70.652	-162.1612
34.500000	70.665	-162.9254
35.000000	70.638	-163.3656
35.500000	70.627	-163.3758
36.000000	70.672	-163.2336
36.500000	70.752	-163.3063
37.000000	70.807	-163.6774
37.500000	70.799	-164.0475
38.200001	70.740	-163.9436
38.700001	70.751	-163.5617
39.500000	70.860	-163.7583
40.000000	70.866	-164.5774
40.599998	70.738	-165.4950
41.200001	70.555	-165.5162
41.799999	70.477	-164.8674
42.500000	70.568	-164.4697
43.099998	70.693	-164.9538
43.700001	70.777	-165.9215
44.400002	70.803	-167.1678
45.000000	70.771	-167.9985
45.500000	70.733	-168.3612
46.200001	70.711	-168.4831
46.799999	70.720	-168.5646
47.500000	70.707	-168.6817
48.200001	70.675	-168.4782
48.700001	70.678	-168.2029
49.400002	70.708	-168.0334
50.000000	70.714	-168.0634
50.799999	70.722	-167.9390
51.500000	70.799	-167.9957
52.200001	70.886	-168.6969
53.000000	70.905	-169.7912
53.799999	70.899	-170.6370
54.500000	70.889	-171.4168
55.200001	70.817	-171.9834
56.000000	70.735	-171.6811
57.000000	70.827	-170.9601
58.000000	70.922	-171.2526
59.000000	70.908	-171.4371
60.000000	70.898	-171.6122
60.799999	70.850	-171.9060
61.500000	70.794	-171.9815
62.200001	70.770	-171.9823
63.000000	70.769	-172.1719
64.000000	70.753	-172.4846
65.000000	70.763	-172.5315
66.000000	70.816	-172.6529
67.000000	70.846	-172.8547
68.000000	70.863	-172.8530
69.000000	70.888	-172.8949
70.000000	70.882	-173.0735
71.000000	70.847	-173.1615
72.000000	70.819	-173.1600
73.000000	70.818	-173.2253
74.000000	70.823	-173.5664
75.000000	70.782	-173.9548
76.199997	70.743	-173.8724
77.500000	70.804	-173.9103
78.800003	70.839	-174.3902
80.000000	70.841	-174.7189
81.199997	70.847	-174.9583
82.500000	70.840	-175.2928
83.800003	70.792	-175.3835
85.000000	70.783	-175.1665
86.199997	70.815	-175.1683
87.500000	70.829	-175.4804
88.500000	70.818	-175.7054
90.000000	70.809	-175.9739
91.199997	70.805	-176.2713
92.500000	70.787	-176.5552
93.800003	70.782	-176.7141
95.000000	70.792	-176.9622
96.199997	70.786	-177.2285
97.500000	70.776	-177.4374
98.800003	70.761	-177.6102
100.000000	70.738	-177.6498
101.500000	70.743	-177.4747
103.000000	70.784	-177.6006
104.400002	70.789	-177.8491
106.000000	70.781	-177.9803
107.500000	70.783	-178.0044
109.000000	70.780	-178.0912
110.599998	70.760	-178.2110
112.000000	70.739	-178.3947
113.800003	70.713	-178.7398
115.000000	70.715	-178.9617
117.199997	70.775	-179.4436
118.000000	70.801	-179.6242
120.599998	70.809	179.8692
122.000000	70.755	-179.9998
124.099998	70.695	-179.6747
125.000000	70.674	-179.5989
126.500000	70.657	-179.4877
128.000000	70.674	-179.4510
131.500000	70.739	-179.7206
132.000000	70.741	-179.8001
134.000000	70.722	179.7968
136.000000	70.681	179.4365
138.000000	70.657	179.3501
140.000000	70.699	179.5217
143.000000	70.802	179.1019
145.000000	70.786	178.3380
147.500000	70.706	177.6502
150.000000	70.624	177.4019
152.500000	70.549	177.6228
155.000000	70.515	177.7904
157.500000	70.512	177.7346
160.000000	70.531	177.4288
162.500000	70.537	177.1397
165.000000	70.537	177.0403
167.500000	70.522	176.9858
170.000000	70.482	176.9819
172.500000	70.464	177.0905
175.000000	70.477	177.2420
177.500000	70.483	177.4064
180.000000	70.467	177.4462
182.500000	70.432	177.3112
185.000000	70.401	177.1747
187.500000	70.366	177.0188
190.000000	70.311	176.8255
192.500000	70.278	176.6274
195.000000	70.275	176.3951
197.500000	70.278	176.3342
200.000000	70.284	176.4081
203.000000	70.282	176.4193
206.000000	70.263	176.3337
209.000000	70.249	176.1619
212.000000	70.246	175.9385
214.000000	70.247	175.8619
218.000000	70.238	175.8217
220.000000	70.220	175.7877
224.000000	70.194	175.6623
227.000000	70.186	175.5821
230.000000	70.155	175.5932
233.000000	70.094	175.6243
236.000000	70.055	175.4250
240.000000	70.055	175.0092
243.000000	70.043	175.0038
247.000000	69.991	175.0980
250.000000	69.958	175.0248
254.000000	69.926	174.9154
258.000000	69.891	174.7873
262.000000	69.850	174.7553
265.000000	69.822	174.8683
269.000000	69.782	174.9090
272.000000	69.744	174.8035
276.000000	69.697	174.5444
280.000000	69.667	174.3276
285.000000	69.639	174.1722
290.000000	69.583	174.0714
295.000000	69.533	174.1866
300.000000	69.477	174.2964
304.000000	69.425	174.1893
307.000000	69.384	174.0093
311.000000	69.320	173.7519
315.000000	69.247	173.6026
320.000000	69.146	173.5349
325.000000	69.033	173.5850
330.000000	68.903	173.9091
335.000000	68.761	174.5717
340.000000	68.643	175.5495
345.000000	68.592	176.8790
350.000000	68.629	178.0653
355.000000	68.702	178.8713
360.000000	68.774	179.2580
365.000000	68.836	179.2356
370.000000	68.862	179.0700
375.000000	68.868	178.9391
382.000000	68.867	178.7215
387.000000	68.846	178.5366
395.000000	68.806	178.4816
400.000000	68.780	178.5638
406.000000	68.726	178.7241
412.000000	68.653	178.7318
418.000000	68.601	178.7690
425.000000	68.571	178.9332
431.000000	68.541	179.1852
437.000000	68.500	179.4649
444.000000	68.439	179.7369
450.000000	68.393	179.9561
455.000000	68.359	-179.8748
462.000000	68.316	-179.6601
468.000000	68.289	-179.4168
475.000000	68.260	-178.9723
482.000000	68.239	-178.5653
487.000000	68.214	-178.4083
494.000000	68.167	-178.2031
500.000000	68.126	-178.0323
508.000000	68.070	-177.7238
515.000000	68.031	-177.4508
522.000000	68.011	-177.0638
530.000000	67.982	-176.6263
538.000000	67.927	-176.3583
545.000000	67.873	-176.0558
552.000000	67.831	-175.6797
560.000000	67.800	-175.2601
570.000000	67.749	-174.7505
580.000000	67.689	-174.2706
590.000000	67.675	-173.7373
600.000000	67.661	-173.0960
608.000000	67.611	-172.5939
615.000000	67.566	-172.1662
622.000000	67.528	-171.7588
630.000000	67.489	-171.3210
640.000000	67.449	-170.7338
650.000000	67.401	-170.1005
660.000000	67.350	-169.4709
670.000000	67.314	-168.7429
680.000000	67.282	-167.9553
690.000000	67.247	-167.3324
700.000000	67.219	-166.7786
710.000000	67.198	-166.0723
720.000000	67.167	-165.3450
730.000000	67.133	-164.6651
740.000000	67.121	-164.0040
750.000000	67.112	-163.2723
762.000000	67.087	-162.2421
775.000000	67.073	-161.2471
788.000000	67.060	-160.3456
800.000000	67.042	-159.3638
812.000000	67.027	-158.3421
825.000000	67.038	-157.2585
838.000000	67.060	-156.3472
850.000000	67.076	-155.4969
862.000000	67.109	-154.5704
875.000000	67.137	-153.5365
885.000000	67.153	-152.7561
900.000000	67.197	-151.5044
912.000000	67.235	-150.5029
925.000000	67.283	-149.6051
938.000000	67.336	-148.7590
950.000000	67.389	-147.9459
962.000000	67.447	-147.1250
975.000000	67.501	-146.3150
988.000000	67.536	-145.6461
1000.000000	67.594	-145.0452
1015.000000	67.730	-144.0844
1030.000000	67.849	-143.1601
1044.000000	67.931	-142.4080
1060.000000	68.025	-141.4872
1075.000000	68.123	-140.7465
1090.000000	68.226	-140.1429
1106.000000	68.350	-139.5313
1120.000000	68.449	-138.9878
1138.000000	68.564	-138.3628
1150.000000	68.644	-137.9988
1172.000000	68.806	-137.3415
1180.000000	68.863	-137.1005
1206.000000	69.045	-136.3929
1220.000000	69.140	-135.9881
1241.000000	69.270	-135.5176
1250.000000	69.318	-135.2949
1265.000000	69.415	-134.8388
1280.000000	69.525	-134.4795
1315.000000	69.717	-133.7647
1320.000000	69.742	-133.6415
1340.000000	69.836	-133.1411
1360.000000	69.927	-132.6576
1380.000000	70.032	-132.1709
1400.000000	70.152	-131.6458
1430.000000	70.336	-130.8195
1450.000000	70.454	-130.3013
1475.000000	70.590	-129.7221
1500.000000	70.731	-129.0665
1525.000000	70.881	-128.3353
1550.000000	71.039	-127.6234
1575.000000	71.195	-126.9270
1600.000000	71.359	-126.2638
1625.000000	71.532	-125.6242
1650.000000	71.710	-124.9826
1675.000000	71.909	-124.4213
1700.000000	72.112	-123.9126
1725.000000	72.308	-123.4564
1750.000000	72.511	-123.0491
1775.000000	72.728	-122.7047
1800.000000	72.941	-122.4129
1825.000000	73.154	-122.1797
1850.000000	73.371	-122.0386
1875.000000	73.586	-121.9936
1900.000000	73.793	-122.0167
1925.000000	73.996	-122.1059
1950.000000	74.194	-122.2664
1975.000000	74.390	-122.4735
2000.000000	74.579	-122.7175
2030.000000	74.794	-123.0443
2060.000000	75.000	-123.3909
2090.000000	75.199	-123.7703
2120.000000	75.394	-124.1849
2140.000000	75.519	-124.4888
2180.000000	75.756	-125.1194
2200.000000	75.872	-125.4347
2240.000000	76.096	-126.0749
2270.000000	76.261	-126.5984
2300.000000	76.422	-127.1345
2330.000000	76.581	-127.6632
2360.000000	76.735	-128.2085
2400.000000	76.933	-128.9714
2430.000000	77.080	-129.5472
2470.000000	77.274	-130.3631
2500.000000	77.418	-131.0188
2540.000000	77.604	-131.9438
2580.000000	77.783	-132.9216
2620.000000	77.954	-133.9392
2650.000000	78.076	-134.7367
2690.000000	78.233	-135.8416
2720.000000	78.344	-136.6985
2760.000000	78.483	-137.8698
2800.000000	78.606	-139.0813
2850.000000	78.742	-140.6481
2900.000000	78.857	-142.2713
2950.000000	78.947	-143.8958
3000.000000	79.014	-145.4996
3040.000000	79.051	-146.7538
3070.000000	79.068	-147.6549
3110.000000	79.077	-148.7856
3150.000000	79.076	-149.8280
3200.000000	79.061	-150.9942
3250.000000	79.047	-151.9409
3300.000000	79.052	-152.6971
3350.000000	79.094	-153.4275
3400.000000	79.162	-154.3064
3450.000000	79.230	-155.4144
3500.000000	79.278	-156.6804
3550.000000	79.295	-157.9671
3600.000000	79.287	-159.1674
3650.000000	79.264	-160.2441
3700.000000	79.232	-161.2074
3750.000000	79.196	-162.0699
3820.000000	79.144	-163.1110
3870.000000	79.107	-163.7675
3950.000000	79.045	-164.7357
4000.000000	79.010	-165.2891
4060.000000	78.975	-165.9168
4120.000000	78.948	-166.5204
4180.000000	78.924	-167.1189
4250.000000	78.902	-167.8201
4310.000000	78.883	-168.4633
4370.000000	78.852	-169.1523
4440.000000	78.792	-170.0130
4500.000000	78.721	-170.7579
4550.000000	78.646	-171.3167
4620.000000	78.520	-171.8507
4680.000000	78.414	-172.0240
4750.000000	78.327	-171.9787
4820.000000	78.292	-171.8399
4870.000000	78.295	-171.7822
4940.000000	78.327	-171.8604
5000.000000	78.366	-172.0926
5080.000000	78.424	-172.6100
5150.000000	78.474	-173.2265
5220.000000	78.519	-173.9688
5300.000000	78.560	-174.9754
5380.000000	78.587	-176.1311
5450.000000	78.597	-177.2140
5520.000000	78.592	-178.3331
5600.000000	78.567	-179.6541
5700.000000	78.514	178.6606
5800.000000	78.434	176.9471
5900.000000	78.319	175.2382
6000.000000	78.179	173.6198
6080.000000	78.052	172.3915
6150.000000	77.931	171.3658
6220.000000	77.802	170.4116
6300.000000	77.645	169.4276
6400.000000	77.442	168.3604
6500.000000	77.235	167.4713
6600.000000	77.032	166.7571
6700.000000	76.840	166.2119
6800.000000	76.667	165.8062
6900.000000	76.529	165.5278
7000.000000	76.433	165.3944
7100.000000	76.377	165.3740
7200.000000	76.372	165.4108
7300.000000	76.422	165.3794
7400.000000	76.525	165.1410
7500.000000	76.676	164.5833
7620.000000	76.920	163.3323
7750.000000	77.223	161.0487
7880.000000	77.439	157.6357
8000.000000	77.522	153.4898
8120.000000	77.460	148.5846
8250.000000	77.184	142.8392
8380.000000	76.680	137.2217
8500.000000	76.032	132.6048
8620.000000	75.240	128.8426
8750.000000	74.269	125.9175
8850.000000	73.483	124.4518
9000.000000	72.300	123.3829
9120.000000	71.371	123.4107
9250.000000	70.404	124.1316
9380.000000	69.489	125.4272
9500.000000	68.698	127.0612
9620.000000	67.957	129.0662
9750.000000	67.205	131.5866
9880.000000	66.511	134.3726
10000.000000	65.925	137.1159
10150.000000	65.266	140.7591
10300.000000	64.681	144.6383
10440.000000	64.180	148.4026
10600.000000	63.670	152.8173
10750.000000	63.271	157.0867
10900.000000	62.923	161.4746
11060.000000	62.609	166.2230
11200.000000	62.395	170.4625
11380.000000	62.188	175.9850
11500.000000	62.096	179.6686
11720.000000	62.039	-173.5888
11800.000000	62.057	-171.1726
12060.000000	62.252	-163.3397
12200.000000	62.429	-159.1333
12410.000000	62.798	-153.0432
12500.000000	63.003	-150.4961
12650.000000	63.432	-146.3920
12800.000000	63.985	-142.5677
13150.000000	65.806	-135.3444
13200.000000	66.139	-134.6185
13400.000000	67.701	-132.8794
13600.000000	69.645	-134.1649
13800.000000	71.731	-141.2157
14000.000000	73.266	-156.7144
14300.000000	73.100	171.4984
14500.000000	71.390	156.1844
14750.000000	68.548	148.0278
15000.000000	65.923	147.6356
15250.000000	63.853	150.9873
15500.000000	62.326	156.1204
15750.000000	61.261	162.1176
16000.000000	60.559	168.5160
16250.000000	60.138	175.0405
16500.000000	59.969	-178.4227
16750.000000	60.059	-172.0447
17000.000000	60.424	-166.0976
17250.000000	61.127	-160.9061
17500.000000	62.265	-157.0252
17750.000000	63.825	-155.7564
18000.000000	65.637	-159.2670
18250.000000	67.179	-170.2056
18500.000000	67.732	171.7258
18750.000000	66.914	153.1161
19000.000000	64.981	141.0237
19250.000000	62.576	136.5704
19500.000000	60.235	137.2633
19750.000000	58.238	140.3905
20000.000000	56.929	143.2064
