* Measurement data measured by REW V5.20.13
* Source: EXCL: Mic in at rear panel (Pink)(Realtek(R) Audio), MICROPHONE (마스), L, volume: 0.500
* Format: 256k Log Swept Sine, 1 sweep at -12.0 dBFS with no timing reference
* Dated: 2022. 10. 1 오전 11:44:57
* REW Settings:
*  C-weighting compensation: Off
*  Target level: 75.0 dB
* Note: 
* Measurement: R_AET07
* Smoothing: 1/24 octave
* Frequency Step: 1/48 octave
* Start Frequency: 20.300 Hz
*
* Freq(Hz)	SPL(dB)	Phase(degrees)
20.299999	70.404	-151.4724
20.600000	70.484	-151.7927
20.900000	70.611	-152.4312
21.200001	70.650	-153.1541
21.400000	70.632	-153.5374
21.799999	70.545	-153.8788
22.000000	70.503	-153.8006
22.400000	70.468	-153.2690
22.700001	70.504	-152.7687
23.000000	70.592	-152.3957
23.299999	70.716	-152.2716
23.600000	70.858	-152.4486
24.000000	71.048	-153.1613
24.299999	71.169	-153.9962
24.700001	71.283	-155.3707
25.000000	71.328	-156.4722
25.400000	71.339	-157.8866
25.799999	71.304	-159.1359
26.200001	71.234	-160.1695
26.500000	71.161	-160.7609
26.900000	71.043	-161.2173
27.200001	70.959	-161.2667
27.600000	70.885	-161.0090
28.000000	70.885	-160.6946
28.500000	70.952	-160.8262
29.000000	70.968	-161.6678
29.500000	70.860	-162.4759
30.000000	70.719	-162.4668
30.400000	70.691	-162.0827
30.700001	70.736	-161.9752
31.100000	70.818	-162.4926
31.500000	70.828	-163.6644
32.000000	70.655	-165.0106
32.500000	70.382	-164.9416
33.000000	70.272	-163.5522
33.500000	70.432	-162.3859
34.000000	70.677	-162.6716
34.500000	70.788	-163.9661
35.000000	70.738	-165.0259
35.500000	70.654	-165.1982
36.000000	70.650	-164.9245
36.500000	70.707	-164.8835
37.000000	70.738	-165.1688
37.500000	70.712	-165.3402
38.200001	70.685	-164.9074
38.700001	70.746	-164.5152
39.500000	70.882	-164.9556
40.000000	70.863	-165.6595
40.599998	70.716	-165.8204
41.200001	70.628	-164.6138
41.799999	70.790	-163.1487
42.500000	71.151	-163.2708
43.099998	71.301	-164.8686
43.700001	71.243	-166.2248
44.400002	71.109	-166.5663
45.000000	71.059	-166.3785
45.500000	71.042	-166.2567
46.200001	71.029	-166.0344
46.799999	71.053	-165.8494
47.500000	71.102	-165.9693
48.200001	71.135	-166.2583
48.700001	71.174	-166.4638
49.400002	71.266	-167.1068
50.000000	71.314	-168.1540
50.799999	71.259	-169.5423
51.500000	71.164	-170.0561
52.200001	71.131	-169.9391
53.000000	71.237	-169.7285
53.799999	71.409	-170.4899
54.500000	71.422	-171.8479
55.200001	71.268	-172.4601
56.000000	71.152	-171.4517
57.000000	71.385	-170.4362
58.000000	71.572	-171.9258
59.000000	71.418	-173.1763
60.000000	71.270	-172.3155
60.799999	71.373	-171.3897
61.500000	71.534	-171.5692
62.200001	71.578	-172.5857
63.000000	71.411	-173.2897
64.000000	71.180	-171.9957
65.000000	71.270	-170.3852
66.000000	71.450	-170.8549
67.000000	71.364	-172.7308
68.000000	71.002	-173.3834
69.000000	70.785	-172.3279
70.000000	70.843	-172.1645
71.000000	70.865	-173.4264
72.000000	70.774	-174.6369
73.000000	70.673	-175.0989
74.000000	70.668	-174.7914
75.000000	70.817	-174.3635
76.199997	71.066	-174.7127
77.500000	71.168	-175.8572
78.800003	71.045	-176.2540
80.000000	70.926	-175.2339
81.199997	71.039	-174.0801
82.500000	71.241	-174.9026
83.800003	71.176	-176.6881
85.000000	70.951	-176.9108
86.199997	70.871	-175.6840
87.500000	71.006	-174.8662
88.500000	71.114	-175.2350
90.000000	71.046	-176.7439
91.199997	70.831	-177.0014
92.500000	70.758	-176.1945
93.800003	70.903	-175.8873
95.000000	71.036	-176.4647
96.199997	71.050	-177.1257
97.500000	70.981	-177.0715
98.800003	70.961	-176.7003
100.000000	70.942	-176.7460
101.500000	70.906	-176.8316
103.000000	70.964	-177.0757
104.400002	71.040	-177.8216
106.000000	71.019	-178.5110
107.500000	70.972	-178.3276
109.000000	70.958	-178.0812
110.599998	70.923	-178.1554
112.000000	70.888	-178.4303
113.800003	70.865	-179.0275
115.000000	70.872	-179.3225
117.199997	71.053	-179.5321
118.000000	71.160	-179.8561
120.599998	71.182	178.5645
122.000000	71.048	178.9435
124.099998	70.934	-179.9390
125.000000	70.919	-179.5886
126.500000	70.914	-179.4744
128.000000	70.883	-179.7717
131.500000	70.802	-179.9317
132.000000	70.805	-179.9263
134.000000	70.836	179.9976
136.000000	70.858	179.6665
138.000000	70.841	179.4718
140.000000	70.834	179.4028
143.000000	70.828	179.2494
145.000000	70.846	179.3183
147.500000	70.866	179.4326
150.000000	70.829	179.4378
152.500000	70.784	179.0345
155.000000	70.757	178.4839
157.500000	70.777	178.2954
160.000000	70.776	178.3387
162.500000	70.742	178.3695
165.000000	70.697	178.0905
167.500000	70.678	177.6630
170.000000	70.683	177.4294
172.500000	70.689	177.5150
175.000000	70.667	177.6760
177.500000	70.635	177.6101
180.000000	70.606	177.3256
182.500000	70.586	177.1029
185.000000	70.569	177.0284
187.500000	70.547	177.0604
190.000000	70.526	177.1368
192.500000	70.507	177.1310
195.000000	70.492	177.0257
197.500000	70.486	176.8673
200.000000	70.481	176.7726
203.000000	70.468	176.6820
206.000000	70.452	176.5974
209.000000	70.454	176.5567
212.000000	70.446	176.4878
214.000000	70.427	176.4183
218.000000	70.405	176.2716
220.000000	70.408	176.2206
224.000000	70.394	176.2587
227.000000	70.360	176.3099
230.000000	70.323	176.2976
233.000000	70.285	176.2713
236.000000	70.233	176.2118
240.000000	70.178	176.0674
243.000000	70.180	175.8966
247.000000	70.183	175.7272
250.000000	70.162	175.7762
254.000000	70.122	175.9016
258.000000	70.076	175.8807
262.000000	70.042	175.8094
265.000000	70.036	175.7582
269.000000	70.019	175.6304
272.000000	69.990	175.5347
276.000000	69.949	175.4650
280.000000	69.922	175.4825
285.000000	69.889	175.6735
290.000000	69.841	175.6770
295.000000	69.800	175.5873
300.000000	69.760	175.4376
304.000000	69.740	175.3808
307.000000	69.724	175.3961
311.000000	69.700	175.3973
315.000000	69.682	175.4068
320.000000	69.650	175.4804
325.000000	69.614	175.6143
330.000000	69.570	175.6602
335.000000	69.529	175.7080
340.000000	69.481	175.8031
345.000000	69.437	175.8344
350.000000	69.405	175.7957
355.000000	69.367	175.7811
360.000000	69.337	175.9084
365.000000	69.292	176.0516
370.000000	69.242	176.1062
375.000000	69.186	176.2495
382.000000	69.100	176.5261
387.000000	69.043	176.6946
395.000000	68.975	176.9790
400.000000	68.932	177.1966
406.000000	68.866	177.5076
412.000000	68.815	177.7551
418.000000	68.784	178.0264
425.000000	68.739	178.3130
431.000000	68.699	178.5633
437.000000	68.666	178.7555
444.000000	68.623	178.9560
450.000000	68.591	179.2098
455.000000	68.575	179.4884
462.000000	68.542	179.8173
468.000000	68.501	-179.9718
475.000000	68.466	-179.6833
482.000000	68.420	-179.3479
487.000000	68.372	-179.1637
494.000000	68.331	-178.9507
500.000000	68.311	-178.7068
508.000000	68.265	-178.3018
515.000000	68.215	-177.9823
522.000000	68.172	-177.6452
530.000000	68.131	-177.2326
538.000000	68.084	-176.9011
545.000000	68.042	-176.5659
552.000000	68.011	-176.1858
560.000000	67.962	-175.8027
570.000000	67.895	-175.3514
580.000000	67.862	-174.8316
590.000000	67.830	-174.1674
600.000000	67.779	-173.3822
608.000000	67.735	-172.8669
615.000000	67.703	-172.4929
622.000000	67.678	-172.1227
630.000000	67.638	-171.7151
640.000000	67.579	-171.1365
650.000000	67.554	-170.4968
660.000000	67.531	-169.7946
670.000000	67.489	-169.1278
680.000000	67.460	-168.4971
690.000000	67.437	-167.8752
700.000000	67.403	-167.1748
710.000000	67.360	-166.4298
720.000000	67.327	-165.6772
730.000000	67.298	-164.9237
740.000000	67.282	-164.1656
750.000000	67.275	-163.4464
762.000000	67.262	-162.5584
775.000000	67.255	-161.5999
788.000000	67.246	-160.6051
800.000000	67.225	-159.5733
812.000000	67.215	-158.5640
825.000000	67.216	-157.5617
838.000000	67.238	-156.6795
850.000000	67.261	-155.8164
862.000000	67.282	-154.8139
875.000000	67.304	-153.7678
885.000000	67.319	-152.9931
900.000000	67.347	-151.7616
912.000000	67.380	-150.8018
925.000000	67.430	-149.9149
938.000000	67.488	-149.1000
950.000000	67.541	-148.2963
962.000000	67.604	-147.4896
975.000000	67.671	-146.6381
988.000000	67.720	-145.7562
1000.000000	67.772	-144.9756
1015.000000	67.887	-143.9917
1030.000000	68.024	-143.0975
1044.000000	68.141	-142.4301
1060.000000	68.212	-141.6790
1075.000000	68.278	-141.0491
1090.000000	68.370	-140.4102
1106.000000	68.493	-139.7238
1120.000000	68.600	-139.1382
1138.000000	68.728	-138.4554
1150.000000	68.811	-138.0964
1172.000000	68.969	-137.4308
1180.000000	69.026	-137.1888
1206.000000	69.202	-136.4014
1220.000000	69.293	-136.0307
1241.000000	69.432	-135.5371
1250.000000	69.493	-135.2908
1265.000000	69.588	-134.8738
1280.000000	69.676	-134.4679
1315.000000	69.863	-133.4362
1320.000000	69.892	-133.3493
1340.000000	70.007	-133.0556
1360.000000	70.118	-132.6267
1380.000000	70.221	-132.1137
1400.000000	70.325	-131.6510
1430.000000	70.485	-130.8511
1450.000000	70.608	-130.3003
1475.000000	70.761	-129.6083
1500.000000	70.909	-128.9089
1525.000000	71.065	-128.2483
1550.000000	71.228	-127.6261
1575.000000	71.391	-126.9207
1600.000000	71.559	-126.1977
1625.000000	71.740	-125.5290
1650.000000	71.920	-124.9264
1675.000000	72.110	-124.3936
1700.000000	72.316	-123.9060
1725.000000	72.526	-123.4649
1750.000000	72.739	-123.0617
1775.000000	72.956	-122.7345
1800.000000	73.171	-122.4934
1825.000000	73.383	-122.3353
1850.000000	73.597	-122.2645
1875.000000	73.810	-122.2916
1900.000000	74.018	-122.3823
1925.000000	74.220	-122.5124
1950.000000	74.416	-122.6674
1975.000000	74.604	-122.8641
2000.000000	74.789	-123.1139
2030.000000	75.003	-123.4779
2060.000000	75.209	-123.8700
2090.000000	75.404	-124.2813
2120.000000	75.592	-124.7230
2140.000000	75.713	-125.0221
2180.000000	75.945	-125.6412
2200.000000	76.059	-125.9692
2240.000000	76.281	-126.6088
2270.000000	76.442	-127.0827
2300.000000	76.603	-127.5767
2330.000000	76.762	-128.0920
2360.000000	76.920	-128.6235
2400.000000	77.130	-129.3944
2430.000000	77.287	-130.0230
2470.000000	77.486	-130.9097
2500.000000	77.628	-131.6122
2540.000000	77.811	-132.5908
2580.000000	77.989	-133.6013
2620.000000	78.161	-134.6555
2650.000000	78.285	-135.4795
2690.000000	78.439	-136.6250
2720.000000	78.546	-137.5216
2760.000000	78.677	-138.7419
2800.000000	78.800	-139.9896
2850.000000	78.939	-141.5755
2900.000000	79.059	-143.1796
2950.000000	79.157	-144.8158
3000.000000	79.235	-146.4764
3040.000000	79.282	-147.8123
3070.000000	79.309	-148.8050
3110.000000	79.337	-150.1084
3150.000000	79.350	-151.3847
3200.000000	79.345	-152.9116
3250.000000	79.322	-154.3506
3300.000000	79.286	-155.6808
3350.000000	79.243	-156.8883
3400.000000	79.198	-158.0175
3450.000000	79.151	-159.0974
3500.000000	79.100	-160.1203
3550.000000	79.047	-161.0587
3600.000000	78.988	-161.9004
3650.000000	78.925	-162.6483
3700.000000	78.862	-163.3003
3750.000000	78.798	-163.8604
3820.000000	78.709	-164.5169
3870.000000	78.645	-164.9111
3950.000000	78.544	-165.3229
4000.000000	78.489	-165.4359
4060.000000	78.443	-165.4896
4120.000000	78.426	-165.5082
4180.000000	78.434	-165.5506
4250.000000	78.461	-165.7143
4310.000000	78.487	-165.9533
4370.000000	78.508	-166.2505
4440.000000	78.523	-166.6429
4500.000000	78.536	-166.9970
4550.000000	78.553	-167.3315
4620.000000	78.580	-167.8883
4680.000000	78.601	-168.4237
4750.000000	78.618	-169.0845
4820.000000	78.629	-169.7654
4870.000000	78.633	-170.2424
4940.000000	78.637	-170.9033
5000.000000	78.644	-171.5044
5080.000000	78.658	-172.3826
5150.000000	78.667	-173.2215
5220.000000	78.670	-174.1171
5300.000000	78.662	-175.1886
5380.000000	78.645	-176.2857
5450.000000	78.628	-177.2700
5520.000000	78.606	-178.2926
5600.000000	78.572	-179.5027
5700.000000	78.514	178.9137
5800.000000	78.433	177.2332
5900.000000	78.323	175.5440
6000.000000	78.182	173.9121
6080.000000	78.052	172.6690
6150.000000	77.927	171.6581
6220.000000	77.795	170.7248
6300.000000	77.638	169.7483
6400.000000	77.433	168.6599
6500.000000	77.224	167.7402
6600.000000	77.012	166.9909
6700.000000	76.808	166.4108
6800.000000	76.625	166.0116
6900.000000	76.480	165.7791
7000.000000	76.383	165.7047
7100.000000	76.336	165.7399
7200.000000	76.338	165.7914
7300.000000	76.394	165.7249
7400.000000	76.506	165.3918
7500.000000	76.664	164.7053
7620.000000	76.905	163.2716
7750.000000	77.192	160.7760
7880.000000	77.389	157.1835
8000.000000	77.449	152.8886
8120.000000	77.358	147.8451
8250.000000	77.048	141.9440
8380.000000	76.502	136.1721
8500.000000	75.805	131.4854
8620.000000	74.964	127.7384
8750.000000	73.943	124.8679
8850.000000	73.119	123.4864
9000.000000	71.880	122.6193
9120.000000	70.919	122.8028
9250.000000	69.919	123.6699
9380.000000	68.975	125.1271
9500.000000	68.160	126.9137
9620.000000	67.395	129.0455
9750.000000	66.627	131.6435
9880.000000	65.917	134.5037
10000.000000	65.313	137.3771
10150.000000	64.623	141.1977
10300.000000	64.000	145.1956
10440.000000	63.470	149.0980
10600.000000	62.930	153.6520
10750.000000	62.493	158.0288
10900.000000	62.110	162.5754
11060.000000	61.757	167.4987
11200.000000	61.496	171.8556
11380.000000	61.239	177.5647
11500.000000	61.112	-178.6289
11720.000000	60.978	-171.6981
11800.000000	60.969	-169.1784
12060.000000	61.060	-160.9392
12200.000000	61.168	-156.5597
12410.000000	61.409	-150.1560
12500.000000	61.552	-147.4104
12650.000000	61.858	-142.9022
12800.000000	62.246	-138.5821
13150.000000	63.530	-129.4740
13200.000000	63.761	-128.3267
13400.000000	64.843	-124.1957
13600.000000	66.253	-120.9720
13800.000000	68.101	-119.6365
14000.000000	70.323	-122.3529
14300.000000	73.246	-140.4007
14500.000000	73.851	-161.7120
14750.000000	72.580	173.7728
15000.000000	69.952	161.7393
15250.000000	67.303	159.4764
15500.000000	65.282	161.9174
15750.000000	63.929	166.3439
16000.000000	63.059	171.5954
16250.000000	62.577	177.1756
16500.000000	62.457	-177.3158
16750.000000	62.684	-172.2956
17000.000000	63.283	-168.2739
17250.000000	64.339	-165.9504
17500.000000	65.865	-167.0422
17750.000000	67.487	-174.6692
18000.000000	68.430	169.2874
18250.000000	68.049	149.1618
18500.000000	66.324	133.5640
18750.000000	63.827	126.3180
19000.000000	61.238	125.5466
19250.000000	58.929	128.4548
19500.000000	56.985	133.2492
19750.000000	55.443	138.7073
20000.000000	54.484	142.6813
