* Measurement data measured by REW V5.20.13
* Source: EXCL: Mic in at rear panel (Pink)(Realtek(R) Audio), MICROPHONE (마스), L, volume: 0.500
* Format: 256k Log Swept Sine, 1 sweep at -12.0 dBFS with no timing reference
* Dated: 2022. 10. 1 오전 11:26:11
* REW Settings:
*  C-weighting compensation: Off
*  Target level: 75.0 dB
* Note: 
* Measurement: L_Crystal
* Smoothing: 1/24 octave
* Frequency Step: 1/48 octave
* Start Frequency: 20.300 Hz
*
* Freq(Hz)	SPL(dB)	Phase(degrees)
20.299999	71.946	-148.1524
20.600000	72.010	-148.3656
20.900000	72.123	-148.8394
21.200001	72.188	-149.5099
21.400000	72.200	-149.9878
21.799999	72.173	-150.8445
22.000000	72.146	-151.1627
22.400000	72.096	-151.5719
22.700001	72.078	-151.7940
23.000000	72.079	-152.0727
23.299999	72.085	-152.4581
23.600000	72.088	-152.9223
24.000000	72.082	-153.5586
24.299999	72.078	-153.9743
24.700001	72.091	-154.4525
25.000000	72.119	-154.8342
25.400000	72.172	-155.4878
25.799999	72.212	-156.3128
26.200001	72.218	-157.1423
26.500000	72.203	-157.6319
26.900000	72.176	-158.0186
27.200001	72.167	-158.1402
27.600000	72.182	-158.2083
28.000000	72.219	-158.3185
28.500000	72.263	-158.5557
29.000000	72.289	-158.7383
29.500000	72.319	-158.7730
30.000000	72.372	-158.8175
30.400000	72.423	-159.0096
30.700001	72.452	-159.2641
31.100000	72.467	-159.6759
31.500000	72.454	-160.0522
32.000000	72.420	-160.3368
32.500000	72.402	-160.4477
33.000000	72.418	-160.6003
33.500000	72.453	-160.9927
34.000000	72.469	-161.6305
34.500000	72.439	-162.2769
35.000000	72.382	-162.6437
35.500000	72.349	-162.6481
36.000000	72.384	-162.5574
36.500000	72.472	-162.7604
37.000000	72.551	-163.4068
37.500000	72.570	-164.2536
38.200001	72.508	-165.0501
38.700001	72.463	-165.1691
39.500000	72.472	-165.1837
40.000000	72.498	-165.3915
40.599998	72.504	-165.7658
41.200001	72.486	-165.9830
41.799999	72.496	-166.0042
42.500000	72.573	-166.2527
43.099998	72.630	-167.0185
43.700001	72.598	-167.9553
44.400002	72.478	-168.4025
45.000000	72.422	-168.1127
45.500000	72.447	-167.8788
46.200001	72.508	-168.0331
46.799999	72.511	-168.3031
47.500000	72.503	-168.2328
48.200001	72.559	-168.0513
48.700001	72.621	-168.1665
49.400002	72.678	-168.6686
50.000000	72.681	-169.1665
50.799999	72.640	-169.6365
51.500000	72.602	-169.7457
52.200001	72.607	-169.7220
53.000000	72.657	-169.9997
53.799999	72.672	-170.6289
54.500000	72.636	-171.0305
55.200001	72.604	-171.1076
56.000000	72.610	-171.0107
57.000000	72.664	-171.0470
58.000000	72.698	-171.3470
59.000000	72.691	-171.5669
60.000000	72.683	-171.6655
60.799999	72.685	-171.8317
61.500000	72.681	-172.0787
62.200001	72.664	-172.3651
63.000000	72.635	-172.6066
64.000000	72.628	-172.7678
65.000000	72.658	-173.0935
66.000000	72.671	-173.5834
67.000000	72.662	-173.9299
68.000000	72.656	-174.0941
69.000000	72.659	-174.2202
70.000000	72.658	-174.3638
71.000000	72.650	-174.5009
72.000000	72.642	-174.6352
73.000000	72.642	-174.7789
74.000000	72.656	-175.0236
75.000000	72.658	-175.3999
76.199997	72.636	-175.6849
77.500000	72.644	-175.8158
78.800003	72.654	-176.0687
80.000000	72.648	-176.2623
81.199997	72.636	-176.4420
82.500000	72.617	-176.6188
83.800003	72.603	-176.7927
85.000000	72.598	-176.9975
86.199997	72.598	-177.2383
87.500000	72.609	-177.5236
88.500000	72.616	-177.8084
90.000000	72.605	-178.1468
91.199997	72.601	-178.2405
92.500000	72.612	-178.3279
93.800003	72.615	-178.4957
95.000000	72.603	-178.5956
96.199997	72.599	-178.6638
97.500000	72.594	-178.8135
98.800003	72.589	-178.9365
100.000000	72.592	-179.0811
101.500000	72.582	-179.3029
103.000000	72.562	-179.4202
104.400002	72.548	-179.5378
106.000000	72.528	-179.7098
107.500000	72.527	-179.8684
109.000000	72.535	179.8737
110.599998	72.524	179.6055
112.000000	72.505	179.4481
113.800003	72.479	179.1336
115.000000	72.464	178.7944
117.199997	72.488	177.9313
118.000000	72.512	177.4876
120.599998	72.474	176.6118
122.000000	72.461	177.1291
124.099998	72.490	177.9159
125.000000	72.490	178.1047
126.500000	72.468	178.2102
128.000000	72.437	178.1209
131.500000	72.408	177.4282
132.000000	72.406	177.3286
134.000000	72.393	177.0490
136.000000	72.385	176.9064
138.000000	72.382	176.7457
140.000000	72.374	176.6081
143.000000	72.373	176.4541
145.000000	72.368	176.1762
147.500000	72.342	175.7177
150.000000	72.307	175.4236
152.500000	72.273	175.2985
155.000000	72.244	175.2719
157.500000	72.238	175.0569
160.000000	72.228	174.7981
162.500000	72.216	174.6053
165.000000	72.183	174.4272
167.500000	72.160	174.2277
170.000000	72.143	173.9723
172.500000	72.122	173.8354
175.000000	72.096	173.7291
177.500000	72.064	173.5557
180.000000	72.038	173.3606
182.500000	72.019	173.1862
185.000000	71.999	173.0372
187.500000	71.970	172.8748
190.000000	71.932	172.6971
192.500000	71.896	172.5008
195.000000	71.870	172.3252
197.500000	71.856	172.1603
200.000000	71.836	172.0019
203.000000	71.802	171.8492
206.000000	71.763	171.6545
209.000000	71.717	171.4322
212.000000	71.673	171.2131
214.000000	71.648	171.0771
218.000000	71.598	170.8344
220.000000	71.567	170.7294
224.000000	71.508	170.5830
227.000000	71.462	170.3227
230.000000	71.390	169.9496
233.000000	71.321	169.6964
236.000000	71.253	169.5582
240.000000	71.106	169.3478
243.000000	70.961	169.1227
247.000000	70.769	169.1524
250.000000	70.620	169.3282
254.000000	70.399	169.7672
258.000000	70.177	171.0358
262.000000	70.032	173.1335
265.000000	70.026	174.9588
269.000000	70.145	177.1648
272.000000	70.303	178.2275
276.000000	70.558	178.6205
280.000000	70.759	178.3874
285.000000	70.930	177.8291
290.000000	71.034	177.1377
295.000000	71.071	176.4905
300.000000	71.082	175.8410
304.000000	71.084	175.4983
307.000000	71.082	175.2640
311.000000	71.075	174.8995
315.000000	71.059	174.5851
320.000000	71.032	174.2952
325.000000	70.993	174.0868
330.000000	70.942	173.8845
335.000000	70.905	173.6532
340.000000	70.870	173.5532
345.000000	70.827	173.5563
350.000000	70.783	173.5498
355.000000	70.739	173.5416
360.000000	70.691	173.5165
365.000000	70.639	173.4291
370.000000	70.595	173.3610
375.000000	70.549	173.3639
382.000000	70.463	173.4854
387.000000	70.407	173.6186
395.000000	70.333	173.8361
400.000000	70.295	173.8757
406.000000	70.257	173.9056
412.000000	70.198	173.9226
418.000000	70.131	174.0013
425.000000	70.065	174.1885
431.000000	70.021	174.3951
437.000000	69.985	174.5006
444.000000	69.929	174.6205
450.000000	69.873	174.8276
455.000000	69.832	175.0110
462.000000	69.788	175.2758
468.000000	69.755	175.4004
475.000000	69.703	175.4142
482.000000	69.646	175.6274
487.000000	69.610	175.8311
494.000000	69.567	176.0733
500.000000	69.529	176.2382
508.000000	69.465	176.5231
515.000000	69.405	176.7951
522.000000	69.348	177.1248
530.000000	69.288	177.4794
538.000000	69.236	177.7753
545.000000	69.197	178.0333
552.000000	69.153	178.3084
560.000000	69.107	178.6380
570.000000	69.061	179.0468
580.000000	68.993	179.5017
590.000000	68.912	-179.9129
600.000000	68.846	-179.2495
608.000000	68.799	-178.8076
615.000000	68.766	-178.4939
622.000000	68.733	-178.2091
630.000000	68.681	-177.7860
640.000000	68.609	-177.1203
650.000000	68.540	-176.5146
660.000000	68.473	-175.9895
670.000000	68.425	-175.3730
680.000000	68.404	-174.6898
690.000000	68.372	-174.1206
700.000000	68.325	-173.5519
710.000000	68.279	-172.8639
720.000000	68.241	-172.1689
730.000000	68.206	-171.4989
740.000000	68.172	-170.7939
750.000000	68.139	-170.0100
762.000000	68.114	-169.1278
775.000000	68.081	-168.2174
788.000000	68.048	-167.3260
800.000000	68.026	-166.4201
812.000000	68.017	-165.3906
825.000000	68.006	-164.3671
838.000000	67.980	-163.4505
850.000000	67.980	-162.5328
862.000000	68.000	-161.6478
875.000000	68.025	-160.7464
885.000000	68.041	-159.9938
900.000000	68.063	-158.8656
912.000000	68.101	-157.9676
925.000000	68.142	-157.0418
938.000000	68.178	-156.1545
950.000000	68.211	-155.3629
962.000000	68.253	-154.5750
975.000000	68.308	-153.7469
988.000000	68.359	-152.9755
1000.000000	68.405	-152.2876
1015.000000	68.480	-151.4537
1030.000000	68.565	-150.6434
1044.000000	68.644	-149.9463
1060.000000	68.727	-149.2305
1075.000000	68.805	-148.5251
1090.000000	68.897	-147.7982
1106.000000	69.008	-147.1071
1120.000000	69.096	-146.6052
1138.000000	69.190	-146.0148
1150.000000	69.260	-145.6037
1172.000000	69.405	-144.8286
1180.000000	69.453	-144.5655
1206.000000	69.604	-143.7528
1220.000000	69.690	-143.3528
1241.000000	69.806	-142.7906
1250.000000	69.853	-142.5601
1265.000000	69.936	-142.1493
1280.000000	70.019	-141.7272
1315.000000	70.189	-140.6646
1320.000000	70.213	-140.5145
1340.000000	70.313	-139.9534
1360.000000	70.413	-139.3416
1380.000000	70.518	-138.7203
1400.000000	70.629	-138.1138
1430.000000	70.795	-137.2130
1450.000000	70.926	-136.6226
1475.000000	71.094	-135.8951
1500.000000	71.258	-135.1812
1525.000000	71.434	-134.4536
1550.000000	71.619	-133.7816
1575.000000	71.810	-133.2251
1600.000000	72.011	-132.7671
1625.000000	72.212	-132.3402
1650.000000	72.418	-131.9677
1675.000000	72.626	-131.7073
1700.000000	72.832	-131.4918
1725.000000	73.036	-131.3141
1750.000000	73.236	-131.2439
1775.000000	73.431	-131.2784
1800.000000	73.624	-131.3741
1825.000000	73.810	-131.5145
1850.000000	73.983	-131.7015
1875.000000	74.146	-131.9176
1900.000000	74.304	-132.1488
1925.000000	74.457	-132.4111
1950.000000	74.606	-132.6834
1975.000000	74.746	-132.9288
2000.000000	74.881	-133.1788
2030.000000	75.041	-133.5185
2060.000000	75.195	-133.8591
2090.000000	75.345	-134.1984
2120.000000	75.492	-134.5395
2140.000000	75.589	-134.7580
2180.000000	75.781	-135.1978
2200.000000	75.875	-135.4304
2240.000000	76.060	-135.9030
2270.000000	76.199	-136.2560
2300.000000	76.340	-136.6216
2330.000000	76.482	-137.0169
2360.000000	76.620	-137.4344
2400.000000	76.803	-138.0361
2430.000000	76.942	-138.5224
2470.000000	77.121	-139.2090
2500.000000	77.252	-139.7562
2540.000000	77.426	-140.5390
2580.000000	77.596	-141.3751
2620.000000	77.761	-142.2516
2650.000000	77.880	-142.9483
2690.000000	78.033	-143.9355
2720.000000	78.143	-144.7013
2760.000000	78.283	-145.7659
2800.000000	78.414	-146.8714
2850.000000	78.559	-148.3136
2900.000000	78.690	-149.8168
2950.000000	78.802	-151.3644
3000.000000	78.897	-152.9158
3040.000000	78.959	-154.1644
3070.000000	78.997	-155.0998
3110.000000	79.037	-156.3488
3150.000000	79.066	-157.5871
3200.000000	79.087	-159.0964
3250.000000	79.092	-160.5421
3300.000000	79.083	-161.9102
3350.000000	79.067	-163.1956
3400.000000	79.048	-164.4222
3450.000000	79.027	-165.6333
3500.000000	79.001	-166.7984
3550.000000	78.968	-167.8937
3600.000000	78.927	-168.9299
3650.000000	78.881	-169.9114
3700.000000	78.831	-170.8211
3750.000000	78.777	-171.6449
3820.000000	78.697	-172.6904
3870.000000	78.633	-173.3588
3950.000000	78.529	-174.3029
4000.000000	78.468	-174.8360
4060.000000	78.394	-175.3937
4120.000000	78.324	-175.8911
4180.000000	78.263	-176.3410
4250.000000	78.200	-176.7928
4310.000000	78.147	-177.1506
4370.000000	78.092	-177.4974
4440.000000	78.031	-177.8691
4500.000000	77.985	-178.1717
4550.000000	77.949	-178.4223
4620.000000	77.905	-178.7908
4680.000000	77.874	-179.1248
4750.000000	77.845	-179.5016
4820.000000	77.823	-179.8935
4870.000000	77.807	179.7965
4940.000000	77.787	179.3358
5000.000000	77.773	178.9183
5080.000000	77.759	178.3240
5150.000000	77.750	177.7551
5220.000000	77.742	177.1306
5300.000000	77.733	176.3396
5380.000000	77.719	175.4846
5450.000000	77.702	174.6944
5520.000000	77.680	173.8581
5600.000000	77.646	172.8607
5700.000000	77.589	171.5876
5800.000000	77.516	170.3168
5900.000000	77.430	169.0390
6000.000000	77.335	167.7648
6080.000000	77.250	166.7619
6150.000000	77.171	165.8941
6220.000000	77.088	165.0471
6300.000000	76.989	164.1097
6400.000000	76.855	162.9910
6500.000000	76.712	161.9781
6600.000000	76.571	161.0752
6700.000000	76.437	160.2692
6800.000000	76.317	159.5477
6900.000000	76.227	158.8981
7000.000000	76.171	158.3145
7100.000000	76.143	157.7598
7200.000000	76.145	157.2196
7300.000000	76.179	156.6299
7400.000000	76.248	155.9060
7500.000000	76.359	154.9731
7620.000000	76.553	153.4282
7750.000000	76.811	150.9669
7880.000000	77.009	147.4450
8000.000000	77.089	143.1308
8120.000000	77.032	137.9158
8250.000000	76.760	131.6498
8380.000000	76.235	125.4004
8500.000000	75.538	120.2154
8620.000000	74.678	115.9814
8750.000000	73.626	112.6651
8850.000000	72.772	110.9839
9000.000000	71.484	109.7565
9120.000000	70.487	109.6920
9250.000000	69.453	110.3043
9380.000000	68.478	111.5415
9500.000000	67.635	113.1247
9620.000000	66.845	115.0462
9750.000000	66.053	117.4225
9880.000000	65.318	119.9680
10000.000000	64.683	122.4763
10150.000000	63.949	125.8743
10300.000000	63.264	129.4346
10440.000000	62.669	132.9458
10600.000000	62.051	137.1678
10750.000000	61.528	141.2107
10900.000000	61.055	145.3566
11060.000000	60.595	149.9764
11200.000000	60.231	154.0985
11380.000000	59.845	159.3819
11500.000000	59.636	162.9929
11720.000000	59.317	169.7976
11800.000000	59.225	172.3129
12060.000000	59.033	-179.6709
12200.000000	58.989	-175.3875
12410.000000	58.958	-168.8700
12500.000000	58.973	-166.1020
12650.000000	59.043	-161.5861
12800.000000	59.160	-157.1908
13150.000000	59.676	-147.0968
13200.000000	59.777	-145.6209
13400.000000	60.268	-139.6828
13600.000000	60.966	-133.8564
13800.000000	61.915	-128.4017
14000.000000	63.137	-123.6632
14300.000000	65.689	-118.9043
14500.000000	68.019	-118.6860
14750.000000	71.314	-126.7102
15000.000000	73.562	-150.7621
15250.000000	73.258	176.7964
15500.000000	70.696	156.2196
15750.000000	67.529	150.1754
16000.000000	64.945	151.3933
16250.000000	63.109	155.4030
16500.000000	61.834	160.6083
16750.000000	60.953	166.3103
17000.000000	60.390	172.1976
17250.000000	60.113	178.1773
17500.000000	60.136	-176.1868
17750.000000	60.420	-171.1550
18000.000000	60.932	-166.9030
18250.000000	61.692	-163.9085
18500.000000	62.674	-162.9121
18750.000000	63.759	-164.9096
19000.000000	64.705	-170.8479
19250.000000	65.172	179.3525
19500.000000	64.906	167.8862
19750.000000	63.979	158.2532
20000.000000	62.994	153.0572
