* Measurement data measured by REW V5.20.13
* Source: EXCL: Mic in at rear panel (Pink)(Realtek(R) Audio), MICROPHONE (마스), L, volume: 0.500
* Format: 256k Log Swept Sine, 1 sweep at -12.0 dBFS with no timing reference
* Dated: 2022. 10. 1 오전 11:00:26
* REW Settings:
*  C-weighting compensation: Off
*  Target level: 75.0 dB
* Note: 
* Measurement: L
* Smoothing: 1/24 octave
* Frequency Step: 1/48 octave
* Start Frequency: 20.300 Hz
*
* Freq(Hz)	SPL(dB)	Phase(degrees)
20.299999	71.906	-150.4298
20.600000	71.889	-150.3268
20.900000	71.871	-150.1013
21.200001	71.895	-149.8095
21.400000	71.935	-149.6643
21.799999	72.052	-149.6476
22.000000	72.114	-149.8229
22.400000	72.213	-150.5125
22.700001	72.252	-151.1877
23.000000	72.260	-151.8408
23.299999	72.251	-152.3834
23.600000	72.240	-152.8090
24.000000	72.241	-153.2703
24.299999	72.256	-153.6296
24.700001	72.279	-154.1936
25.000000	72.288	-154.6547
25.400000	72.284	-155.2252
25.799999	72.272	-155.6533
26.200001	72.270	-155.9463
26.500000	72.278	-156.1353
26.900000	72.298	-156.4202
27.200001	72.311	-156.6784
27.600000	72.318	-157.0549
28.000000	72.312	-157.3990
28.500000	72.299	-157.7112
29.000000	72.299	-157.9344
29.500000	72.317	-158.2086
30.000000	72.338	-158.6456
30.400000	72.340	-159.0843
30.700001	72.328	-159.4074
31.100000	72.302	-159.7439
31.500000	72.279	-159.9392
32.000000	72.279	-160.0774
32.500000	72.312	-160.3184
33.000000	72.347	-160.7766
33.500000	72.356	-161.3021
34.000000	72.348	-161.6519
34.500000	72.359	-161.8025
35.000000	72.406	-161.9812
35.500000	72.462	-162.4019
36.000000	72.484	-162.9902
36.500000	72.465	-163.4777
37.000000	72.437	-163.6977
37.500000	72.435	-163.7594
38.200001	72.467	-163.9922
38.700001	72.481	-164.3291
39.500000	72.472	-164.8349
40.000000	72.468	-165.0775
40.599998	72.470	-165.3956
41.200001	72.465	-165.7367
41.799999	72.459	-165.9917
42.500000	72.478	-166.2233
43.099998	72.512	-166.5572
43.700001	72.531	-167.0379
44.400002	72.517	-167.5581
45.000000	72.490	-167.8222
45.500000	72.473	-167.9347
46.200001	72.459	-167.9908
46.799999	72.464	-167.9557
47.500000	72.508	-167.9705
48.200001	72.566	-168.3640
48.700001	72.571	-168.8326
49.400002	72.510	-169.2023
50.000000	72.475	-168.9604
50.799999	72.565	-168.5878
51.500000	72.681	-169.0510
52.200001	72.705	-169.8974
53.000000	72.653	-170.4364
53.799999	72.617	-170.5576
54.500000	72.604	-170.5940
55.200001	72.606	-170.5917
56.000000	72.630	-170.7010
57.000000	72.629	-171.0581
58.000000	72.606	-171.1832
59.000000	72.618	-171.2814
60.000000	72.627	-171.5874
60.799999	72.620	-171.8477
61.500000	72.615	-172.0449
62.200001	72.616	-172.2476
63.000000	72.617	-172.5380
64.000000	72.607	-172.9029
65.000000	72.602	-173.1418
66.000000	72.614	-173.3792
67.000000	72.623	-173.6304
68.000000	72.627	-173.7908
69.000000	72.638	-173.9043
70.000000	72.646	-174.1082
71.000000	72.629	-174.3665
72.000000	72.605	-174.5617
73.000000	72.582	-174.9286
74.000000	72.511	-175.2528
75.000000	72.460	-175.1018
76.199997	72.509	-175.0238
77.500000	72.562	-175.4359
78.800003	72.579	-175.8027
80.000000	72.584	-176.0591
81.199997	72.579	-176.2992
82.500000	72.565	-176.5718
83.800003	72.548	-176.8419
85.000000	72.546	-177.0161
86.199997	72.561	-177.2113
87.500000	72.576	-177.3686
88.500000	72.594	-177.4563
90.000000	72.599	-177.6592
91.199997	72.584	-177.7802
92.500000	72.568	-177.9005
93.800003	72.561	-178.0918
95.000000	72.558	-178.3412
96.199997	72.558	-178.5921
97.500000	72.557	-178.8746
98.800003	72.540	-179.0858
100.000000	72.520	-179.1459
101.500000	72.509	-179.1719
103.000000	72.505	-179.3423
104.400002	72.496	-179.6199
106.000000	72.477	-179.9414
107.500000	72.465	179.8763
109.000000	72.465	179.7776
110.599998	72.462	179.7327
112.000000	72.455	179.7191
113.800003	72.449	179.5464
115.000000	72.442	179.2663
117.199997	72.443	178.5479
118.000000	72.446	178.2198
120.599998	72.392	177.6130
122.000000	72.378	177.8381
124.099998	72.387	177.9927
125.000000	72.381	177.9535
126.500000	72.365	177.8214
128.000000	72.361	177.6376
131.500000	72.376	177.2274
132.000000	72.374	177.1989
134.000000	72.363	177.1155
136.000000	72.347	176.9014
138.000000	72.330	176.5868
140.000000	72.315	176.3556
143.000000	72.281	176.1922
145.000000	72.239	176.0011
147.500000	72.201	175.7027
150.000000	72.199	175.3759
152.500000	72.184	175.2152
155.000000	72.156	175.2136
157.500000	72.149	175.0405
160.000000	72.146	174.6286
162.500000	72.121	174.2540
165.000000	72.086	174.0474
167.500000	72.052	173.8044
170.000000	72.017	173.5552
172.500000	71.992	173.3117
175.000000	71.962	173.0133
177.500000	71.917	172.7383
180.000000	71.868	172.5056
182.500000	71.826	172.2303
185.000000	71.780	171.8754
187.500000	71.723	171.5109
190.000000	71.658	171.1638
192.500000	71.583	170.8207
195.000000	71.489	170.5018
197.500000	71.371	170.2556
200.000000	71.220	170.0347
203.000000	70.971	169.8708
206.000000	70.675	170.2381
209.000000	70.388	171.5556
212.000000	70.190	173.8994
214.000000	70.150	175.7791
218.000000	70.362	179.2959
220.000000	70.576	-179.5624
224.000000	70.996	-178.9128
227.000000	71.226	-179.3593
230.000000	71.391	179.9207
233.000000	71.496	179.1907
236.000000	71.538	178.5184
240.000000	71.553	177.7468
243.000000	71.559	177.2424
247.000000	71.537	176.6938
250.000000	71.511	176.2405
254.000000	71.490	175.6815
258.000000	71.470	175.3393
262.000000	71.447	175.1061
265.000000	71.432	174.8958
269.000000	71.394	174.5559
272.000000	71.363	174.3203
276.000000	71.331	174.1254
280.000000	71.299	174.0116
285.000000	71.247	173.9043
290.000000	71.214	173.8266
295.000000	71.175	173.6943
300.000000	71.125	173.6077
304.000000	71.102	173.5692
307.000000	71.084	173.4946
311.000000	71.048	173.3634
315.000000	71.010	173.2712
320.000000	70.961	173.1853
325.000000	70.919	173.1975
330.000000	70.885	173.2181
335.000000	70.854	173.1212
340.000000	70.818	173.0833
345.000000	70.767	173.1380
350.000000	70.717	173.1564
355.000000	70.667	173.1356
360.000000	70.621	173.1518
365.000000	70.577	173.3255
370.000000	70.533	173.4779
375.000000	70.482	173.5802
382.000000	70.395	173.6460
387.000000	70.338	173.6847
395.000000	70.269	173.8217
400.000000	70.236	173.9018
406.000000	70.197	174.0534
412.000000	70.135	174.1993
418.000000	70.077	174.3361
425.000000	70.017	174.5197
431.000000	69.956	174.7155
437.000000	69.895	174.8251
444.000000	69.841	175.0621
450.000000	69.795	175.3441
455.000000	69.755	175.5453
462.000000	69.709	175.7423
468.000000	69.671	175.8846
475.000000	69.599	176.0135
482.000000	69.536	176.2343
487.000000	69.516	176.4899
494.000000	69.482	176.7811
500.000000	69.444	176.9216
508.000000	69.397	177.2127
515.000000	69.347	177.5957
522.000000	69.292	177.9675
530.000000	69.236	178.2660
538.000000	69.186	178.4955
545.000000	69.143	178.7253
552.000000	69.099	179.0021
560.000000	69.040	179.3842
570.000000	68.963	179.8468
580.000000	68.900	-179.5998
590.000000	68.838	-179.0493
600.000000	68.774	-178.5557
608.000000	68.730	-178.0570
615.000000	68.693	-177.6070
622.000000	68.650	-177.2105
630.000000	68.596	-176.7924
640.000000	68.535	-176.2132
650.000000	68.476	-175.5611
660.000000	68.420	-174.8435
670.000000	68.376	-174.1625
680.000000	68.340	-173.4459
690.000000	68.297	-172.7086
700.000000	68.246	-172.1017
710.000000	68.198	-171.5173
720.000000	68.166	-170.8111
730.000000	68.136	-170.0634
740.000000	68.098	-169.3317
750.000000	68.073	-168.6062
762.000000	68.057	-167.7142
775.000000	68.027	-166.7943
788.000000	68.003	-165.8385
800.000000	67.995	-164.9631
812.000000	67.980	-164.0464
825.000000	67.954	-163.0384
838.000000	67.938	-162.0698
850.000000	67.938	-161.1829
862.000000	67.938	-160.2530
875.000000	67.948	-159.2068
885.000000	67.964	-158.4149
900.000000	67.991	-157.3176
912.000000	68.015	-156.4647
925.000000	68.049	-155.5063
938.000000	68.090	-154.5614
950.000000	68.132	-153.7205
962.000000	68.178	-152.8978
975.000000	68.231	-152.0294
988.000000	68.303	-151.1712
1000.000000	68.376	-150.3497
1015.000000	68.437	-149.4302
1030.000000	68.504	-148.6847
1044.000000	68.574	-147.9724
1060.000000	68.655	-147.1423
1075.000000	68.734	-146.4248
1090.000000	68.811	-145.7498
1106.000000	68.903	-145.0879
1120.000000	68.991	-144.5002
1138.000000	69.100	-143.7850
1150.000000	69.172	-143.3581
1172.000000	69.311	-142.6097
1180.000000	69.362	-142.3568
1206.000000	69.514	-141.4737
1220.000000	69.591	-140.9765
1241.000000	69.703	-140.2905
1250.000000	69.749	-140.0115
1265.000000	69.826	-139.5786
1280.000000	69.906	-139.1823
1315.000000	70.090	-138.1370
1320.000000	70.115	-137.9788
1340.000000	70.218	-137.3870
1360.000000	70.320	-136.7899
1380.000000	70.420	-136.1183
1400.000000	70.522	-135.4559
1430.000000	70.683	-134.4479
1450.000000	70.800	-133.7495
1475.000000	70.952	-132.9298
1500.000000	71.118	-132.1136
1525.000000	71.290	-131.2934
1550.000000	71.472	-130.5342
1575.000000	71.665	-129.8157
1600.000000	71.866	-129.1780
1625.000000	72.068	-128.6169
1650.000000	72.279	-128.1173
1675.000000	72.495	-127.7069
1700.000000	72.707	-127.3744
1725.000000	72.918	-127.1590
1750.000000	73.126	-127.0154
1775.000000	73.329	-126.9243
1800.000000	73.526	-126.9002
1825.000000	73.720	-126.9534
1850.000000	73.911	-127.0444
1875.000000	74.092	-127.1834
1900.000000	74.266	-127.3857
1925.000000	74.432	-127.5995
1950.000000	74.586	-127.8109
1975.000000	74.734	-128.0335
2000.000000	74.879	-128.2883
2030.000000	75.047	-128.6231
2060.000000	75.209	-128.9501
2090.000000	75.371	-129.2686
2120.000000	75.525	-129.6064
2140.000000	75.625	-129.8278
2180.000000	75.821	-130.2622
2200.000000	75.915	-130.4868
2240.000000	76.100	-130.9666
2270.000000	76.236	-131.3514
2300.000000	76.369	-131.7248
2330.000000	76.499	-132.1007
2360.000000	76.628	-132.5096
2400.000000	76.794	-133.0896
2430.000000	76.913	-133.5209
2470.000000	77.063	-134.1108
2500.000000	77.170	-134.5612
2540.000000	77.305	-135.1079
2580.000000	77.437	-135.5348
2620.000000	77.577	-135.8189
2650.000000	77.698	-135.9696
2690.000000	77.902	-136.1987
2720.000000	78.082	-136.5275
2760.000000	78.339	-137.3223
2800.000000	78.576	-138.5348
2850.000000	78.802	-140.3675
2900.000000	78.963	-142.2198
2950.000000	79.085	-143.9813
3000.000000	79.175	-145.7075
3040.000000	79.228	-147.0665
3070.000000	79.258	-148.0480
3110.000000	79.285	-149.2943
3150.000000	79.301	-150.4530
3200.000000	79.314	-151.7993
3250.000000	79.321	-153.0708
3300.000000	79.321	-154.2724
3350.000000	79.314	-155.4031
3400.000000	79.305	-156.4866
3450.000000	79.295	-157.5423
3500.000000	79.284	-158.5465
3550.000000	79.267	-159.4882
3600.000000	79.245	-160.3675
3650.000000	79.220	-161.1648
3700.000000	79.196	-161.8825
3750.000000	79.175	-162.5446
3820.000000	79.148	-163.4181
3870.000000	79.123	-164.0072
3950.000000	79.071	-164.8674
4000.000000	79.037	-165.3264
4060.000000	78.999	-165.7769
4120.000000	78.975	-166.1093
4180.000000	78.970	-166.3591
4250.000000	78.996	-166.6880
4310.000000	79.035	-167.0789
4370.000000	79.073	-167.5905
4440.000000	79.109	-168.3320
4500.000000	79.132	-169.0544
4550.000000	79.148	-169.7014
4620.000000	79.163	-170.6497
4680.000000	79.170	-171.4784
4750.000000	79.176	-172.4795
4820.000000	79.176	-173.5667
4870.000000	79.169	-174.4087
4940.000000	79.148	-175.6187
5000.000000	79.123	-176.6691
5080.000000	79.077	-178.1438
5150.000000	79.016	-179.5100
5220.000000	78.936	179.1053
5300.000000	78.822	177.5616
5380.000000	78.684	176.0518
5450.000000	78.545	174.7709
5520.000000	78.388	173.5624
5600.000000	78.188	172.2827
5700.000000	77.911	170.8772
5800.000000	77.614	169.7430
5900.000000	77.309	168.8951
6000.000000	77.004	168.3213
6080.000000	76.766	168.0689
6150.000000	76.565	167.9926
6220.000000	76.378	168.0203
6300.000000	76.182	168.1701
6400.000000	75.964	168.4956
6500.000000	75.779	168.9155
6600.000000	75.629	169.4409
6700.000000	75.509	170.0266
6800.000000	75.428	170.6515
6900.000000	75.408	171.2658
7000.000000	75.453	171.8353
7100.000000	75.550	172.3306
7200.000000	75.701	172.7052
7300.000000	75.912	172.8475
7400.000000	76.176	172.6152
7500.000000	76.489	171.8960
7620.000000	76.931	170.1669
7750.000000	77.434	166.8708
7880.000000	77.799	161.8653
8000.000000	77.930	155.8359
8120.000000	77.803	148.9095
8250.000000	77.329	141.3283
8380.000000	76.532	134.6969
8500.000000	75.588	129.9509
8620.000000	74.529	126.6720
8750.000000	73.328	124.6512
8850.000000	72.408	124.0245
9000.000000	71.081	124.3139
9120.000000	70.089	125.3977
9250.000000	69.088	127.2722
9380.000000	68.160	129.6537
9500.000000	67.368	132.1538
9620.000000	66.639	134.8924
9750.000000	65.918	138.1372
9880.000000	65.261	141.6523
10000.000000	64.715	145.0910
10150.000000	64.107	149.5746
10300.000000	63.582	154.1736
10440.000000	63.154	158.5318
10600.000000	62.742	163.5484
10750.000000	62.426	168.2479
10900.000000	62.162	172.9688
11060.000000	61.944	178.0798
11200.000000	61.812	-177.4004
11380.000000	61.722	-171.5731
11500.000000	61.720	-167.6857
11720.000000	61.842	-160.6182
11800.000000	61.918	-158.1025
12060.000000	62.305	-150.0480
12200.000000	62.610	-145.8840
12410.000000	63.179	-140.0190
12500.000000	63.472	-137.6432
12650.000000	64.054	-133.9194
12800.000000	64.763	-130.6309
13150.000000	66.981	-125.8624
13200.000000	67.369	-125.6580
13400.000000	69.085	-126.8117
13600.000000	70.875	-132.7699
13800.000000	72.221	-145.3266
14000.000000	72.559	-162.5158
14300.000000	71.023	176.1019
14500.000000	69.291	169.4780
14750.000000	67.200	167.8103
15000.000000	65.575	170.2272
15250.000000	64.473	174.5579
15500.000000	63.881	179.7549
15750.000000	63.812	-174.7077
16000.000000	64.308	-169.6431
16250.000000	65.433	-166.2310
16500.000000	67.230	-166.7622
16750.000000	69.277	-175.6598
17000.000000	70.442	163.4271
17250.000000	69.736	137.4969
17500.000000	67.269	120.0533
17750.000000	64.038	114.0448
18000.000000	60.989	114.8797
18250.000000	58.475	118.9478
18500.000000	56.463	124.5528
18750.000000	54.809	130.9516
19000.000000	53.425	137.8191
19250.000000	52.276	144.9333
19500.000000	51.287	152.3108
19750.000000	50.425	159.5359
20000.000000	49.816	164.6049
