* Measurement data measured by REW V5.20.13
* Source: EXCL: Mic in at rear panel (Pink)(Realtek(R) Audio), MICROPHONE (마스), L, volume: 0.500
* Format: 256k Log Swept Sine, 1 sweep at -12.0 dBFS with no timing reference
* Dated: 2022. 10. 1 오전 11:02:45
* REW Settings:
*  C-weighting compensation: Off
*  Target level: 75.0 dB
* Note: 
* Measurement: L_T
* Smoothing: 1/24 octave
* Frequency Step: 1/48 octave
* Start Frequency: 20.300 Hz
*
* Freq(Hz)	SPL(dB)	Phase(degrees)
20.299999	71.846	-149.5712
20.600000	71.863	-149.6210
20.900000	71.899	-149.7370
21.200001	71.939	-149.9278
21.400000	71.964	-150.1077
21.799999	72.001	-150.5635
22.000000	72.013	-150.8139
22.400000	72.025	-151.2930
22.700001	72.033	-151.6159
23.000000	72.046	-151.9293
23.299999	72.066	-152.2686
23.600000	72.088	-152.6462
24.000000	72.114	-153.1901
24.299999	72.130	-153.5864
24.700001	72.152	-154.0547
25.000000	72.173	-154.3654
25.400000	72.210	-154.7729
25.799999	72.249	-155.2243
26.200001	72.278	-155.7043
26.500000	72.289	-156.0343
26.900000	72.293	-156.3782
27.200001	72.297	-156.5618
27.600000	72.311	-156.7645
28.000000	72.334	-157.0202
28.500000	72.354	-157.4883
29.000000	72.343	-158.0108
29.500000	72.307	-158.3998
30.000000	72.279	-158.6166
30.400000	72.277	-158.7788
30.700001	72.285	-158.9634
31.100000	72.296	-159.3241
31.500000	72.292	-159.7635
32.000000	72.266	-160.2594
32.500000	72.238	-160.5638
33.000000	72.239	-160.7295
33.500000	72.275	-160.9293
34.000000	72.328	-161.2771
34.500000	72.372	-161.7370
35.000000	72.400	-162.2143
35.500000	72.414	-162.6475
36.000000	72.417	-163.0069
36.500000	72.411	-163.2486
37.000000	72.409	-163.3522
37.500000	72.424	-163.3974
38.200001	72.463	-163.6285
38.700001	72.476	-163.9536
39.500000	72.457	-164.4208
40.000000	72.448	-164.6173
40.599998	72.452	-164.9137
41.200001	72.450	-165.3366
41.799999	72.434	-165.7219
42.500000	72.431	-166.0045
43.099998	72.463	-166.2602
43.700001	72.511	-166.6867
44.400002	72.548	-167.4044
45.000000	72.534	-168.0294
45.500000	72.491	-168.3069
46.200001	72.451	-168.1171
46.799999	72.506	-167.7769
47.500000	72.629	-168.0110
48.200001	72.670	-168.8760
48.700001	72.624	-169.3541
49.400002	72.542	-169.4082
50.000000	72.524	-169.1871
50.799999	72.555	-169.1189
51.500000	72.581	-169.2860
52.200001	72.600	-169.5138
53.000000	72.619	-169.8244
53.799999	72.631	-170.1387
54.500000	72.642	-170.3795
55.200001	72.657	-170.6210
56.000000	72.671	-170.9206
57.000000	72.672	-171.2605
58.000000	72.659	-171.4755
59.000000	72.646	-171.5878
60.000000	72.639	-171.7017
60.799999	72.636	-171.8562
61.500000	72.631	-172.0298
62.200001	72.624	-172.2077
63.000000	72.621	-172.4062
64.000000	72.628	-172.7082
65.000000	72.630	-173.0861
66.000000	72.620	-173.4285
67.000000	72.603	-173.6701
68.000000	72.587	-173.7842
69.000000	72.586	-173.8607
70.000000	72.592	-174.0141
71.000000	72.597	-174.2490
72.000000	72.600	-174.5207
73.000000	72.604	-174.8627
74.000000	72.587	-175.2477
75.000000	72.554	-175.3737
76.199997	72.563	-175.3213
77.500000	72.591	-175.5075
78.800003	72.592	-175.7714
80.000000	72.575	-175.9877
81.199997	72.563	-176.1425
82.500000	72.567	-176.3876
83.800003	72.568	-176.7360
85.000000	72.558	-176.9988
86.199997	72.554	-177.1176
87.500000	72.567	-177.2368
88.500000	72.570	-177.3977
90.000000	72.557	-177.5774
91.199997	72.558	-177.6693
92.500000	72.571	-177.8921
93.800003	72.575	-178.2163
95.000000	72.565	-178.4871
96.199997	72.548	-178.6443
97.500000	72.536	-178.7426
98.800003	72.523	-178.8380
100.000000	72.512	-178.9116
101.500000	72.507	-179.0542
103.000000	72.504	-179.3128
104.400002	72.497	-179.5742
106.000000	72.491	-179.8296
107.500000	72.495	179.9578
109.000000	72.499	179.7017
110.599998	72.485	179.5150
112.000000	72.478	179.4501
113.800003	72.474	179.3535
115.000000	72.471	179.2487
117.199997	72.443	178.9160
118.000000	72.424	178.8047
120.599998	72.383	178.5916
122.000000	72.377	178.4111
124.099998	72.369	178.1917
125.000000	72.370	178.1100
126.500000	72.377	177.9668
128.000000	72.388	177.7962
131.500000	72.382	177.3290
132.000000	72.376	177.2905
134.000000	72.358	177.2266
136.000000	72.352	177.0671
138.000000	72.340	176.8080
140.000000	72.323	176.5461
143.000000	72.300	176.3666
145.000000	72.300	176.1863
147.500000	72.275	175.7516
150.000000	72.240	175.4391
152.500000	72.224	175.3500
155.000000	72.224	175.2661
157.500000	72.204	175.0237
160.000000	72.176	174.7676
162.500000	72.157	174.5161
165.000000	72.129	174.3560
167.500000	72.106	174.3214
170.000000	72.094	174.1866
172.500000	72.075	173.9312
175.000000	72.049	173.6696
177.500000	72.022	173.4209
180.000000	71.985	173.1923
182.500000	71.947	173.0074
185.000000	71.917	172.7679
187.500000	71.892	172.5009
190.000000	71.871	172.2757
192.500000	71.846	172.0819
195.000000	71.823	171.9126
197.500000	71.804	171.6628
200.000000	71.765	171.3759
203.000000	71.705	171.0916
206.000000	71.642	170.8000
209.000000	71.573	170.5564
212.000000	71.501	170.3631
214.000000	71.449	170.2038
218.000000	71.346	169.6849
220.000000	71.293	169.3530
224.000000	71.162	168.8213
227.000000	71.026	168.5715
230.000000	70.860	168.3734
233.000000	70.646	168.3320
236.000000	70.379	168.7270
240.000000	70.004	170.1597
243.000000	69.758	172.2015
247.000000	69.610	176.0328
250.000000	69.752	178.8175
254.000000	70.206	-178.8996
258.000000	70.651	-178.4296
262.000000	70.961	-179.0128
265.000000	71.115	-179.7458
269.000000	71.237	179.2754
272.000000	71.293	178.6061
276.000000	71.335	177.7611
280.000000	71.343	177.0555
285.000000	71.324	176.4077
290.000000	71.290	175.8711
295.000000	71.261	175.3708
300.000000	71.228	175.0609
304.000000	71.202	174.8074
307.000000	71.178	174.6399
311.000000	71.143	174.4351
315.000000	71.112	174.2279
320.000000	71.067	174.0250
325.000000	71.017	173.9090
330.000000	70.982	173.8423
335.000000	70.947	173.7512
340.000000	70.911	173.6302
345.000000	70.871	173.5164
350.000000	70.825	173.4889
355.000000	70.769	173.5454
360.000000	70.725	173.5283
365.000000	70.676	173.4868
370.000000	70.621	173.5081
375.000000	70.573	173.5312
382.000000	70.505	173.5146
387.000000	70.454	173.5435
395.000000	70.374	173.6905
400.000000	70.331	173.7845
406.000000	70.281	173.9291
412.000000	70.214	174.0341
418.000000	70.149	174.1440
425.000000	70.088	174.3186
431.000000	70.046	174.4796
437.000000	70.008	174.6171
444.000000	69.973	174.8024
450.000000	69.937	174.9775
455.000000	69.903	175.1129
462.000000	69.853	175.2844
468.000000	69.808	175.3742
475.000000	69.752	175.4092
482.000000	69.700	175.5746
487.000000	69.666	175.8738
494.000000	69.627	176.2289
500.000000	69.591	176.3926
508.000000	69.536	176.6428
515.000000	69.484	176.9050
522.000000	69.424	177.1921
530.000000	69.353	177.4253
538.000000	69.291	177.6772
545.000000	69.246	178.0134
552.000000	69.211	178.3262
560.000000	69.164	178.6213
570.000000	69.090	178.9675
580.000000	69.021	179.4330
590.000000	68.970	179.9667
600.000000	68.916	-179.4046
608.000000	68.861	-178.9332
615.000000	68.817	-178.5351
622.000000	68.774	-178.1870
630.000000	68.727	-177.7667
640.000000	68.680	-177.1315
650.000000	68.626	-176.5311
660.000000	68.565	-175.9822
670.000000	68.510	-175.3667
680.000000	68.464	-174.7356
690.000000	68.424	-174.1849
700.000000	68.381	-173.6020
710.000000	68.337	-172.9736
720.000000	68.290	-172.2531
730.000000	68.248	-171.5181
740.000000	68.223	-170.8503
750.000000	68.207	-170.1751
762.000000	68.183	-169.3619
775.000000	68.152	-168.4733
788.000000	68.129	-167.5553
800.000000	68.104	-166.6616
812.000000	68.078	-165.7931
825.000000	68.073	-164.8190
838.000000	68.076	-163.7944
850.000000	68.081	-162.9017
862.000000	68.082	-161.9893
875.000000	68.084	-161.0247
885.000000	68.099	-160.3271
900.000000	68.127	-159.2657
912.000000	68.157	-158.4144
925.000000	68.193	-157.5066
938.000000	68.232	-156.6158
950.000000	68.273	-155.7990
962.000000	68.313	-155.0294
975.000000	68.356	-154.2702
988.000000	68.407	-153.5983
1000.000000	68.463	-152.9603
1015.000000	68.541	-152.0190
1030.000000	68.626	-151.1086
1044.000000	68.704	-150.3486
1060.000000	68.778	-149.5987
1075.000000	68.858	-148.9190
1090.000000	68.951	-148.2311
1106.000000	69.055	-147.5441
1120.000000	69.146	-147.0099
1138.000000	69.260	-146.3976
1150.000000	69.328	-145.9941
1172.000000	69.446	-145.3061
1180.000000	69.492	-145.0613
1206.000000	69.647	-144.2484
1220.000000	69.732	-143.8198
1241.000000	69.857	-143.2392
1250.000000	69.908	-143.0137
1265.000000	69.990	-142.6647
1280.000000	70.065	-142.2977
1315.000000	70.232	-141.2813
1320.000000	70.255	-141.1362
1340.000000	70.352	-140.5778
1360.000000	70.456	-139.9877
1380.000000	70.560	-139.4008
1400.000000	70.666	-138.8252
1430.000000	70.845	-137.9440
1450.000000	70.969	-137.3482
1475.000000	71.119	-136.6119
1500.000000	71.285	-135.8799
1525.000000	71.468	-135.1786
1550.000000	71.651	-134.5585
1575.000000	71.835	-133.9643
1600.000000	72.028	-133.4372
1625.000000	72.231	-133.0315
1650.000000	72.440	-132.6792
1675.000000	72.652	-132.3845
1700.000000	72.862	-132.2015
1725.000000	73.066	-132.1063
1750.000000	73.261	-132.0816
1775.000000	73.453	-132.1254
1800.000000	73.640	-132.2049
1825.000000	73.821	-132.3292
1850.000000	73.995	-132.5336
1875.000000	74.160	-132.7746
1900.000000	74.318	-133.0295
1925.000000	74.470	-133.2886
1950.000000	74.614	-133.5389
1975.000000	74.751	-133.8087
2000.000000	74.886	-134.0880
2030.000000	75.042	-134.4166
2060.000000	75.193	-134.7426
2090.000000	75.342	-135.0750
2120.000000	75.488	-135.4080
2140.000000	75.584	-135.6277
2180.000000	75.778	-136.0466
2200.000000	75.873	-136.2479
2240.000000	76.059	-136.7077
2270.000000	76.196	-137.0960
2300.000000	76.337	-137.4929
2330.000000	76.476	-137.9098
2360.000000	76.610	-138.3474
2400.000000	76.790	-138.9684
2430.000000	76.926	-139.4633
2470.000000	77.104	-140.1504
2500.000000	77.235	-140.6955
2540.000000	77.407	-141.4644
2580.000000	77.578	-142.2878
2620.000000	77.745	-143.1656
2650.000000	77.868	-143.8713
2690.000000	78.023	-144.8640
2720.000000	78.133	-145.6418
2760.000000	78.273	-146.7321
2800.000000	78.402	-147.8828
2850.000000	78.548	-149.3696
2900.000000	78.674	-150.8959
2950.000000	78.783	-152.4366
3000.000000	78.875	-154.0137
3040.000000	78.936	-155.2815
3070.000000	78.972	-156.2240
3110.000000	79.010	-157.4686
3150.000000	79.037	-158.6985
3200.000000	79.056	-160.1808
3250.000000	79.064	-161.5862
3300.000000	79.063	-162.9312
3350.000000	79.055	-164.2410
3400.000000	79.042	-165.5509
3450.000000	79.018	-166.8520
3500.000000	78.984	-168.0925
3550.000000	78.942	-169.2404
3600.000000	78.890	-170.2777
3650.000000	78.833	-171.2053
3700.000000	78.777	-172.0449
3750.000000	78.725	-172.8232
3820.000000	78.651	-173.8471
3870.000000	78.590	-174.5176
3950.000000	78.491	-175.4874
4000.000000	78.429	-176.0260
4060.000000	78.357	-176.5944
4120.000000	78.290	-177.1112
4180.000000	78.230	-177.6027
4250.000000	78.166	-178.1296
4310.000000	78.110	-178.5315
4370.000000	78.050	-178.9026
4440.000000	77.978	-179.3158
4500.000000	77.921	-179.6349
4550.000000	77.877	-179.8785
4620.000000	77.825	179.7913
4680.000000	77.790	179.5156
4750.000000	77.756	179.1938
4820.000000	77.733	178.8294
4870.000000	77.723	178.5433
4940.000000	77.709	178.1175
5000.000000	77.697	177.7101
5080.000000	77.680	177.1148
5150.000000	77.668	176.5506
5220.000000	77.660	175.9321
5300.000000	77.649	175.1684
5380.000000	77.635	174.3478
5450.000000	77.620	173.5887
5520.000000	77.599	172.7953
5600.000000	77.569	171.8351
5700.000000	77.517	170.5963
5800.000000	77.450	169.3363
5900.000000	77.367	168.0689
6000.000000	77.265	166.8267
6080.000000	77.175	165.8961
6150.000000	77.094	165.1504
6220.000000	77.013	164.4651
6300.000000	76.928	163.7560
6400.000000	76.838	162.9507
6500.000000	76.765	162.1200
6600.000000	76.704	161.2047
6700.000000	76.642	160.2058
6800.000000	76.579	159.1516
6900.000000	76.529	158.1057
7000.000000	76.496	157.1503
7100.000000	76.481	156.2991
7200.000000	76.493	155.5011
7300.000000	76.540	154.6660
7400.000000	76.632	153.6849
7500.000000	76.766	152.4487
7620.000000	76.988	150.4202
7750.000000	77.262	147.2532
7880.000000	77.444	142.8742
8000.000000	77.473	137.7688
8120.000000	77.326	131.8956
8250.000000	76.925	125.2227
8380.000000	76.270	118.9190
8500.000000	75.473	113.9040
8620.000000	74.543	109.9510
8750.000000	73.442	106.9356
8850.000000	72.564	105.4446
9000.000000	71.250	104.3872
9120.000000	70.233	104.3896
9250.000000	69.180	105.1425
9380.000000	68.184	106.5092
9500.000000	67.324	108.1401
9620.000000	66.523	110.0813
9750.000000	65.712	112.4761
9880.000000	64.957	115.1216
10000.000000	64.310	117.7340
10150.000000	63.560	121.1576
10300.000000	62.868	124.7824
10440.000000	62.269	128.2898
10600.000000	61.640	132.3723
10750.000000	61.100	136.3123
10900.000000	60.595	140.4499
11060.000000	60.110	144.9964
11200.000000	59.748	149.0514
11380.000000	59.343	154.3334
11500.000000	59.108	157.9031
11720.000000	58.754	164.4608
11800.000000	58.652	166.8731
12060.000000	58.400	174.8001
12200.000000	58.316	179.0934
12410.000000	58.235	-174.4788
12500.000000	58.224	-171.7464
12650.000000	58.232	-167.2575
12800.000000	58.273	-162.7953
13150.000000	58.575	-152.4823
13200.000000	58.648	-151.0067
13400.000000	59.032	-145.0020
13600.000000	59.573	-139.0282
13800.000000	60.318	-133.3248
14000.000000	61.299	-128.1202
14300.000000	63.277	-121.5440
14500.000000	65.113	-118.6790
14750.000000	68.158	-119.1968
15000.000000	71.444	-130.3207
15250.000000	73.279	-158.0174
15500.000000	72.445	170.0060
15750.000000	69.614	152.5183
16000.000000	66.481	148.3612
16250.000000	64.022	150.2379
16500.000000	62.269	154.5331
16750.000000	61.029	159.8090
17000.000000	60.164	165.4404
17250.000000	59.605	171.1481
17500.000000	59.338	176.8799
17750.000000	59.330	-177.7061
18000.000000	59.547	-172.9426
18250.000000	59.950	-168.9816
18500.000000	60.542	-166.1467
18750.000000	61.295	-165.0078
19000.000000	62.079	-166.2161
19250.000000	62.722	-170.1955
19500.000000	63.021	-176.7263
19750.000000	62.890	175.9440
20000.000000	62.558	171.0246
