* Measurement data measured by REW V5.20.13
* Source: EXCL: Mic in at rear panel (Pink)(Realtek(R) Audio), MICROPHONE (마스), L, volume: 0.500
* Format: 256k Log Swept Sine, 1 sweep at -12.0 dBFS with no timing reference
* Dated: 2022. 10. 1 오전 11:23:46
* REW Settings:
*  C-weighting compensation: Off
*  Target level: 75.0 dB
* Note: 
* Measurement: R_Deep
* Smoothing: 1/24 octave
* Frequency Step: 1/48 octave
* Start Frequency: 20.300 Hz
*
* Freq(Hz)	SPL(dB)	Phase(degrees)
20.299999	70.593	-151.9804
20.600000	70.610	-151.9347
20.900000	70.653	-151.8926
21.200001	70.709	-151.9821
21.400000	70.745	-152.1561
21.799999	70.791	-152.7421
22.000000	70.793	-153.1038
22.400000	70.752	-153.7907
22.700001	70.695	-154.1438
23.000000	70.638	-154.2967
23.299999	70.605	-154.3044
23.600000	70.609	-154.2886
24.000000	70.670	-154.4740
24.299999	70.735	-154.9231
24.700001	70.803	-155.9592
25.000000	70.810	-156.9106
25.400000	70.749	-158.0610
25.799999	70.647	-158.6951
26.200001	70.575	-158.7389
26.500000	70.578	-158.5947
26.900000	70.654	-158.5603
27.200001	70.732	-158.8520
27.600000	70.805	-159.6500
28.000000	70.802	-160.5547
28.500000	70.717	-161.1877
29.000000	70.651	-161.0997
29.500000	70.669	-160.8159
30.000000	70.728	-160.8717
30.400000	70.754	-161.1291
30.700001	70.755	-161.3151
31.100000	70.746	-161.4417
31.500000	70.746	-161.4631
32.000000	70.767	-161.5313
32.500000	70.789	-161.7448
33.000000	70.796	-161.9677
33.500000	70.811	-162.0879
34.000000	70.854	-162.2310
34.500000	70.909	-162.5930
35.000000	70.942	-163.1546
35.500000	70.940	-163.6956
36.000000	70.924	-164.0665
36.500000	70.917	-164.3187
37.000000	70.916	-164.5569
37.500000	70.908	-164.7549
38.200001	70.903	-164.7866
38.700001	70.935	-164.7069
39.500000	71.039	-164.9556
40.000000	71.087	-165.4112
40.599998	71.098	-165.9850
41.200001	71.085	-166.3364
41.799999	71.084	-166.5195
42.500000	71.098	-166.7596
43.099998	71.099	-167.0153
43.700001	71.078	-167.1542
44.400002	71.058	-167.0333
45.000000	71.078	-166.8200
45.500000	71.121	-166.7913
46.200001	71.175	-167.1762
46.799999	71.163	-167.7328
47.500000	71.084	-168.1102
48.200001	71.028	-168.0169
48.700001	71.040	-167.9422
49.400002	71.093	-168.2876
50.000000	71.109	-168.9385
50.799999	71.072	-169.7255
51.500000	71.045	-170.2106
52.200001	71.022	-170.7195
53.000000	70.967	-171.1312
53.799999	70.928	-171.0583
54.500000	70.951	-170.8573
55.200001	71.008	-170.8074
56.000000	71.081	-171.0148
57.000000	71.119	-171.6096
58.000000	71.074	-171.8900
59.000000	71.075	-171.6684
60.000000	71.131	-171.7812
60.799999	71.149	-172.1025
61.500000	71.142	-172.3435
62.200001	71.128	-172.5047
63.000000	71.108	-172.6021
64.000000	71.088	-172.6160
65.000000	71.089	-172.6191
66.000000	71.102	-172.7881
67.000000	71.099	-173.0748
68.000000	71.092	-173.2863
69.000000	71.103	-173.5019
70.000000	71.109	-173.7942
71.000000	71.098	-173.9825
72.000000	71.090	-174.0115
73.000000	71.084	-173.9742
74.000000	71.093	-173.7836
75.000000	71.150	-173.8096
76.199997	71.176	-174.4328
77.500000	71.131	-174.9868
78.800003	71.087	-175.3426
80.000000	71.056	-175.4686
81.199997	71.055	-175.5072
82.500000	71.062	-175.6485
83.800003	71.050	-175.7884
85.000000	71.039	-175.8748
86.199997	71.044	-176.0144
87.500000	71.056	-176.3617
88.500000	71.057	-176.6454
90.000000	71.071	-176.9475
91.199997	71.084	-177.1238
92.500000	71.092	-177.1378
93.800003	71.102	-177.0551
95.000000	71.102	-177.0119
96.199997	71.088	-177.0681
97.500000	71.058	-177.2326
98.800003	71.022	-177.5010
100.000000	70.988	-177.6712
101.500000	71.005	-177.7909
103.000000	71.030	-178.1778
104.400002	71.022	-178.3786
106.000000	71.017	-178.4662
107.500000	71.011	-178.5987
109.000000	71.004	-178.7448
110.599998	71.007	-178.8459
112.000000	71.020	-178.9282
113.800003	71.019	-179.1092
115.000000	71.003	-179.2330
117.199997	70.991	-179.6405
118.000000	70.988	-179.8993
120.599998	70.938	179.7289
122.000000	70.958	-179.9938
124.099998	71.004	-179.8819
125.000000	71.000	-179.9503
126.500000	70.970	179.8924
128.000000	70.942	179.7420
131.500000	70.936	179.5594
132.000000	70.937	179.5844
134.000000	70.940	179.7150
136.000000	70.931	179.6378
138.000000	70.910	179.3834
140.000000	70.902	179.1448
143.000000	70.900	178.8344
145.000000	70.870	178.6771
147.500000	70.815	178.4755
150.000000	70.787	178.4814
152.500000	70.815	178.3809
155.000000	70.823	178.1459
157.500000	70.805	177.9421
160.000000	70.778	177.7924
162.500000	70.758	177.7193
165.000000	70.757	177.6873
167.500000	70.745	177.5567
170.000000	70.716	177.4193
172.500000	70.697	177.2365
175.000000	70.685	177.0264
177.500000	70.676	176.8570
180.000000	70.670	176.7619
182.500000	70.667	176.7489
185.000000	70.658	176.7382
187.500000	70.629	176.6094
190.000000	70.597	176.4085
192.500000	70.582	176.2304
195.000000	70.573	176.1127
197.500000	70.557	175.9954
200.000000	70.533	175.8434
203.000000	70.512	175.7412
206.000000	70.493	175.7208
209.000000	70.472	175.6574
212.000000	70.447	175.4998
214.000000	70.430	175.4034
218.000000	70.397	175.2784
220.000000	70.388	175.2175
224.000000	70.354	175.0358
227.000000	70.310	174.9193
230.000000	70.293	174.7902
233.000000	70.299	174.6667
236.000000	70.287	174.5292
240.000000	70.233	174.2191
243.000000	70.180	174.0170
247.000000	70.122	173.9267
250.000000	70.089	173.8640
254.000000	70.045	173.8825
258.000000	69.985	173.8348
262.000000	69.918	173.5690
265.000000	69.863	173.3907
269.000000	69.782	173.1775
272.000000	69.701	173.0199
276.000000	69.568	172.9196
280.000000	69.430	172.9226
285.000000	69.247	173.4264
290.000000	69.079	174.6457
295.000000	69.000	176.3749
300.000000	69.053	177.9632
304.000000	69.157	178.7265
307.000000	69.247	179.0168
311.000000	69.356	179.2015
315.000000	69.427	179.2047
320.000000	69.482	178.9635
325.000000	69.522	178.6432
330.000000	69.540	178.4011
335.000000	69.541	178.3220
340.000000	69.523	178.1739
345.000000	69.509	178.0237
350.000000	69.491	178.0259
355.000000	69.452	178.0049
360.000000	69.405	177.8520
365.000000	69.374	177.8363
370.000000	69.343	177.9290
375.000000	69.301	177.8565
382.000000	69.227	177.7464
387.000000	69.175	177.7931
395.000000	69.109	177.9443
400.000000	69.068	178.0353
406.000000	69.007	178.1728
412.000000	68.959	178.3037
418.000000	68.909	178.5024
425.000000	68.839	178.8773
431.000000	68.809	179.1883
437.000000	68.771	179.4198
444.000000	68.713	179.6174
450.000000	68.678	179.8744
455.000000	68.654	-179.9270
462.000000	68.615	-179.6519
468.000000	68.575	-179.3967
475.000000	68.506	-179.0979
482.000000	68.453	-178.7774
487.000000	68.449	-178.5507
494.000000	68.440	-178.3084
500.000000	68.400	-178.1618
508.000000	68.334	-177.9884
515.000000	68.288	-177.7298
522.000000	68.242	-177.3597
530.000000	68.197	-176.8455
538.000000	68.153	-176.3568
545.000000	68.107	-176.0404
552.000000	68.069	-175.7182
560.000000	68.027	-175.2940
570.000000	67.971	-174.7361
580.000000	67.929	-174.1432
590.000000	67.886	-173.4822
600.000000	67.813	-172.8716
608.000000	67.766	-172.4906
615.000000	67.738	-172.0484
622.000000	67.716	-171.5575
630.000000	67.690	-171.0376
640.000000	67.645	-170.3878
650.000000	67.592	-169.7714
660.000000	67.550	-169.0766
670.000000	67.515	-168.3713
680.000000	67.501	-167.7763
690.000000	67.476	-167.1044
700.000000	67.437	-166.3714
710.000000	67.407	-165.7368
720.000000	67.388	-165.1033
730.000000	67.365	-164.3406
740.000000	67.346	-163.5633
750.000000	67.347	-162.8381
762.000000	67.336	-161.9253
775.000000	67.316	-160.8393
788.000000	67.288	-159.8252
800.000000	67.267	-158.9465
812.000000	67.263	-158.0269
825.000000	67.262	-156.9590
838.000000	67.278	-155.9341
850.000000	67.298	-155.0362
862.000000	67.309	-154.0842
875.000000	67.321	-153.0122
885.000000	67.343	-152.2291
900.000000	67.396	-151.1154
912.000000	67.440	-150.2569
925.000000	67.482	-149.3368
938.000000	67.532	-148.4272
950.000000	67.577	-147.5534
962.000000	67.623	-146.6993
975.000000	67.680	-145.8096
988.000000	67.743	-144.9754
1000.000000	67.816	-144.2761
1015.000000	67.928	-143.3708
1030.000000	68.036	-142.4725
1044.000000	68.137	-141.7010
1060.000000	68.243	-140.9173
1075.000000	68.337	-140.2161
1090.000000	68.440	-139.5677
1106.000000	68.561	-138.9486
1120.000000	68.673	-138.4279
1138.000000	68.803	-137.7579
1150.000000	68.880	-137.3371
1172.000000	69.027	-136.5923
1180.000000	69.082	-136.3258
1206.000000	69.258	-135.5512
1220.000000	69.346	-135.1771
1241.000000	69.479	-134.5856
1250.000000	69.532	-134.3276
1265.000000	69.617	-133.9042
1280.000000	69.706	-133.5119
1315.000000	69.912	-132.6997
1320.000000	69.941	-132.5921
1340.000000	70.055	-132.1290
1360.000000	70.158	-131.6071
1380.000000	70.259	-131.1013
1400.000000	70.365	-130.6065
1430.000000	70.539	-129.8507
1450.000000	70.652	-129.2551
1475.000000	70.789	-128.4577
1500.000000	70.941	-127.6927
1525.000000	71.095	-126.9644
1550.000000	71.249	-126.2569
1575.000000	71.419	-125.5644
1600.000000	71.598	-124.8522
1625.000000	71.773	-124.2009
1650.000000	71.961	-123.5824
1675.000000	72.159	-122.9516
1700.000000	72.364	-122.4030
1725.000000	72.572	-121.8620
1750.000000	72.785	-121.3697
1775.000000	73.004	-121.0110
1800.000000	73.225	-120.7288
1825.000000	73.445	-120.5465
1850.000000	73.666	-120.4698
1875.000000	73.885	-120.4384
1900.000000	74.101	-120.4670
1925.000000	74.312	-120.5576
1950.000000	74.516	-120.7186
1975.000000	74.714	-120.9359
2000.000000	74.907	-121.1849
2030.000000	75.126	-121.5297
2060.000000	75.334	-121.9297
2090.000000	75.537	-122.3440
2120.000000	75.733	-122.7895
2140.000000	75.859	-123.1063
2180.000000	76.097	-123.7397
2200.000000	76.213	-124.0645
2240.000000	76.446	-124.7601
2270.000000	76.614	-125.2814
2300.000000	76.776	-125.7970
2330.000000	76.935	-126.3458
2360.000000	77.091	-126.9242
2400.000000	77.293	-127.7163
2430.000000	77.443	-128.3261
2470.000000	77.640	-129.1958
2500.000000	77.784	-129.8851
2540.000000	77.967	-130.8378
2580.000000	78.141	-131.8367
2620.000000	78.311	-132.8834
2650.000000	78.432	-133.6927
2690.000000	78.584	-134.8145
2720.000000	78.689	-135.6841
2760.000000	78.822	-136.8788
2800.000000	78.943	-138.1027
2850.000000	79.075	-139.6489
2900.000000	79.188	-141.2300
2950.000000	79.281	-142.8036
3000.000000	79.352	-144.3873
3040.000000	79.394	-145.6540
3070.000000	79.420	-146.5888
3110.000000	79.444	-147.8015
3150.000000	79.457	-148.9490
3200.000000	79.457	-150.3029
3250.000000	79.442	-151.5958
3300.000000	79.418	-152.7844
3350.000000	79.388	-153.8563
3400.000000	79.360	-154.8543
3450.000000	79.333	-155.8156
3500.000000	79.305	-156.7238
3550.000000	79.275	-157.5513
3600.000000	79.240	-158.2988
3650.000000	79.203	-158.9683
3700.000000	79.166	-159.5667
3750.000000	79.130	-160.0837
3820.000000	79.084	-160.6600
3870.000000	79.054	-160.9818
3950.000000	79.020	-161.3551
4000.000000	79.017	-161.5379
4060.000000	79.030	-161.7708
4120.000000	79.058	-162.0483
4180.000000	79.097	-162.3901
4250.000000	79.146	-162.8969
4310.000000	79.183	-163.3847
4370.000000	79.209	-163.8923
4440.000000	79.234	-164.5065
4500.000000	79.257	-165.0421
4550.000000	79.278	-165.4933
4620.000000	79.314	-166.1596
4680.000000	79.352	-166.7712
4750.000000	79.400	-167.5547
4820.000000	79.451	-168.4518
4870.000000	79.487	-169.1556
4940.000000	79.533	-170.2410
5000.000000	79.567	-171.2691
5080.000000	79.595	-172.7726
5150.000000	79.606	-174.2091
5220.000000	79.599	-175.7292
5300.000000	79.566	-177.5283
5380.000000	79.501	-179.3799
5450.000000	79.418	178.9843
5520.000000	79.312	177.3726
5600.000000	79.165	175.5906
5700.000000	78.941	173.4958
5800.000000	78.678	171.6335
5900.000000	78.386	170.0299
6000.000000	78.078	168.7123
6080.000000	77.828	167.8730
6150.000000	77.614	167.2846
6220.000000	77.407	166.8141
6300.000000	77.178	166.4074
6400.000000	76.902	166.0592
6500.000000	76.639	165.8698
6600.000000	76.390	165.8485
6700.000000	76.163	166.0075
6800.000000	75.972	166.3402
6900.000000	75.838	166.8241
7000.000000	75.772	167.4291
7100.000000	75.766	168.0746
7200.000000	75.826	168.6669
7300.000000	75.959	169.0550
7400.000000	76.156	169.0785
7500.000000	76.409	168.6153
7620.000000	76.774	167.2076
7750.000000	77.191	164.3827
7880.000000	77.485	160.0783
8000.000000	77.581	154.8624
8120.000000	77.462	148.7933
8250.000000	77.046	141.9693
8380.000000	76.341	135.7264
8500.000000	75.481	131.0979
8620.000000	74.486	127.8052
8750.000000	73.336	125.6890
8850.000000	72.445	124.9532
9000.000000	71.148	125.0479
9120.000000	70.165	125.9726
9250.000000	69.168	127.6294
9380.000000	68.244	129.7776
9500.000000	67.449	132.1417
9620.000000	66.708	134.8219
9750.000000	65.967	138.0124
9880.000000	65.296	141.4011
10000.000000	64.743	144.6860
10150.000000	64.121	148.9813
10300.000000	63.563	153.4682
10440.000000	63.104	157.8102
10600.000000	62.653	162.7841
10750.000000	62.296	167.4951
10900.000000	62.001	172.3713
11060.000000	61.741	177.6038
11200.000000	61.576	-177.8135
11380.000000	61.454	-171.8211
11500.000000	61.413	-167.8290
11720.000000	61.455	-160.6066
11800.000000	61.514	-158.0243
12060.000000	61.856	-149.7807
12200.000000	62.107	-145.4715
12410.000000	62.588	-139.2334
12500.000000	62.852	-136.6444
12650.000000	63.382	-132.5034
12800.000000	64.026	-128.7334
13150.000000	66.066	-122.3111
13200.000000	66.424	-121.7739
13400.000000	68.036	-121.1112
13600.000000	69.874	-123.9696
13800.000000	71.597	-132.4984
14000.000000	72.628	-147.3564
14300.000000	72.105	-172.3021
14500.000000	70.662	176.9709
14750.000000	68.526	171.7460
15000.000000	66.703	172.3850
15250.000000	65.444	175.9052
15500.000000	64.773	-179.3897
15750.000000	64.671	-174.5958
16000.000000	65.100	-170.3701
16250.000000	66.139	-167.7085
16500.000000	67.840	-168.9039
16750.000000	69.770	-178.4810
17000.000000	70.805	160.1382
17250.000000	69.987	134.1826
17500.000000	67.423	116.9416
17750.000000	64.090	111.2871
18000.000000	60.951	112.5302
18250.000000	58.383	117.0003
18500.000000	56.320	123.0822
18750.000000	54.634	130.1887
19000.000000	53.247	137.8214
19250.000000	52.087	145.6135
19500.000000	51.103	153.4785
19750.000000	50.360	160.8686
20000.000000	49.967	166.0307
