* Measurement data measured by REW V5.20.13
* Source: EXCL: Mic in at rear panel (Pink)(Realtek(R) Audio), MICROPHONE (마스), R, volume: 1.000
* Format: 256k Log Swept Sine, 1 sweep at -12.0 dBFS with no timing reference
* Dated: 2023. 2. 14 오후 9:03:22
* REW Settings:
*  C-weighting compensation: Off
*  Target level: 75.0 dB
* Note: 
* Measurement: L
* Smoothing: 1/24 octave
* Frequency Step: 1/48 octave
* Start Frequency: 20.300 Hz
*
* Freq(Hz)	SPL(dB)	Phase(degrees)
20.299999	95.496	-176.4533
20.600000	95.487	-176.6967
20.900000	95.470	-177.1217
21.200001	95.454	-177.5071
21.400000	95.445	-177.7583
21.799999	95.426	-178.2927
22.000000	95.414	-178.5859
22.400000	95.382	-179.2036
22.700001	95.354	-179.6709
23.000000	95.324	179.8712
23.299999	95.295	179.4227
23.600000	95.269	178.9765
24.000000	95.242	178.3706
24.299999	95.225	177.9004
24.700001	95.206	177.2529
25.000000	95.191	176.7586
25.400000	95.170	176.0997
25.799999	95.147	175.4553
26.200001	95.120	174.8410
26.500000	95.098	174.4091
26.900000	95.065	173.8789
27.200001	95.040	173.5144
27.600000	95.009	173.0611
28.000000	94.981	172.6231
28.500000	94.949	172.0658
29.000000	94.914	171.4877
29.500000	94.873	170.9079
30.000000	94.827	170.3536
30.400000	94.790	169.9358
30.700001	94.763	169.6342
31.100000	94.728	169.2383
31.500000	94.695	168.8407
32.000000	94.653	168.3373
32.500000	94.609	167.8383
33.000000	94.565	167.3606
33.500000	94.524	166.9082
34.000000	94.485	166.4722
34.500000	94.447	166.0457
35.000000	94.408	165.6300
35.500000	94.370	165.2260
36.000000	94.331	164.8275
36.500000	94.292	164.4307
37.000000	94.252	164.0400
37.500000	94.212	163.6577
38.200001	94.156	163.1142
38.700001	94.113	162.7083
39.500000	94.037	162.0771
40.000000	93.989	161.7225
40.599998	93.938	161.3162
41.200001	93.890	160.8907
41.799999	93.838	160.4512
42.500000	93.774	159.9663
43.099998	93.717	159.5958
43.700001	93.662	159.2715
44.400002	93.602	158.9419
45.000000	93.557	158.6596
45.500000	93.521	158.3958
46.200001	93.464	158.0039
46.799999	93.411	157.6965
47.500000	93.351	157.3748
48.200001	93.296	157.0446
48.700001	93.256	156.8033
49.400002	93.198	156.4857
50.000000	93.151	156.2270
50.799999	93.087	155.8738
51.500000	93.028	155.5821
52.200001	92.971	155.3210
53.000000	92.911	155.0052
53.799999	92.847	154.6581
54.500000	92.788	154.3729
55.200001	92.731	154.0954
56.000000	92.667	153.7552
57.000000	92.580	153.3742
58.000000	92.505	153.0643
59.000000	92.433	152.6949
60.000000	92.347	152.3607
60.799999	92.283	152.1691
61.500000	92.233	151.9969
62.200001	92.183	151.8111
63.000000	92.122	151.6248
64.000000	92.051	151.4185
65.000000	91.979	151.1995
66.000000	91.902	151.0146
67.000000	91.829	150.8529
68.000000	91.756	150.6626
69.000000	91.677	150.4655
70.000000	91.599	150.2902
71.000000	91.526	150.1054
72.000000	91.453	149.9102
73.000000	91.381	149.7302
74.000000	91.310	149.5615
75.000000	91.238	149.4157
76.199997	91.153	149.2642
77.500000	91.061	149.1202
78.800003	90.969	148.9659
80.000000	90.883	148.8254
81.199997	90.798	148.7089
82.500000	90.711	148.6066
83.800003	90.628	148.5217
85.000000	90.551	148.4553
86.199997	90.476	148.4122
87.500000	90.398	148.3621
88.500000	90.337	148.3145
90.000000	90.248	148.2590
91.199997	90.180	148.2231
92.500000	90.113	148.1661
93.800003	90.046	148.0771
95.000000	89.979	147.9958
96.199997	89.909	147.9492
97.500000	89.834	147.9402
98.800003	89.764	147.9523
100.000000	89.704	147.9493
101.500000	89.627	147.8983
103.000000	89.546	147.8600
104.400002	89.475	147.8817
106.000000	89.405	147.9034
107.500000	89.335	147.9357
109.000000	89.263	148.0233
110.599998	89.189	148.1172
112.000000	89.126	148.1403
113.800003	89.040	148.1113
115.000000	88.981	148.1143
117.199997	88.868	148.2337
118.000000	88.828	148.3375
120.599998	88.730	148.6134
122.000000	88.678	148.6216
124.099998	88.593	148.6190
125.000000	88.557	148.6528
126.500000	88.500	148.7780
128.000000	88.447	148.9166
131.500000	88.286	149.1439
132.000000	88.262	149.1868
134.000000	88.178	149.3363
136.000000	88.104	149.4355
138.000000	88.027	149.5778
140.000000	87.949	149.7537
143.000000	87.838	150.0186
145.000000	87.771	150.1928
147.500000	87.693	150.4465
150.000000	87.613	150.7136
152.500000	87.532	150.9706
155.000000	87.449	151.1805
157.500000	87.369	151.4031
160.000000	87.296	151.6030
162.500000	87.221	151.8054
165.000000	87.146	152.0627
167.500000	87.082	152.3279
170.000000	87.019	152.5386
172.500000	86.953	152.7509
175.000000	86.888	153.0140
177.500000	86.825	153.3017
180.000000	86.763	153.5994
182.500000	86.702	153.8815
185.000000	86.641	154.1596
187.500000	86.585	154.4218
190.000000	86.534	154.6703
192.500000	86.490	154.9288
195.000000	86.447	155.1960
197.500000	86.399	155.4694
200.000000	86.350	155.7434
203.000000	86.292	156.0534
206.000000	86.236	156.3651
209.000000	86.184	156.6725
212.000000	86.130	156.9662
214.000000	86.092	157.1560
218.000000	86.016	157.5354
220.000000	85.981	157.7451
224.000000	85.916	158.1899
227.000000	85.867	158.5202
230.000000	85.821	158.8626
233.000000	85.778	159.2048
236.000000	85.736	159.5163
240.000000	85.680	159.9155
243.000000	85.641	160.2223
247.000000	85.592	160.6108
250.000000	85.552	160.8961
254.000000	85.493	161.2906
258.000000	85.438	161.7023
262.000000	85.387	162.1289
265.000000	85.349	162.4465
269.000000	85.301	162.8506
272.000000	85.268	163.1525
276.000000	85.223	163.5752
280.000000	85.179	164.0053
285.000000	85.129	164.5462
290.000000	85.086	165.0807
295.000000	85.042	165.5972
300.000000	85.000	166.0715
304.000000	84.960	166.4561
307.000000	84.930	166.7806
311.000000	84.893	167.2071
315.000000	84.852	167.6298
320.000000	84.806	168.1862
325.000000	84.771	168.7638
330.000000	84.740	169.3804
335.000000	84.713	169.9626
340.000000	84.693	170.5457
345.000000	84.679	171.0872
350.000000	84.658	171.5481
355.000000	84.631	172.0200
360.000000	84.601	172.5561
365.000000	84.584	173.0937
370.000000	84.574	173.5449
375.000000	84.565	173.9938
382.000000	84.549	174.6387
387.000000	84.542	175.0783
395.000000	84.534	175.6260
400.000000	84.512	175.9303
406.000000	84.481	176.4360
412.000000	84.476	176.9468
418.000000	84.456	177.2986
425.000000	84.411	177.8679
431.000000	84.405	178.4152
437.000000	84.402	178.8030
444.000000	84.378	179.2328
450.000000	84.363	179.7054
455.000000	84.354	-179.9123
462.000000	84.327	-179.3554
468.000000	84.306	-178.8348
475.000000	84.293	-178.2644
482.000000	84.280	-177.7624
487.000000	84.262	-177.3853
494.000000	84.234	-176.7709
500.000000	84.221	-176.2204
508.000000	84.229	-175.5613
515.000000	84.226	-175.1609
522.000000	84.199	-174.6499
530.000000	84.192	-173.8935
538.000000	84.198	-173.2640
545.000000	84.195	-172.7651
552.000000	84.183	-172.2616
560.000000	84.171	-171.6452
570.000000	84.169	-170.8114
580.000000	84.173	-170.0370
590.000000	84.171	-169.2811
600.000000	84.177	-168.5300
608.000000	84.184	-167.9334
615.000000	84.186	-167.3700
622.000000	84.186	-166.8099
630.000000	84.189	-166.2244
640.000000	84.199	-165.5052
650.000000	84.216	-164.7452
660.000000	84.229	-163.9904
670.000000	84.239	-163.2278
680.000000	84.251	-162.4663
690.000000	84.266	-161.7385
700.000000	84.283	-161.0104
710.000000	84.302	-160.2496
720.000000	84.323	-159.5026
730.000000	84.346	-158.7585
740.000000	84.369	-158.0195
750.000000	84.392	-157.2978
762.000000	84.424	-156.4095
775.000000	84.464	-155.4637
788.000000	84.509	-154.5323
800.000000	84.552	-153.6789
812.000000	84.600	-152.8309
825.000000	84.656	-151.9167
838.000000	84.714	-151.0304
850.000000	84.775	-150.2314
862.000000	84.839	-149.4509
875.000000	84.908	-148.6168
885.000000	84.963	-147.9713
900.000000	85.050	-147.0174
912.000000	85.126	-146.3109
925.000000	85.212	-145.5768
938.000000	85.298	-144.8675
950.000000	85.382	-144.2402
962.000000	85.469	-143.6279
975.000000	85.564	-142.9925
988.000000	85.662	-142.4171
1000.000000	85.752	-141.9146
1015.000000	85.860	-141.2631
1030.000000	85.967	-140.6475
1044.000000	86.066	-140.1255
1060.000000	86.181	-139.5874
1075.000000	86.288	-139.1246
1090.000000	86.398	-138.6890
1106.000000	86.519	-138.2491
1120.000000	86.627	-137.8804
1138.000000	86.764	-137.4370
1150.000000	86.854	-137.1589
1172.000000	87.017	-136.6901
1180.000000	87.076	-136.5292
1206.000000	87.261	-136.0175
1220.000000	87.358	-135.7623
1241.000000	87.502	-135.3916
1250.000000	87.563	-135.2346
1265.000000	87.662	-134.9790
1280.000000	87.760	-134.7231
1315.000000	87.983	-134.1082
1320.000000	88.016	-134.0251
1340.000000	88.144	-133.6868
1360.000000	88.268	-133.3432
1380.000000	88.392	-133.0229
1400.000000	88.523	-132.7113
1430.000000	88.727	-132.2403
1450.000000	88.865	-131.9431
1475.000000	89.038	-131.5873
1500.000000	89.214	-131.2650
1525.000000	89.393	-130.9855
1550.000000	89.572	-130.7247
1575.000000	89.748	-130.4838
1600.000000	89.922	-130.2801
1625.000000	90.101	-130.1074
1650.000000	90.282	-129.9456
1675.000000	90.466	-129.8099
1700.000000	90.655	-129.7088
1725.000000	90.845	-129.6416
1750.000000	91.037	-129.6179
1775.000000	91.231	-129.6338
1800.000000	91.427	-129.6861
1825.000000	91.627	-129.7910
1850.000000	91.829	-129.9562
1875.000000	92.034	-130.1824
1900.000000	92.243	-130.4760
1925.000000	92.456	-130.8457
1950.000000	92.672	-131.2920
1975.000000	92.892	-131.8382
2000.000000	93.114	-132.5031
2030.000000	93.384	-133.4754
2060.000000	93.653	-134.6997
2090.000000	93.914	-136.2670
2120.000000	94.148	-138.2511
2140.000000	94.273	-139.8259
2180.000000	94.387	-143.4835
2200.000000	94.344	-145.3601
2240.000000	94.057	-148.1746
2270.000000	93.775	-148.7742
2300.000000	93.598	-148.2659
2330.000000	93.592	-147.4843
2360.000000	93.716	-147.1266
2400.000000	93.935	-147.7168
2430.000000	94.055	-148.7688
2470.000000	94.123	-150.3064
2500.000000	94.144	-151.2534
2540.000000	94.204	-152.4424
2580.000000	94.280	-154.1214
2620.000000	94.263	-156.3986
2650.000000	94.134	-158.0789
2690.000000	93.837	-159.4405
2720.000000	93.608	-159.5893
2760.000000	93.401	-159.0980
2800.000000	93.309	-158.5268
2850.000000	93.272	-158.1809
2900.000000	93.253	-158.1970
2950.000000	93.228	-158.3786
3000.000000	93.194	-158.5881
3040.000000	93.162	-158.7228
3070.000000	93.140	-158.7875
3110.000000	93.120	-158.8316
3150.000000	93.109	-158.8714
3200.000000	93.101	-158.9545
3250.000000	93.091	-159.0441
3300.000000	93.087	-159.0992
3350.000000	93.098	-159.1584
3400.000000	93.119	-159.3180
3450.000000	93.134	-159.5452
3500.000000	93.149	-159.7242
3550.000000	93.173	-159.8651
3600.000000	93.210	-160.0373
3650.000000	93.257	-160.2776
3700.000000	93.311	-160.6275
3750.000000	93.368	-161.1721
3820.000000	93.410	-162.4623
3870.000000	93.344	-163.6997
3950.000000	92.983	-164.5168
4000.000000	92.798	-163.4411
4060.000000	92.842	-161.9826
4120.000000	93.010	-161.8313
4180.000000	93.089	-162.7812
4250.000000	92.977	-164.1663
4310.000000	92.686	-164.5462
4370.000000	92.367	-162.8759
4440.000000	92.374	-159.6476
4500.000000	92.631	-157.9493
4550.000000	92.872	-157.4005
4620.000000	93.189	-157.4416
4680.000000	93.434	-157.9912
4750.000000	93.688	-159.0568
4820.000000	93.913	-160.4809
4870.000000	94.063	-161.7283
4940.000000	94.257	-163.8929
5000.000000	94.398	-166.2607
5080.000000	94.503	-170.4259
5150.000000	94.419	-175.1252
5220.000000	94.031	179.7910
5300.000000	93.133	175.6126
5380.000000	91.966	175.5965
5450.000000	91.164	178.6572
5520.000000	90.782	-177.8170
5600.000000	90.654	-174.8930
5700.000000	90.644	-172.9373
5800.000000	90.606	-172.4613
5900.000000	90.445	-172.5398
6000.000000	90.193	-172.5945
6080.000000	89.933	-172.5776
6150.000000	89.648	-172.4675
6220.000000	89.283	-172.0751
6300.000000	88.744	-170.5412
6400.000000	88.120	-165.6859
6500.000000	88.008	-159.3534
6600.000000	88.287	-154.6208
6700.000000	88.598	-151.6506
6800.000000	88.843	-149.2979
6900.000000	89.089	-146.8957
7000.000000	89.382	-144.3943
7100.000000	89.710	-141.7073
7200.000000	90.117	-138.4860
7300.000000	90.749	-134.6143
7400.000000	91.791	-130.8432
7500.000000	93.223	-129.1359
7620.000000	94.972	-132.2256
7750.000000	96.338	-140.7524
7880.000000	97.037	-151.3610
8000.000000	97.146	-161.2460
8120.000000	96.871	-169.4324
8250.000000	96.522	-176.4725
8380.000000	96.143	175.9605
8500.000000	95.483	168.7952
8620.000000	94.485	163.3301
8750.000000	93.226	160.2615
8850.000000	92.287	159.6061
9000.000000	91.074	160.1721
9120.000000	90.259	161.2450
9250.000000	89.488	162.7855
9380.000000	88.818	164.6029
9500.000000	88.281	166.3628
9620.000000	87.804	167.9944
9750.000000	87.295	169.4822
9880.000000	86.696	171.1579
10000.000000	86.052	173.8694
10150.000000	85.354	179.5320
10300.000000	85.068	-173.4919
10440.000000	85.213	-167.3867
10600.000000	85.715	-162.0424
10750.000000	86.337	-159.0928
10900.000000	86.970	-158.0797
11060.000000	87.569	-158.7574
11200.000000	88.002	-160.5181
11380.000000	88.405	-164.1521
11500.000000	88.556	-167.3846
11720.000000	88.481	-174.8343
11800.000000	88.299	-177.8704
12060.000000	86.951	173.7027
12200.000000	85.778	172.0663
12410.000000	83.769	175.5085
12500.000000	82.975	179.0460
12650.000000	81.961	-173.2465
12800.000000	81.457	-164.6488
13150.000000	81.844	-147.0974
13200.000000	82.006	-145.0898
13400.000000	82.807	-138.2590
13600.000000	83.824	-133.2152
13800.000000	85.036	-130.1064
14000.000000	86.388	-129.2480
14300.000000	88.522	-133.1699
14500.000000	89.755	-140.5202
14750.000000	90.499	-154.7528
15000.000000	90.065	-169.0783
15250.000000	88.847	-177.7541
15500.000000	87.598	179.5650
15750.000000	86.808	-179.7278
16000.000000	86.523	-177.9478
16250.000000	86.638	-176.2303
16500.000000	87.147	-175.0107
16750.000000	88.134	-175.3640
17000.000000	89.473	-179.6062
17250.000000	90.704	170.2596
17500.000000	91.315	154.8870
17750.000000	91.061	138.0416
18000.000000	90.083	123.5547
18250.000000	88.724	112.5251
18500.000000	87.244	104.1159
18750.000000	85.723	97.5776
19000.000000	84.180	92.9689
19250.000000	82.738	90.2258
19500.000000	81.619	87.9503
19750.000000	80.919	84.5794
20000.000000	80.592	81.7131
